LabVIEW Measurement	
Writer_Version	2
Reader_Version	2
Separator	Tab
Decimal_Separator	.
Multi_Headings	No
X_Columns	One
Time_Pref	Absolute
Operator	admin
Description	Clolumns are: time, Current, Voltage, Power, Battery Temp, and Chamber Temp
Date	2024/08/16
Time	13:07:17.8513970375061035156
***End_of_Header***	
	
Channels	6						
Samples	1	1	1	1	1	1	
Date	2024/08/31	2024/08/31	2024/08/31	2024/08/31	2024/08/31	2024/08/31	
Time	16:03:42.486492156982421875	16:03:42.4916110038757324219	16:03:42.5006079673767089844	16:03:42.4683375358581542969	16:03:42.4683375358581542969	16:03:42.4683375358581542969	
X_Dimension	Time	Time	Time	Time	Time	Time	
X0	0.0000000000000000E+0	0.0000000000000000E+0	0.0000000000000000E+0	0.0000000000000000E+0	0.0000000000000000E+0	0.0000000000000000E+0	
Delta_X	1.000000	1.000000	1.000000	1.000000	1.000000	1.000000	
***End_of_Header***							
X_Value	Untitled	Untitled 1	Untitled 2	Untitled 3	Untitled 4	Untitled 5	Comment
0.000000	0.027621	4.088900	0.113100	20.737781	0.000457	20.692259
0.998847	-3.011100	3.926500	-11.821000	20.714571	0.000458	20.679481
1.998745	-3.011200	3.920200	-11.803000	20.717669	0.000456	20.714824
3.000144	-3.007900	3.916800	-11.780000	20.722902	0.000456	20.709625
3.998854	-3.018100	3.911900	-11.806000	20.735386	0.000454	20.698399
5.004238	-2.994800	3.911700	-11.714000	20.729320	0.000454	20.707033
6.000857	-3.022600	3.907700	-11.811000	20.734609	0.000455	20.693355
6.999844	-3.013700	3.906000	-11.770000	20.732116	0.000455	20.699871
7.999780	-3.006900	3.903900	-11.738000	20.751908	0.000452	20.688368
8.999714	-2.984100	3.902900	-11.646000	20.746488	0.000452	20.714244
9.999946	-2.970500	3.902100	-11.591000	20.749317	0.000451	20.679137
10.999687	-3.000500	3.898300	-11.695000	20.761458	0.000450	20.681321
12.002671	-3.005600	3.898100	-11.715000	20.774391	0.000449	20.686667
13.000668	-3.011200	3.896800	-11.733000	20.773221	0.000449	20.683127
14.002662	-3.021400	3.895700	-11.769000	20.788918	0.000449	20.695031
15.004464	-3.003400	3.894700	-11.696000	20.782901	0.000449	20.686643
16.004193	-3.013200	3.893600	-11.731000	20.787234	0.000447	20.693347
17.003327	-3.011700	3.892000	-11.720000	20.810672	0.000449	20.698293
18.005578	-3.008500	3.891100	-11.705000	20.812421	0.000449	20.688662
19.003154	-3.005200	3.891700	-11.695000	20.806127	0.000447	20.694696
20.010323	-3.008100	3.889500	-11.698000	20.812323	0.000447	20.667225
21.004925	-2.999800	3.889400	-11.667000	20.832736	0.000444	20.682424
22.004724	-3.009400	3.888300	-11.700000	20.831534	0.000446	20.685016
23.004512	-3.009200	3.888800	-11.700000	20.841491	0.000447	20.675532
24.006258	-2.991000	3.887800	-11.628000	20.858715	0.000445	20.668100
25.006208	-3.026500	3.885500	-11.758000	20.872955	0.000443	20.679972
26.008170	-3.006500	3.885500	-11.681000	20.860923	0.000446	20.688802
27.007028	-3.002600	3.885900	-11.666000	20.897283	0.000444	20.678222
28.006670	-2.996800	3.885500	-11.643000	20.881130	0.000444	20.712806
29.009490	-2.997200	3.885100	-11.644000	20.901100	0.000443	20.696266
30.007817	-3.004900	3.885200	-11.674000	20.912275	0.000443	20.685156
31.013846	-2.982200	3.883100	-11.579000	20.924855	0.000443	20.683986
32.009122	-3.011800	3.883200	-11.693000	20.911171	0.000442	20.695433
33.009807	-3.021000	3.883000	-11.730000	20.926579	0.000441	20.678124
34.012956	-3.024600	3.882100	-11.741000	20.938154	0.000444	20.697288
35.011022	-3.003100	3.880900	-11.654000	20.927667	0.000442	20.678738
36.012617	-3.000800	3.881500	-11.647000	20.953570	0.000440	20.681885
37.008680	-3.004900	3.881200	-11.660000	20.959578	0.000439	20.694533
38.011806	-3.013200	3.880600	-11.692000	20.972534	0.000440	20.667659
39.012020	-3.009300	3.880400	-11.676000	20.975852	0.000441	20.683782
40.011783	-2.985900	3.880000	-11.584000	20.980021	0.000440	20.693642
41.012432	-2.997900	3.879600	-11.630000	21.002531	0.000441	20.681542
42.013314	-2.996400	3.879600	-11.624000	21.009511	0.000438	20.695163
43.012920	-3.002500	3.879000	-11.645000	20.993744	0.000440	20.660423
44.013613	-2.972100	3.879100	-11.528000	21.030248	0.000440	20.677969
45.012421	-2.994400	3.877600	-11.610000	21.023129	0.000440	20.677013
46.013646	-2.999300	3.877300	-11.628000	21.034179	0.000440	20.673366
47.015889	-2.964800	3.879200	-11.501000	21.045679	0.000441	20.664479
48.013956	-3.010900	3.877500	-11.673000	21.043636	0.000439	20.679506
49.014925	-2.998000	3.876800	-11.622000	21.068515	0.000439	20.668828
50.014294	-3.002000	3.878200	-11.642000	21.053722	0.000439	20.667308
51.019192	-3.009300	3.875100	-11.660000	21.063701	0.000442	20.678713
52.016355	-3.022800	3.875800	-11.714000	21.085801	0.000439	20.669049
53.015990	-3.001100	3.875700	-11.631000	21.084625	0.000439	20.671192
54.015962	-3.005500	3.876000	-11.649000	21.096589	0.000436	20.666089
55.015521	-3.005100	3.876200	-11.648000	21.110623	0.000438	20.669221
56.018158	-3.012100	3.874600	-11.671000	21.115216	0.000438	20.645363
57.016942	-3.004800	3.875800	-11.645000	21.114700	0.000437	20.660497
58.018936	-2.987000	3.875200	-11.573000	21.113998	0.000439	20.658371
59.020088	-3.028300	3.874300	-11.729000	21.137854	0.000438	20.662320
60.016983	-3.020900	3.873800	-11.702000	21.129289	0.000440	20.663710
61.019830	-3.018300	3.873800	-11.691000	21.159528	0.000441	20.664086
62.016067	-3.003400	3.874900	-11.636000	21.167954	0.000438	20.650703
63.021434	-3.007000	3.875000	-11.651000	21.181994	0.000437	20.677079
64.016521	-3.009900	3.873200	-11.656000	21.182206	0.000437	20.664961
65.017089	-3.004100	3.873000	-11.634000	21.181030	0.000439	20.683226
66.016095	-2.999700	3.872400	-11.615000	21.207401	0.000439	20.665509
67.016133	-3.020600	3.873300	-11.698000	21.207622	0.000439	20.676162
68.016983	-2.996900	3.873800	-11.608000	21.218148	0.000438	20.666302
69.019466	-2.974000	3.873200	-11.518000	21.234917	0.000437	20.677389
70.016741	-2.967200	3.873500	-11.493000	21.218851	0.000439	20.667480
71.017146	-2.977100	3.873700	-11.531000	21.242542	0.000440	20.652297
72.020335	-3.008000	3.871300	-11.644000	21.244593	0.000438	20.664782
73.017441	-3.015300	3.870300	-11.669000	21.253590	0.000441	20.679948
74.019033	-3.001700	3.872100	-11.621000	21.278693	0.000441	20.672344
75.017268	-3.016600	3.871000	-11.676000	21.280933	0.000438	20.665101
76.019042	-2.996600	3.871300	-11.600000	21.272500	0.000439	20.669467
77.016627	-3.001400	3.869800	-11.614000	21.282624	0.000440	20.657783
78.016617	-2.994800	3.870700	-11.591000	21.285223	0.000441	20.673187
79.019804	-3.026000	3.869500	-11.708000	21.301705	0.000438	20.678771
80.020142	-3.012800	3.869100	-11.656000	21.304949	0.000440	20.654513
81.020586	-2.998200	3.870200	-11.603000	21.322657	0.000440	20.663695
82.020948	-2.994400	3.869500	-11.586000	21.340249	0.000439	20.683194
83.019407	-2.990000	3.871100	-11.573000	21.346108	0.000441	20.659182
84.023612	-2.985900	3.870600	-11.556000	21.335780	0.000441	20.684413
85.019242	-2.998100	3.870100	-11.602000	21.340364	0.000437	20.652960
86.019157	-2.976500	3.869200	-11.515000	21.350840	0.000439	20.680039
87.019994	-3.008200	3.868400	-11.635000	21.377510	0.000440	20.663572
88.021130	-3.002300	3.869000	-11.614000	21.386236	0.000440	20.671356
89.025613	-2.961700	3.870800	-11.463000	21.383491	0.000442	20.672402
90.020972	-3.005100	3.868200	-11.623000	21.399621	0.000439	20.660090
91.021070	-3.001200	3.869700	-11.612000	21.420529	0.000439	20.664415
92.031280	-3.002800	3.869100	-11.618000	21.413895	0.000442	20.679589
93.021326	-3.009100	3.866900	-11.634000	21.415071	0.000442	20.680766
94.020263	-3.002600	3.867600	-11.612000	21.442778	0.000441	20.704223
95.022606	-3.008600	3.868200	-11.636000	21.453105	0.000442	20.695115
96.019796	-3.003500	3.868600	-11.619000	21.451079	0.000441	20.673645
97.020515	-2.979100	3.868900	-11.525000	21.452884	0.000442	20.693471
98.026021	-3.002700	3.868600	-11.615000	21.446152	0.000443	20.672983
99.020868	-2.996000	3.867500	-11.587000	21.481432	0.000443	20.677464
100.025678	-3.002400	3.866900	-11.608000	21.478483	0.000445	20.683522
101.026858	-3.001500	3.866600	-11.605000	21.482289	0.000441	20.652714
102.022476	-2.991900	3.866800	-11.569000	21.485599	0.000443	20.660294
103.024065	-3.015200	3.866300	-11.656000	21.499194	0.000442	20.673899
104.022747	-3.013200	3.864900	-11.645000	21.500918	0.000443	20.668036
105.024524	-3.000200	3.866900	-11.600000	21.510117	0.000444	20.698582
106.022100	-3.006800	3.865500	-11.622000	21.508467	0.000445	20.675117
107.023569	-2.998100	3.865900	-11.590000	21.519570	0.000445	20.680063
108.023341	-3.016200	3.865400	-11.659000	21.534308	0.000445	20.670154
109.023116	-3.013600	3.863900	-11.642000	21.536906	0.000444	20.680815
110.025492	-2.993700	3.866000	-11.573000	21.548548	0.000442	20.683931
111.025642	-2.999200	3.866100	-11.594000	21.560910	0.000443	20.683024
112.024355	-2.995600	3.864900	-11.576000	21.564978	0.000444	20.697053
113.025615	-2.997600	3.865000	-11.585000	21.579446	0.000445	20.693513
114.028082	-3.002800	3.866300	-11.609000	21.608096	0.000445	20.696579
115.026231	-2.980800	3.864700	-11.519000	21.608766	0.000445	20.687291
116.029964	-2.984600	3.864200	-11.532000	21.584054	0.000446	20.688640
117.027761	-2.992100	3.864100	-11.560000	21.602484	0.000443	20.684798
118.028226	-3.000400	3.863400	-11.591000	21.618071	0.000446	20.695655
119.027635	-2.986000	3.863000	-11.533000	21.621461	0.000446	20.671544
120.026855	-2.984000	3.863600	-11.528000	21.644612	0.000447	20.682859
121.030264	-2.986900	3.863900	-11.540000	21.657127	0.000449	20.696333
122.031410	-2.990100	3.864500	-11.555000	21.669201	0.000448	20.677594
123.028760	-3.004400	3.863100	-11.606000	21.658051	0.000448	20.679712
124.029017	-3.019300	3.862300	-11.660000	21.697743	0.000449	20.687193
125.028951	-3.017400	3.862200	-11.653000	21.690457	0.000447	20.705981
126.030903	-3.017300	3.862600	-11.653000	21.679494	0.000447	20.685051
127.033537	-2.966500	3.863600	-11.460000	21.701141	0.000447	20.696284
128.032359	-2.986800	3.862100	-11.535000	21.679641	0.000448	20.700847
129.033087	-2.988500	3.862600	-11.543000	21.693455	0.000448	20.699972
130.034199	-3.005700	3.862300	-11.608000	21.721464	0.000449	20.684854
131.031047	-3.002600	3.862500	-11.596000	21.736944	0.000447	20.693235
132.037527	-3.019200	3.860800	-11.656000	21.719324	0.000447	20.673702
133.034466	-3.007300	3.861800	-11.613000	21.726684	0.000448	20.695295
134.045411	-3.004400	3.862200	-11.603000	21.752635	0.000450	20.680488
135.033401	-2.982800	3.861900	-11.518000	21.742114	0.000451	20.687977
136.035691	-2.999000	3.861600	-11.580000	21.745121	0.000451	20.713274
137.034165	-3.003000	3.861500	-11.595000	21.759186	0.000452	20.696530
138.038742	-3.012600	3.860500	-11.629000	21.806814	0.000450	20.693938
139.035488	-3.002700	3.860300	-11.589000	21.790609	0.000449	20.696211
140.037089	-2.995300	3.860900	-11.563000	21.787710	0.000451	20.713225
141.039838	-3.024100	3.859600	-11.671000	21.790960	0.000452	20.702727
142.036464	-2.997200	3.859800	-11.568000	21.808096	0.000452	20.693324
143.038496	-2.982000	3.859500	-11.508000	21.810261	0.000453	20.701655
144.036564	-2.992000	3.860600	-11.550000	21.832673	0.000453	20.697535
145.036885	-3.016500	3.858500	-11.638000	21.835099	0.000453	20.700911
146.036547	-3.024400	3.859500	-11.671000	21.850233	0.000454	20.698041
147.036237	-3.007700	3.858100	-11.603000	21.838260	0.000453	20.687004
148.039008	-3.003400	3.859400	-11.590000	21.856269	0.000452	20.705506
149.038894	-2.990500	3.859500	-11.541000	21.853647	0.000455	20.730859
150.036442	-3.009500	3.858100	-11.610000	21.882691	0.000451	20.690226
151.037889	-2.981800	3.859000	-11.506000	21.879751	0.000454	20.708621
152.037757	-2.976200	3.859300	-11.485000	21.880323	0.000454	20.719151
153.037166	-2.991600	3.858600	-11.542000	21.890369	0.000453	20.710240
154.036755	-2.995000	3.857800	-11.553000	21.898829	0.000457	20.692155
155.036757	-3.000700	3.856800	-11.572000	21.906278	0.000454	20.700086
156.037250	-3.002500	3.857800	-11.582000	21.950682	0.000455	20.698066
157.041078	-2.991800	3.858500	-11.543000	21.944468	0.000454	20.706070
158.039522	-3.017700	3.857700	-11.640000	21.968200	0.000457	20.709439
159.042415	-3.014000	3.857000	-11.624000	21.963945	0.000457	20.698540
160.040301	-3.023400	3.856900	-11.660000	21.950478	0.000457	20.703078
161.041040	-3.004000	3.858000	-11.589000	21.973141	0.000457	20.715333
162.040706	-2.998600	3.857500	-11.566000	21.961054	0.000457	20.707501
163.041136	-2.999700	3.857700	-11.570000	21.966085	0.000459	20.701631
164.039584	-3.002900	3.856500	-11.580000	21.962443	0.000462	20.702727
165.042134	-3.011400	3.855700	-11.610000	21.971369	0.000458	20.700756
166.039246	-2.978900	3.856600	-11.487000	22.004876	0.000459	20.705849
167.039600	-2.998700	3.855500	-11.560000	22.026232	0.000461	20.720591
168.046685	-3.001300	3.857200	-11.576000	22.022222	0.000459	20.708515
169.042679	-3.022900	3.855700	-11.655000	22.035444	0.000460	20.708949
170.043368	-3.008100	3.854400	-11.593000	22.051490	0.000460	20.716004
171.043740	-3.018800	3.855400	-11.637000	22.057019	0.000461	20.724384
172.043023	-3.010100	3.854800	-11.603000	22.078602	0.000462	20.716119
173.042604	-3.000300	3.855600	-11.567000	22.041553	0.000460	20.703210
174.044108	-3.011800	3.855000	-11.610000	22.059730	0.000461	20.724728
175.045503	-2.982500	3.855500	-11.498000	22.051475	0.000461	20.735430
176.045101	-3.002400	3.852900	-11.567000	22.058416	0.000464	20.712980
177.045127	-2.986300	3.855100	-11.511000	22.051148	0.000462	20.724197
178.046000	-3.016000	3.853700	-11.622000	22.045759	0.000464	20.703153
179.046017	-2.996400	3.853900	-11.546000	22.076667	0.000464	20.711337
180.046609	-3.028100	3.851900	-11.663000	22.079330	0.000463	20.730599
181.047900	-2.995900	3.853100	-11.543000	22.090648	0.000465	20.728653
182.045558	-2.992100	3.853100	-11.528000	22.086353	0.000464	20.715344
183.046934	-3.000200	3.852200	-11.556000	22.114019	0.000466	20.713643
184.047292	-3.009700	3.853000	-11.594000	22.120380	0.000467	20.712899
185.046465	-3.013500	3.852000	-11.607000	22.095523	0.000465	20.718835
186.050605	-3.019800	3.852100	-11.631000	22.115415	0.000465	20.719309
187.046510	-3.007500	3.851300	-11.581000	22.115758	0.000466	20.739094
188.046611	-2.999500	3.852900	-11.555000	22.147392	0.000465	20.742789
189.047153	-3.015100	3.850700	-11.610000	22.166826	0.000467	20.734745
190.046747	-2.999600	3.852100	-11.554000	22.139880	0.000467	20.712508
191.048748	-2.997000	3.851000	-11.540000	22.189835	0.000468	20.737868
192.049546	-2.991800	3.850800	-11.520000	22.202769	0.000469	20.721419
193.048366	-2.978100	3.851100	-11.468000	22.226015	0.000468	20.742798
194.047014	-2.999500	3.851700	-11.552000	22.239128	0.000470	20.729374
195.048962	-3.010900	3.849600	-11.590000	22.230056	0.000469	20.736887
196.046566	-3.013300	3.850000	-11.600000	22.242590	0.000469	20.745169
197.049520	-2.994600	3.851100	-11.531000	22.237471	0.000469	20.738621
198.046143	-3.004600	3.850800	-11.568000	22.224145	0.000469	20.733339
199.046803	-3.004200	3.850200	-11.566000	22.231918	0.000469	20.743019
200.051933	-2.988800	3.850400	-11.507000	22.224864	0.000470	20.745439
201.046157	-2.976800	3.849000	-11.456000	22.215515	0.000469	20.749355
202.048641	-2.996200	3.848900	-11.530000	22.264937	0.000471	20.742889
203.046655	-2.989600	3.850200	-11.509000	22.265035	0.000470	20.751522
204.049220	-2.989600	3.849500	-11.508000	22.270448	0.000471	20.741769
205.050314	-3.001100	3.849300	-11.551000	22.304665	0.000471	20.742366
206.047250	-3.013800	3.848000	-11.596000	22.309948	0.000474	20.744810
207.052712	-2.998600	3.848200	-11.539000	22.321231	0.000473	20.739039
208.047715	-3.011000	3.848200	-11.586000	22.304992	0.000474	20.764978
209.049994	-2.986000	3.848300	-11.490000	22.323623	0.000473	20.750443
210.046715	-3.000200	3.847500	-11.543000	22.339755	0.000472	20.761856
211.047306	-3.005500	3.846700	-11.560000	22.357030	0.000473	20.745014
212.046976	-2.992600	3.847600	-11.514000	22.349772	0.000475	20.734901
213.051332	-3.006100	3.847000	-11.563000	22.367839	0.000474	20.752045
214.046822	-3.002000	3.846400	-11.546000	22.387179	0.000475	20.737272
215.047090	-3.005500	3.846900	-11.560000	22.394298	0.000473	20.735393
216.054715	-3.026900	3.846100	-11.641000	22.367137	0.000476	20.758455
217.048948	-2.996900	3.846300	-11.525000	22.390665	0.000475	20.745505
218.052246	-2.998000	3.844900	-11.526000	22.400609	0.000477	20.757834
219.048652	-3.003200	3.846600	-11.550000	22.371848	0.000475	20.750844
220.048666	-3.001800	3.845600	-11.543000	22.368558	0.000477	20.757507
221.049253	-3.005100	3.845500	-11.555000	22.363994	0.000476	20.754834
222.048495	-3.023200	3.845300	-11.624000	22.347103	0.000477	20.764946
223.051528	-2.994100	3.846000	-11.514000	22.387123	0.000479	20.744328
224.049657	-3.003500	3.843700	-11.544000	22.432455	0.000477	20.755586
225.049358	-3.009200	3.844700	-11.569000	22.466479	0.000477	20.762158
226.053121	-3.001700	3.843700	-11.536000	22.462430	0.000478	20.768061
227.049429	-3.009000	3.843600	-11.565000	22.447949	0.000478	20.744549
228.051736	-2.993900	3.845100	-11.511000	22.444071	0.000478	20.762477
229.052278	-2.990100	3.843600	-11.493000	22.482063	0.000480	20.749315
230.050054	-2.989400	3.843500	-11.489000	22.452414	0.000476	20.763246
231.049630	-2.982800	3.844600	-11.467000	22.465377	0.000481	20.752520
232.052449	-3.026900	3.842900	-11.631000	22.467688	0.000481	20.737763
233.050089	-2.998200	3.843700	-11.524000	22.494135	0.000479	20.754768
234.053359	-2.988200	3.842700	-11.481000	22.511172	0.000481	20.754286
235.050326	-2.989400	3.843000	-11.488000	22.494128	0.000482	20.757131
236.050274	-2.989900	3.842900	-11.489000	22.496421	0.000483	20.761325
237.051281	-2.993900	3.841600	-11.500000	22.509833	0.000483	20.784714
238.050017	-2.980200	3.843400	-11.452000	22.522665	0.000481	20.765796
239.049753	-2.994200	3.841100	-11.500000	22.530566	0.000483	20.763752
240.052176	-2.981600	3.842500	-11.456000	22.537260	0.000484	20.755283
241.051489	-2.997800	3.841100	-11.513000	22.527718	0.000484	20.767538
242.052297	-2.987000	3.841400	-11.474000	22.501229	0.000483	20.778468
243.056930	-3.002100	3.842300	-11.535000	22.544492	0.000486	20.783864
244.054393	-2.990800	3.840900	-11.486000	22.559266	0.000485	20.780643
245.058242	-2.998200	3.841100	-11.516000	22.554002	0.000485	20.779163
246.054470	-3.008300	3.839700	-11.549000	22.547300	0.000487	20.763442
247.054798	-3.019900	3.839400	-11.594000	22.578872	0.000485	20.767088
248.056736	-2.997200	3.839400	-11.506000	22.549447	0.000486	20.782188
249.053551	-2.982000	3.840900	-11.452000	22.555128	0.000486	20.766066
250.056642	-2.991500	3.839400	-11.485000	22.555552	0.000485	20.783561
251.060122	-2.988300	3.839500	-11.473000	22.558442	0.000487	20.761325
252.057823	-3.001200	3.839300	-11.522000	22.609872	0.000486	20.773007
253.057476	-2.995400	3.838400	-11.496000	22.609913	0.000487	20.775419
254.057425	-2.980100	3.839600	-11.441000	22.628082	0.000489	20.772280
255.056585	-3.000300	3.838300	-11.516000	22.675070	0.000490	20.773351
256.059481	-2.998400	3.838100	-11.507000	22.660795	0.000489	20.775174
257.056307	-2.990400	3.838600	-11.477000	22.644773	0.000490	20.785679
258.057758	-2.981300	3.837300	-11.439000	22.650969	0.000489	20.776237
259.057516	-2.978100	3.837600	-11.427000	22.668467	0.000487	20.790445
260.057134	-2.989300	3.836200	-11.467000	22.655229	0.000491	20.772918
261.057763	-2.964700	3.838400	-11.378000	22.644716	0.000488	20.787519
262.057570	-3.003100	3.837100	-11.523000	22.674474	0.000491	20.786979
263.058177	-3.004300	3.837200	-11.527000	22.691736	0.000490	20.780087
264.057950	-2.983600	3.835800	-11.443000	22.722855	0.000490	20.772378
265.059721	-3.005500	3.836700	-11.530000	22.737007	0.000491	20.783234
266.063109	-2.996900	3.836500	-11.497000	22.725916	0.000491	20.786349
267.060817	-3.022200	3.837000	-11.595000	22.726536	0.000492	20.778436
268.060699	-2.996600	3.834900	-11.491000	22.730151	0.000491	20.793437
269.060886	-3.002700	3.836800	-11.520000	22.742189	0.000490	20.789848
270.061559	-3.030800	3.834700	-11.621000	22.722602	0.000495	20.788720
271.061642	-3.003200	3.836300	-11.520000	22.741340	0.000495	20.774773
272.061988	-2.978600	3.834700	-11.421000	22.769349	0.000493	20.786709
273.060270	-3.006900	3.834600	-11.530000	22.786055	0.000493	20.785426
274.061036	-2.990000	3.834300	-11.464000	22.807607	0.000495	20.805119
275.065584	-3.011100	3.835100	-11.546000	22.818485	0.000494	20.794680
276.063542	-2.994100	3.833300	-11.477000	22.779224	0.000495	20.792334
277.065805	-2.998400	3.833000	-11.492000	22.779681	0.000495	20.795636
278.064962	-3.009500	3.832200	-11.533000	22.768590	0.000495	20.800648
279.065570	-2.992200	3.833000	-11.469000	22.767749	0.000496	20.794116
280.065506	-3.009300	3.832100	-11.531000	22.802221	0.000495	20.789293
281.064841	-3.007600	3.832700	-11.526000	22.789098	0.000498	20.786578
282.066230	-3.009100	3.833100	-11.533000	22.798736	0.000497	20.783905
283.068490	-3.009500	3.832300	-11.532000	22.807484	0.000497	20.814479
284.064604	-3.006200	3.831700	-11.518000	22.850801	0.000496	20.792440
285.064993	-3.013400	3.830900	-11.543000	22.873298	0.000497	20.800754
286.069617	-3.004400	3.831300	-11.509000	22.844052	0.000496	20.805119
287.065318	-3.020900	3.831200	-11.573000	22.861123	0.000498	20.798513
288.067476	-2.990300	3.831700	-11.457000	22.847022	0.000496	20.800982
289.063848	-2.993200	3.831900	-11.468000	22.827739	0.000500	20.799683
290.067574	-3.013700	3.830300	-11.542000	22.844501	0.000499	20.803672
291.066184	-3.004200	3.831300	-11.509000	22.856267	0.000497	20.792227
292.065829	-3.005300	3.830500	-11.510000	22.871185	0.000498	20.801955
293.069804	-3.025600	3.829300	-11.585000	22.871707	0.000499	20.810539
294.067490	-3.010600	3.829300	-11.527000	22.879385	0.000499	20.795946
295.067247	-3.009400	3.828800	-11.521000	22.892931	0.000502	20.789603
296.067417	-3.019400	3.829700	-11.562000	22.907709	0.000500	20.803459
297.067291	-2.999700	3.829200	-11.485000	22.899704	0.000501	20.812035
298.066614	-2.997900	3.829800	-11.480000	22.914457	0.000502	20.787460
299.068525	-3.008000	3.828600	-11.515000	22.913062	0.000500	20.794597
300.067974	-2.987400	3.829200	-11.438000	22.886860	0.000503	20.775933
301.068246	-2.997800	3.828500	-11.476000	22.902225	0.000503	20.784215
302.072926	-3.011600	3.827000	-11.525000	22.918113	0.000503	20.796813
303.068970	-2.993200	3.828800	-11.460000	22.942029	0.000504	20.801808
304.072330	-3.013600	3.826700	-11.531000	22.947684	0.000502	20.788033
305.069995	-3.012400	3.826600	-11.525000	22.944616	0.000504	20.769312
306.069553	-2.998300	3.827800	-11.476000	22.955835	0.000505	20.794777
307.069775	-3.011700	3.825700	-11.520000	22.960764	0.000504	20.774585
308.069376	-2.964000	3.826900	-11.342000	22.944494	0.000504	20.777250
309.069754	-3.011500	3.826400	-11.522000	22.920977	0.000505	20.776923
310.072922	-2.993900	3.826000	-11.454000	22.950246	0.000506	20.789652
311.070815	-2.991300	3.827000	-11.446000	22.981089	0.000506	20.768396
312.070991	-2.981400	3.826400	-11.407000	22.994234	0.000505	20.789627
313.075885	-3.012900	3.825300	-11.524000	22.998770	0.000507	20.792276
314.070868	-2.985100	3.825600	-11.419000	23.005739	0.000505	20.755635
315.074537	-2.993700	3.825600	-11.452000	22.977589	0.000508	20.762993
316.072012	-2.999400	3.824500	-11.470000	23.008407	0.000509	20.777274
317.071465	-2.991200	3.824000	-11.438000	23.047709	0.000507	20.765445
318.072970	-2.993400	3.825200	-11.448000	23.048011	0.000509	20.764799
319.073058	-3.010800	3.824500	-11.514000	23.037518	0.000509	20.763295
320.075261	-2.991600	3.824700	-11.441000	23.059490	0.000508	20.759706
321.073974	-3.002000	3.824500	-11.480000	23.043197	0.000507	20.811185
322.075177	-2.992700	3.823100	-11.440000	23.038669	0.000507	20.764922
323.074974	-2.996700	3.823700	-11.458000	23.036074	0.000509	20.762796
324.078927	-2.990500	3.823200	-11.432000	23.085615	0.000509	20.755062
325.077384	-2.995100	3.821800	-11.446000	23.087858	0.000512	20.747353
326.074796	-2.976800	3.823200	-11.380000	23.103417	0.000509	20.759624
327.075027	-2.976400	3.822100	-11.375000	23.099607	0.000510	20.762919
328.075060	-2.999000	3.823200	-11.465000	23.123544	0.000510	20.760352
329.074907	-3.000700	3.821200	-11.465000	23.120354	0.000511	20.754785
330.073540	-3.015200	3.821700	-11.522000	23.106060	0.000511	20.752316
331.077433	-3.011900	3.821600	-11.509000	23.118861	0.000511	20.743805
332.074622	-3.009500	3.821100	-11.498000	23.132983	0.000510	20.735196
333.074636	-3.006300	3.819300	-11.481000	23.149046	0.000510	20.748448
334.077457	-3.000500	3.820800	-11.464000	23.192700	0.000511	20.751416
335.075083	-3.003700	3.820300	-11.474000	23.170804	0.000511	20.752708
336.079661	-2.981000	3.820800	-11.389000	23.169466	0.000513	20.759902
337.076389	-3.005700	3.820000	-11.481000	23.161790	0.000514	20.746045
338.077521	-2.982000	3.821000	-11.393000	23.141860	0.000512	20.757369
339.078926	-3.026400	3.818100	-11.554000	23.146893	0.000513	20.758145
340.079017	-3.025400	3.818000	-11.550000	23.143875	0.000513	20.748956
341.078786	-3.008100	3.818000	-11.485000	23.182928	0.000513	20.752055
342.078506	-3.013700	3.818100	-11.505000	23.176230	0.000517	20.733014
343.078938	-3.020200	3.818900	-11.533000	23.196576	0.000516	20.741549
344.079792	-3.001500	3.817400	-11.457000	23.208772	0.000513	20.756143
345.079075	-3.000400	3.817800	-11.453000	23.189944	0.000514	20.750077
346.080055	-3.006500	3.816900	-11.475000	23.229011	0.000514	20.763149
347.081785	-3.001900	3.816400	-11.455000	23.230080	0.000514	20.736244
348.079661	-2.986100	3.817700	-11.399000	23.209083	0.000518	20.745074
349.080073	-2.994500	3.817700	-11.431000	23.203070	0.000516	20.741419
350.080216	-2.976600	3.817800	-11.363000	23.226499	0.000517	20.738345
351.080870	-2.979100	3.817300	-11.371000	23.244446	0.000516	20.742580
352.083304	-3.018200	3.815100	-11.514000	23.227094	0.000516	20.734674
353.079500	-2.990800	3.816200	-11.412000	23.241337	0.000515	20.761751
354.081570	-3.008600	3.815400	-11.478000	23.263330	0.000517	20.724520
355.081219	-3.007800	3.815900	-11.476000	23.246868	0.000518	20.735050
356.081148	-2.994900	3.815200	-11.425000	23.253786	0.000516	20.739138
357.083520	-3.009200	3.815000	-11.479000	23.255164	0.000517	20.729139
358.083925	-3.016500	3.813600	-11.502000	23.263004	0.000516	20.730832
359.081842	-3.003000	3.814600	-11.455000	23.305658	0.000518	20.729483
360.082042	-3.023700	3.813200	-11.529000	23.296661	0.000516	20.757451
361.083493	-2.986200	3.815200	-11.393000	23.291905	0.000518	20.729925
362.083030	-2.993000	3.814200	-11.415000	23.308342	0.000517	20.722215
363.082622	-2.991400	3.813600	-11.407000	23.296808	0.000519	20.719190
364.084248	-2.996100	3.813000	-11.424000	23.296710	0.000520	20.726205
365.083296	-2.987800	3.813500	-11.392000	23.283014	0.000521	20.710581
366.083558	-2.990500	3.813100	-11.403000	23.282818	0.000517	20.723662
367.083622	-3.021800	3.812100	-11.519000	23.303309	0.000519	20.740406
368.084605	-2.998400	3.812500	-11.431000	23.287272	0.000517	20.723384
369.086220	-3.012500	3.811200	-11.481000	23.310079	0.000520	20.717792
370.084492	-3.005300	3.812300	-11.456000	23.320088	0.000521	20.732092
371.085387	-3.001900	3.811300	-11.441000	23.280567	0.000520	20.725674
372.084195	-3.009200	3.810700	-11.467000	23.331288	0.000522	20.712495
373.087684	-2.996700	3.811700	-11.421000	23.316548	0.000521	20.726173
374.084394	-3.001600	3.810000	-11.435000	23.375530	0.000521	20.728389
375.085654	-2.994900	3.810200	-11.409000	23.387756	0.000521	20.720254
376.085257	-2.991100	3.810100	-11.395000	23.364869	0.000520	20.712013
377.086588	-2.980900	3.810600	-11.358000	23.406622	0.000523	20.719249
378.087354	-2.979400	3.810700	-11.353000	23.413922	0.000522	20.687208
379.089740	-3.000600	3.810100	-11.431000	23.403809	0.000522	20.718799
380.086665	-2.984200	3.809600	-11.368000	23.381231	0.000525	20.729836
381.086542	-3.011500	3.808400	-11.468000	23.393450	0.000521	20.703200
382.092558	-2.997600	3.809200	-11.418000	23.402186	0.000522	20.717172
383.086896	-3.011500	3.808700	-11.469000	23.401843	0.000524	20.725838
384.089957	-3.019900	3.808200	-11.500000	23.401762	0.000523	20.713428
385.086759	-2.995700	3.808600	-11.408000	23.403328	0.000524	20.707885
386.086860	-2.993700	3.807400	-11.398000	23.406941	0.000522	20.715300
387.086666	-2.990400	3.806500	-11.382000	23.435724	0.000523	20.710485
388.087241	-2.984300	3.808000	-11.363000	23.461546	0.000523	20.726411
389.087296	-3.016500	3.807000	-11.482000	23.446099	0.000524	20.711401
390.086448	-3.009000	3.806600	-11.453000	23.431687	0.000524	20.714025
391.086137	-3.013300	3.806400	-11.469000	23.425537	0.000524	20.710231
392.086300	-3.016600	3.805600	-11.478000	23.442844	0.000524	20.692016
393.086748	-3.015800	3.805100	-11.474000	23.460788	0.000524	20.709529
394.086559	-2.997900	3.805800	-11.408000	23.481830	0.000525	20.716396
395.087378	-3.017400	3.804800	-11.479000	23.496543	0.000523	20.733516
396.088207	-2.997300	3.805500	-11.406000	23.493729	0.000526	20.704141
397.090219	-2.994100	3.804700	-11.391000	23.490614	0.000524	20.703389
398.091496	-2.997700	3.805100	-11.406000	23.469376	0.000527	20.723828
399.090475	-2.985400	3.805500	-11.360000	23.488175	0.000525	20.718015
400.093066	-3.007300	3.805000	-11.440000	23.493231	0.000526	20.701745
401.090022	-2.996600	3.804600	-11.400000	23.494618	0.000525	20.724000
402.089203	-2.979700	3.805500	-11.339000	23.489015	0.000528	20.702735
403.090317	-2.980900	3.804700	-11.340000	23.525968	0.000526	20.674340
404.090131	-2.982300	3.803900	-11.343000	23.541643	0.000526	20.694322
405.093988	-3.014800	3.802300	-11.462000	23.558598	0.000525	20.711319
406.094309	-3.011900	3.802600	-11.451000	23.572918	0.000527	20.711924
407.091653	-3.001400	3.801300	-11.409000	23.547523	0.000528	20.711123
408.092966	-2.988700	3.802100	-11.363000	23.529190	0.000526	20.713135
409.094922	-2.994800	3.801900	-11.385000	23.547963	0.000527	20.681691
410.091610	-3.009800	3.801200	-11.440000	23.529264	0.000528	20.707044
411.093763	-2.978600	3.801600	-11.323000	23.542687	0.000528	20.691101
412.092144	-3.028600	3.800800	-11.510000	23.574052	0.000530	20.714010
413.093328	-3.004600	3.800200	-11.417000	23.586888	0.000527	20.709334
414.092210	-3.011000	3.800600	-11.443000	23.582656	0.000527	20.710781
415.094093	-3.009000	3.800700	-11.434000	23.586717	0.000528	20.699678
416.094158	-2.987200	3.800600	-11.352000	23.585462	0.000528	20.691781
417.093331	-3.019800	3.799300	-11.472000	23.570873	0.000528	20.694700
418.092513	-3.007000	3.799800	-11.425000	23.565172	0.000528	20.698469
419.093241	-3.008400	3.798300	-11.426000	23.570000	0.000530	20.692402
420.093549	-3.018800	3.800300	-11.470000	23.604048	0.000530	20.698559
421.093137	-2.991600	3.798800	-11.364000	23.623089	0.000532	20.700579
422.095694	-3.021900	3.797400	-11.474000	23.642162	0.000529	20.699785
423.095208	-3.001500	3.798400	-11.400000	23.634024	0.000532	20.708223
424.095164	-2.998600	3.798800	-11.390000	23.620006	0.000530	20.698437
425.095551	-3.003400	3.798500	-11.408000	23.639496	0.000530	20.710864
426.094852	-2.994500	3.797800	-11.371000	23.625576	0.000530	20.700227
427.095335	-3.013400	3.797500	-11.443000	23.635705	0.000531	20.696630
428.094213	-3.007800	3.797500	-11.421000	23.604635	0.000531	20.695355
429.095231	-3.003500	3.797000	-11.404000	23.583506	0.000530	20.704520
430.096413	-2.998500	3.795900	-11.381000	23.583498	0.000532	20.705460
431.097581	-2.996300	3.797400	-11.377000	23.590568	0.000531	20.695952
432.097035	-3.017800	3.797100	-11.458000	23.609390	0.000531	20.711028
433.096570	-3.017600	3.796200	-11.455000	23.645499	0.000532	20.701708
434.095850	-3.004200	3.795500	-11.402000	23.628472	0.000531	20.696018
435.098390	-2.994900	3.795500	-11.367000	23.628921	0.000531	20.685087
436.095873	-3.015500	3.794000	-11.439000	23.642988	0.000531	20.688284
437.098321	-3.023900	3.794400	-11.473000	23.637851	0.000531	20.699730
438.097121	-3.016300	3.794200	-11.444000	23.663040	0.000531	20.693214
439.096605	-3.029200	3.793100	-11.489000	23.679976	0.000531	20.685537
440.098952	-3.028600	3.793000	-11.486000	23.670436	0.000531	20.703001
441.097608	-3.008400	3.794000	-11.412000	23.661565	0.000533	20.689364
442.100482	-3.012200	3.794000	-11.426000	23.668879	0.000532	20.694801
443.098004	-3.016900	3.792100	-11.439000	23.706348	0.000531	20.679733
444.104455	-3.010700	3.792800	-11.417000	23.717152	0.000532	20.697679
445.098961	-3.005700	3.792600	-11.399000	23.701194	0.000533	20.680256
446.098493	-3.012200	3.792000	-11.421000	23.724613	0.000534	20.698995
447.100311	-2.979900	3.792600	-11.300000	23.719288	0.000534	20.678008
448.105028	-3.028300	3.790900	-11.478000	23.713042	0.000531	20.694032
449.099763	-3.007000	3.791500	-11.400000	23.745390	0.000532	20.697541
450.100965	-2.984600	3.792100	-11.317000	23.756943	0.000531	20.699167
451.104814	-2.996500	3.791700	-11.361000	23.776822	0.000531	20.694916
452.102161	-2.997600	3.790300	-11.361000	23.768913	0.000531	20.673708
453.105436	-2.998500	3.790600	-11.366000	23.780711	0.000533	20.674158
454.100705	-2.989800	3.790200	-11.331000	23.797834	0.000531	20.669039
455.105013	-3.001700	3.789900	-11.375000	23.788204	0.000533	20.683568
456.100944	-3.010300	3.788400	-11.404000	23.797336	0.000534	20.667118
457.101897	-2.992900	3.790500	-11.344000	23.810504	0.000532	20.657560
458.102410	-3.025100	3.787200	-11.455000	23.837532	0.000533	20.683715
459.102561	-3.007100	3.789800	-11.394000	23.833276	0.000534	20.686086
460.102821	-3.001500	3.788900	-11.372000	23.796292	0.000532	20.660855
461.102345	-3.008300	3.788600	-11.397000	23.782774	0.000533	20.672433
462.104196	-3.001100	3.787400	-11.366000	23.789199	0.000534	20.673659
463.103490	-3.018300	3.788300	-11.433000	23.832281	0.000535	20.654740
464.105170	-3.008600	3.787000	-11.392000	23.855803	0.000533	20.666946
465.108937	-2.995100	3.786900	-11.341000	23.810374	0.000535	20.672130
466.105121	-3.006800	3.788900	-11.392000	23.800051	0.000536	20.675531
467.104362	-3.002500	3.787600	-11.372000	23.839097	0.000534	20.665369
468.104199	-3.021900	3.786000	-11.440000	23.818364	0.000536	20.664020
469.107707	-3.027100	3.786000	-11.460000	23.790960	0.000535	20.664993
470.104971	-3.005800	3.787100	-11.382000	23.777418	0.000533	20.667061
471.105686	-2.995500	3.785500	-11.339000	23.784087	0.000533	20.665688
472.105971	-3.023100	3.785200	-11.443000	23.802873	0.000536	20.661290
473.106662	-3.001600	3.785200	-11.360000	23.779733	0.000536	20.676971
474.109009	-2.990700	3.785600	-11.321000	23.818952	0.000536	20.667454
475.107976	-3.005700	3.785300	-11.376000	23.814786	0.000535	20.678926
476.108199	-3.004700	3.784000	-11.369000	23.825849	0.000536	20.674845
477.106509	-2.998600	3.784100	-11.345000	23.840280	0.000537	20.674616
478.108664	-2.990300	3.784700	-11.317000	23.849990	0.000535	20.671550
479.106297	-2.999000	3.783100	-11.344000	23.852551	0.000535	20.686447
480.109604	-2.986200	3.784900	-11.301000	23.877164	0.000534	20.666555
481.108404	-2.996100	3.781800	-11.329000	23.879105	0.000535	20.666604
482.107511	-2.987300	3.782500	-11.296000	23.851997	0.000536	20.667872
483.109616	-2.991000	3.782500	-11.312000	23.849934	0.000534	20.658690
484.107319	-2.990300	3.781300	-11.307000	23.856032	0.000535	20.655321
485.109403	-2.991800	3.781200	-11.312000	23.877588	0.000535	20.673619
486.107909	-3.006600	3.781900	-11.370000	23.890160	0.000536	20.665835
487.108053	-2.996500	3.780700	-11.328000	23.879497	0.000535	20.662255
488.118025	-3.018000	3.780900	-11.410000	23.882856	0.000537	20.658985
489.108957	-3.026300	3.779800	-11.438000	23.853986	0.000538	20.667022
490.111471	-2.993500	3.780600	-11.316000	23.815406	0.000536	20.662950
491.109664	-3.002200	3.779600	-11.346000	23.850578	0.000535	20.656965
492.108918	-2.994400	3.780000	-11.318000	23.913689	0.000536	20.670938
493.110196	-2.994900	3.781200	-11.324000	23.913738	0.000537	20.675729
494.109938	-3.007000	3.779800	-11.365000	23.920407	0.000537	20.660129
495.110228	-3.026200	3.778100	-11.432000	23.932855	0.000536	20.673562
496.111485	-3.014600	3.779200	-11.392000	23.920407	0.000539	20.654439
497.119543	-3.006100	3.777900	-11.355000	23.905952	0.000537	20.656540
498.111557	-3.001100	3.777000	-11.335000	23.938522	0.000538	20.661225
499.118157	-3.010600	3.778300	-11.374000	23.935236	0.000537	20.659353
500.110222	-2.996900	3.778400	-11.322000	23.947082	0.000537	20.667913
501.113426	-2.998900	3.777500	-11.327000	23.943519	0.000537	20.658176
502.112994	-3.006700	3.776200	-11.352000	23.967063	0.000534	20.675623
503.112512	-2.997300	3.776600	-11.318000	23.962595	0.000537	20.672565
504.115893	-2.998400	3.777100	-11.324000	23.999239	0.000535	20.669957
505.117170	-2.983600	3.777300	-11.269000	23.993264	0.000537	20.653532
506.115956	-2.993100	3.777500	-11.305000	24.011581	0.000537	20.674749
507.112772	-3.004800	3.774400	-11.339000	23.946217	0.000537	20.648552
508.113949	-3.014500	3.774900	-11.378000	23.959270	0.000537	20.637458
509.113379	-2.991300	3.774600	-11.290000	23.989726	0.000536	20.661365
510.119164	-2.974600	3.776000	-11.231000	24.015861	0.000538	20.661970
511.115411	-2.985400	3.773600	-11.265000	23.969827	0.000536	20.654685
512.115072	-3.004300	3.774500	-11.338000	23.983017	0.000537	20.650368
513.113738	-3.015000	3.773300	-11.376000	24.031635	0.000536	20.656451
514.121401	-2.986400	3.773400	-11.268000	24.038401	0.000537	20.641423
515.116330	-3.018800	3.773200	-11.388000	24.066761	0.000538	20.674136
516.115993	-2.980800	3.772600	-11.245000	24.073860	0.000539	20.670825
517.122761	-3.009700	3.772700	-11.353000	24.107010	0.000538	20.682736
518.116559	-3.000100	3.773000	-11.318000	24.104989	0.000537	20.669802
519.118216	-2.994100	3.773100	-11.296000	24.067868	0.000537	20.652485
520.119824	-3.000500	3.771600	-11.316000	23.985202	0.000535	20.653982
521.125670	-2.993300	3.771700	-11.289000	23.993215	0.000538	20.677667
522.123477	-3.000300	3.772400	-11.318000	24.010734	0.000537	20.666785
523.121893	-2.990300	3.771600	-11.277000	24.003837	0.000536	20.665085
524.121684	-2.986300	3.772100	-11.263000	23.992497	0.000536	20.662722
525.127174	-2.972400	3.771100	-11.208000	23.997593	0.000538	20.653606
526.120328	-3.001400	3.770600	-11.316000	23.999288	0.000538	20.659574
527.119906	-3.020100	3.769300	-11.383000	24.046071	0.000537	20.660972
528.124078	-3.008200	3.769200	-11.337000	23.996427	0.000535	20.681837
529.126829	-3.003100	3.769600	-11.320000	24.010236	0.000537	20.665338
530.120701	-3.009100	3.769000	-11.341000	23.991152	0.000539	20.666115
531.124520	-3.032600	3.768800	-11.428000	24.027086	0.000536	20.663744
532.121022	-3.002000	3.769000	-11.314000	24.031708	0.000537	20.670277
533.124229	-3.007000	3.768600	-11.331000	24.052543	0.000539	20.685009
534.121336	-3.004100	3.768800	-11.321000	24.082279	0.000536	20.676424
535.121545	-3.005100	3.767800	-11.322000	24.069735	0.000539	20.671429
536.125732	-3.015400	3.766800	-11.357000	24.067574	0.000536	20.664994
537.122873	-3.000700	3.768000	-11.305000	24.076900	0.000539	20.672451
538.128139	-3.005500	3.767500	-11.323000	24.103904	0.000538	20.672508
539.124780	-3.014600	3.767000	-11.355000	24.088597	0.000538	20.667586
540.128081	-2.990700	3.768000	-11.268000	24.060255	0.000538	20.673301
541.123591	-3.016300	3.765500	-11.356000	24.085687	0.000537	20.681739
542.122850	-3.025200	3.766300	-11.393000	24.065659	0.000537	20.675402
543.126350	-3.023300	3.765400	-11.383000	24.075342	0.000538	20.664250
544.127170	-3.021100	3.765100	-11.374000	24.078563	0.000537	20.662264
545.126137	-3.004400	3.765900	-11.313000	24.065651	0.000538	20.661169
546.125119	-2.999700	3.765300	-11.294000	24.077373	0.000537	20.648741
547.126053	-3.012100	3.763600	-11.336000	24.091206	0.000537	20.673522
548.125656	-2.980300	3.765800	-11.222000	24.112211	0.000537	20.689375
549.127472	-3.012900	3.765200	-11.343000	24.125497	0.000536	20.666663
550.127553	-2.990800	3.763300	-11.254000	24.124177	0.000539	20.680987
551.128969	-2.996200	3.763800	-11.276000	24.119694	0.000538	20.681707
552.130445	-3.015900	3.762200	-11.346000	24.114273	0.000538	20.663466
553.130066	-3.024200	3.761900	-11.376000	24.155721	0.000536	20.687021
554.131901	-2.973800	3.763400	-11.191000	24.137838	0.000538	20.683783
555.134026	-2.968100	3.763000	-11.168000	24.122237	0.000537	20.664341
556.129605	-3.024700	3.761600	-11.377000	24.114543	0.000537	20.667530
557.131845	-3.007300	3.763000	-11.315000	24.125448	0.000535	20.679417
558.133057	-3.017700	3.762100	-11.352000	24.147831	0.000538	20.657294
559.132037	-3.009800	3.760500	-11.317000	24.149029	0.000537	20.675567
560.138378	-3.000100	3.761400	-11.283000	24.146200	0.000538	20.676997
561.131703	-2.991600	3.762200	-11.254000	24.195928	0.000537	20.687046
562.131267	-2.985700	3.761900	-11.231000	24.205757	0.000538	20.688370
563.134575	-3.010400	3.760700	-11.321000	24.159919	0.000538	20.664677
564.132452	-3.018900	3.760600	-11.352000	24.166261	0.000535	20.660131
565.140314	-2.969400	3.762300	-11.171000	24.168860	0.000538	20.679336
566.139437	-2.998500	3.760500	-11.275000	24.177239	0.000537	20.691534
567.134426	-3.002300	3.759800	-11.287000	24.182887	0.000538	20.705736
568.136665	-2.998100	3.759600	-11.270000	24.213884	0.000538	20.683719
569.135408	-2.992900	3.760200	-11.253000	24.230527	0.000538	20.686662
570.138430	-2.984400	3.759100	-11.218000	24.181641	0.000538	20.698320
571.137593	-2.993300	3.759200	-11.251000	24.197730	0.000535	20.681741
572.135722	-2.985300	3.759800	-11.223000	24.178324	0.000536	20.695942
573.137282	-2.967400	3.758500	-11.152000	24.160205	0.000538	20.686303
574.138773	-3.021600	3.757200	-11.351000	24.150229	0.000539	20.692893
575.136247	-3.001800	3.757000	-11.276000	24.150677	0.000537	20.682910
576.138592	-2.985300	3.759400	-11.222000	24.144531	0.000538	20.680539
577.136266	-3.006700	3.757400	-11.296000	24.185856	0.000537	20.705868
578.135942	-2.987000	3.759100	-11.228000	24.209786	0.000540	20.704266
579.140153	-3.003100	3.758500	-11.285000	24.167583	0.000536	20.676632
580.137975	-3.008000	3.757000	-11.300000	24.153922	0.000537	20.691855
581.145820	-3.003100	3.757100	-11.282000	24.127864	0.000537	20.685160
582.141194	-3.017500	3.754500	-11.328000	24.177062	0.000540	20.704160
583.139575	-2.993800	3.754900	-11.241000	24.199777	0.000538	20.688536
584.139558	-3.018100	3.755700	-11.334000	24.206763	0.000538	20.676575
585.139921	-3.004600	3.755900	-11.284000	24.226446	0.000537	20.694423
586.140711	-2.985200	3.755300	-11.210000	24.260872	0.000538	20.703351
587.143487	-2.969700	3.755000	-11.150000	24.278509	0.000538	20.690695
588.139715	-3.000200	3.754900	-11.264000	24.288761	0.000540	20.695764
589.139753	-2.993100	3.755700	-11.241000	24.289503	0.000538	20.688921
590.142831	-3.035300	3.753900	-11.393000	24.320928	0.000536	20.696263
591.141743	-2.973300	3.754000	-11.160000	24.338189	0.000536	20.696509
592.143727	-2.991600	3.753800	-11.230000	24.317546	0.000536	20.685283
593.141005	-3.018100	3.753200	-11.327000	24.354837	0.000536	20.702305
594.147185	-2.998500	3.753000	-11.253000	24.339109	0.000538	20.693165
595.141933	-2.985800	3.751900	-11.202000	24.361887	0.000537	20.692307
596.141465	-3.005500	3.751300	-11.273000	24.358114	0.000537	20.695160
597.142694	-2.991200	3.752700	-11.224000	24.320479	0.000535	20.691546
598.141119	-3.005200	3.751800	-11.272000	24.329404	0.000539	20.691963
599.141059	-3.001500	3.750500	-11.256000	24.337162	0.000535	20.687892
600.142090	-3.006600	3.750800	-11.276000	24.309698	0.000535	20.687843
601.141982	-2.998700	3.751500	-11.249000	24.336633	0.000537	20.710596
602.144643	-3.029500	3.750500	-11.362000	24.339501	0.000536	20.696877
603.142245	-3.010900	3.750300	-11.290000	24.322225	0.000534	20.713213
604.149499	-3.010200	3.749400	-11.286000	24.336234	0.000536	20.706877
605.141910	-3.014600	3.748300	-11.299000	24.348947	0.000534	20.712992
606.144113	-2.990100	3.749000	-11.209000	24.349094	0.000536	20.705552
607.142637	-2.993100	3.748800	-11.220000	24.337831	0.000534	20.692356
608.147243	-2.980900	3.750400	-11.179000	24.306423	0.000535	20.704473
609.143943	-2.987300	3.750400	-11.203000	24.319617	0.000532	20.722451
610.146396	-2.994600	3.748800	-11.225000	24.324189	0.000535	20.710916
611.143620	-3.009800	3.747800	-11.279000	24.341947	0.000534	20.709289
612.152167	-3.001400	3.747800	-11.248000	24.337196	0.000535	20.695987
613.147362	-2.973800	3.749300	-11.149000	24.348802	0.000532	20.725175
614.149186	-3.027600	3.746400	-11.341000	24.356617	0.000534	20.701245
615.144542	-3.005500	3.746300	-11.258000	24.377739	0.000533	20.707262
616.147341	-3.003300	3.747500	-11.254000	24.424800	0.000533	20.714645
617.146332	-2.997600	3.748100	-11.235000	24.387013	0.000536	20.713247
618.145025	-2.981900	3.746900	-11.172000	24.389107	0.000535	20.744273
619.149598	-3.012300	3.746100	-11.283000	24.398104	0.000533	20.718210
620.147489	-3.000100	3.746500	-11.239000	24.394120	0.000531	20.718954
621.145953	-2.996900	3.745800	-11.224000	24.369941	0.000533	20.706077
622.146706	-2.998200	3.744500	-11.226000	24.355664	0.000532	20.723998
623.146205	-3.005500	3.746900	-11.260000	24.342079	0.000533	20.719853
624.150652	-3.008600	3.745200	-11.267000	24.356626	0.000532	20.727809
625.150171	-2.995100	3.744300	-11.214000	24.346823	0.000535	20.701377
626.146927	-2.987000	3.745100	-11.185000	24.340808	0.000535	20.720949
627.149307	-2.997800	3.745100	-11.226000	24.351052	0.000531	20.727433
628.150138	-2.972300	3.744500	-11.128000	24.360880	0.000532	20.725438
629.149377	-3.010800	3.743600	-11.270000	24.373144	0.000534	20.734423
630.151642	-3.000700	3.744500	-11.235000	24.413637	0.000534	20.730949
631.148277	-3.019900	3.743400	-11.304000	24.388416	0.000534	20.740734
632.155769	-3.009000	3.742900	-11.262000	24.425526	0.000534	20.740032
633.150394	-3.012500	3.742700	-11.274000	24.393126	0.000533	20.731708
634.151780	-3.005300	3.742200	-11.245000	24.391423	0.000532	20.749916
635.148145	-2.989500	3.741900	-11.185000	24.422796	0.000534	20.709790
636.162702	-3.009800	3.742600	-11.264000	24.435557	0.000533	20.731128
637.160367	-2.992900	3.741700	-11.198000	24.446973	0.000532	20.734047
638.151184	-3.000500	3.741900	-11.226000	24.433537	0.000532	20.714875
639.155013	-3.011900	3.741600	-11.269000	24.405676	0.000531	20.731971
640.149685	-3.011700	3.740600	-11.265000	24.355372	0.000534	20.736982
641.155985	-3.016700	3.741000	-11.285000	24.379176	0.000533	20.744267
642.153516	-2.988900	3.740100	-11.178000	24.406222	0.000533	20.737734
643.155006	-3.018800	3.740200	-11.290000	24.411764	0.000533	20.742820
644.159961	-3.025100	3.739300	-11.311000	24.431190	0.000532	20.736705
645.152698	-2.971100	3.739100	-11.108000	24.400869	0.000533	20.746115
646.155488	-2.998400	3.739900	-11.213000	24.404243	0.000530	20.744758
647.154304	-2.983500	3.739600	-11.156000	24.442257	0.000532	20.734056
648.159862	-3.014500	3.739100	-11.270000	24.493844	0.000531	20.734130
649.155492	-2.989700	3.738700	-11.176000	24.463735	0.000531	20.755131
650.153329	-2.989300	3.739200	-11.177000	24.474076	0.000532	20.725676
651.156033	-2.991700	3.739300	-11.186000	24.459320	0.000530	20.740270
652.155057	-2.990500	3.737600	-11.177000	24.442176	0.000531	20.724966
653.154370	-2.985800	3.738500	-11.162000	24.431981	0.000530	20.747456
654.154618	-2.995400	3.737800	-11.195000	24.444693	0.000530	20.735078
655.157417	-2.994200	3.738200	-11.192000	24.439120	0.000529	20.741815
656.153865	-2.999500	3.736900	-11.208000	24.471771	0.000530	20.723838
657.157690	-2.975900	3.738200	-11.123000	24.477222	0.000530	20.761077
658.157111	-2.991900	3.737000	-11.180000	24.470084	0.000529	20.759605
659.156989	-3.005800	3.735600	-11.228000	24.461756	0.000531	20.752672
660.157053	-2.989000	3.736200	-11.166000	24.458847	0.000531	20.727467
661.159032	-3.025800	3.735500	-11.302000	24.469090	0.000528	20.745331
662.158732	-3.013400	3.735900	-11.257000	24.501374	0.000530	20.751168
663.157422	-3.017800	3.735700	-11.271000	24.494187	0.000529	20.745380
664.164586	-3.007700	3.734700	-11.232000	24.502116	0.000530	20.764241
665.159055	-2.997100	3.734800	-11.192000	24.499337	0.000528	20.755288
666.157936	-2.968700	3.735400	-11.089000	24.523838	0.000528	20.752844
667.158154	-2.992700	3.734600	-11.176000	24.499687	0.000528	20.744260
668.161550	-2.979900	3.735800	-11.131000	24.491506	0.000530	20.733680
669.165231	-2.990500	3.733800	-11.165000	24.437327	0.000528	20.755664
670.159366	-2.992000	3.733600	-11.170000	24.435086	0.000528	20.759106
671.162136	-2.983800	3.733800	-11.140000	24.470418	0.000527	20.733386
672.158226	-2.985200	3.733900	-11.145000	24.445908	0.000527	20.749099
673.163085	-2.975600	3.733200	-11.107000	24.482054	0.000527	20.753121
674.169929	-2.982600	3.733300	-11.134000	24.530601	0.000529	20.760104
675.160169	-2.999700	3.733700	-11.199000	24.548069	0.000528	20.734007
676.167026	-3.010400	3.733500	-11.238000	24.588108	0.000527	20.762327
677.160934	-3.004900	3.732200	-11.215000	24.575307	0.000526	20.758018
678.163306	-3.011300	3.732600	-11.239000	24.557969	0.000529	20.763381
679.162234	-2.995800	3.731800	-11.179000	24.568838	0.000528	20.756743
680.161710	-3.004400	3.731300	-11.209000	24.569678	0.000526	20.758060
681.163154	-3.010100	3.730500	-11.229000	24.584677	0.000526	20.753195
682.161139	-3.015800	3.730600	-11.251000	24.598259	0.000529	20.759237
683.166854	-3.026700	3.729700	-11.288000	24.614196	0.000525	20.747252
684.163980	-3.006800	3.731200	-11.218000	24.597493	0.000527	20.741872
685.161764	-2.994300	3.730900	-11.171000	24.635248	0.000528	20.764583
686.163263	-3.011600	3.730100	-11.233000	24.579014	0.000525	20.757470
687.171062	-3.024400	3.728700	-11.276000	24.548273	0.000527	20.759342
688.169544	-2.996200	3.730300	-11.176000	24.541608	0.000529	20.766406
689.170314	-2.996100	3.728500	-11.169000	24.563566	0.000526	20.778007
690.163620	-3.000800	3.729900	-11.192000	24.574639	0.000525	20.763986
691.165361	-3.011200	3.729300	-11.228000	24.584807	0.000524	20.754274
692.164311	-2.988200	3.729400	-11.144000	24.617120	0.000524	20.761092
693.164043	-3.016200	3.728600	-11.245000	24.646238	0.000523	20.800267
694.164194	-3.011200	3.727600	-11.223000	24.652185	0.000525	20.750758
695.171948	-3.015000	3.727900	-11.237000	24.645513	0.000525	20.777729
696.167854	-3.022000	3.726900	-11.261000	24.626570	0.000523	20.775791
697.174985	-3.018000	3.728300	-11.251000	24.620028	0.000525	20.781554
698.169773	-3.009800	3.725400	-11.212000	24.590054	0.000522	20.745788
699.166242	-3.016300	3.725300	-11.236000	24.580008	0.000524	20.772693
700.172452	-3.006100	3.727600	-11.205000	24.639973	0.000525	20.782127
701.167474	-3.009500	3.725500	-11.211000	24.628257	0.000526	20.772268
702.171255	-3.023100	3.724800	-11.259000	24.631435	0.000522	20.765973
703.168558	-3.003700	3.726100	-11.191000	24.623850	0.000523	20.780648
704.170052	-2.994300	3.725500	-11.155000	24.608704	0.000524	20.787261
705.171350	-3.003300	3.725400	-11.187000	24.613258	0.000525	20.784719
706.171176	-3.000300	3.725700	-11.177000	24.634841	0.000523	20.785038
707.179203	-3.004100	3.724300	-11.187000	24.669776	0.000523	20.769833
708.176121	-3.008400	3.725500	-11.207000	24.677043	0.000522	20.785659
709.168951	-2.992600	3.724700	-11.145000	24.652594	0.000523	20.770135
710.172250	-3.013400	3.724500	-11.223000	24.665328	0.000521	20.775326
711.176992	-2.982700	3.724700	-11.109000	24.667830	0.000523	20.784949
712.177516	-3.009700	3.724700	-11.209000	24.685492	0.000522	20.781335
713.170022	-3.012600	3.723600	-11.217000	24.676474	0.000522	20.813064
714.184356	-2.999400	3.724000	-11.169000	24.683041	0.000522	20.802109
715.169357	-2.996100	3.723900	-11.156000	24.683489	0.000521	20.785964
716.180418	-3.018900	3.721700	-11.234000	24.689656	0.000523	20.804480
717.171777	-2.994900	3.724000	-11.152000	24.672067	0.000520	20.808168
718.181090	-2.993300	3.723100	-11.143000	24.640180	0.000521	20.787076
719.174386	-3.002800	3.723400	-11.180000	24.618891	0.000520	20.785629
720.171862	-3.000900	3.722100	-11.169000	24.624684	0.000521	20.767734
721.179315	-2.997200	3.721300	-11.153000	24.642641	0.000523	20.800925
722.175466	-2.995800	3.721300	-11.147000	24.681584	0.000520	20.799225
723.174222	-3.012900	3.721800	-11.213000	24.685812	0.000520	20.794933
724.183284	-2.985500	3.722600	-11.112000	24.677323	0.000520	20.805381
725.183561	-2.975800	3.723100	-11.078000	24.694082	0.000521	20.791378
726.175951	-2.997600	3.720300	-11.150000	24.715890	0.000522	20.790977
727.174782	-2.995300	3.721300	-11.146000	24.714962	0.000519	20.812331
728.181036	-3.012200	3.719700	-11.203000	24.691939	0.000519	20.809617
729.175201	-2.997200	3.720700	-11.150000	24.720794	0.000520	20.814864
730.177577	-3.012600	3.720400	-11.207000	24.751548	0.000518	20.816328
731.177844	-2.979200	3.720800	-11.083000	24.761641	0.000519	20.828828
732.186055	-3.020200	3.719000	-11.231000	24.765348	0.000516	20.812159
733.181726	-3.005500	3.718800	-11.176000	24.757942	0.000519	20.803779
734.174995	-3.021400	3.720300	-11.239000	24.731622	0.000518	20.831420
735.181068	-3.036200	3.717600	-11.286000	24.719337	0.000519	20.803919
736.182981	-3.014300	3.717900	-11.205000	24.693871	0.000518	20.814874
737.187999	-3.026000	3.718600	-11.251000	24.707525	0.000518	20.799178
738.177917	-3.022900	3.716900	-11.235000	24.701928	0.000518	20.810631
739.179436	-2.997700	3.717500	-11.143000	24.725920	0.000517	20.802939
740.179111	-3.005900	3.716500	-11.171000	24.772322	0.000517	20.807305
741.181595	-3.006700	3.716500	-11.173000	24.740568	0.000517	20.796775
742.177065	-2.989300	3.717900	-11.113000	24.714287	0.000514	20.805015
743.186632	-3.014800	3.716400	-11.203000	24.710254	0.000516	20.801917
744.178309	-3.002500	3.717400	-11.161000	24.689831	0.000519	20.801337
745.188466	-3.002300	3.715600	-11.153000	24.700503	0.000515	20.815365
746.190365	-3.015300	3.715700	-11.203000	24.678043	0.000517	20.801362
747.184034	-3.007900	3.716900	-11.179000	24.665481	0.000517	20.790653
748.183613	-3.015700	3.714800	-11.202000	24.641406	0.000516	20.794945
749.182947	-3.017100	3.716200	-11.211000	24.667265	0.000517	20.794814
750.187902	-3.003000	3.715800	-11.158000	24.683803	0.000517	20.779641
751.187215	-3.013000	3.715400	-11.194000	24.677335	0.000514	20.786901
752.181540	-3.023100	3.714600	-11.229000	24.676512	0.000515	20.793662
753.184559	-3.002700	3.713000	-11.148000	24.674125	0.000515	20.778464
754.185474	-3.033500	3.714400	-11.267000	24.662753	0.000517	20.787916
755.195578	-3.004800	3.713300	-11.156000	24.682004	0.000515	20.800595
756.180701	-3.018200	3.713200	-11.206000	24.703235	0.000514	20.778277
757.193444	-2.994600	3.714000	-11.120000	24.717753	0.000517	20.789053
758.181836	-3.014900	3.714300	-11.198000	24.707781	0.000514	20.790900
759.184482	-3.020400	3.712900	-11.212000	24.699146	0.000515	20.775597
760.194626	-2.993400	3.713800	-11.116000	24.697655	0.000513	20.794964
761.185351	-3.012200	3.711900	-11.180000	24.719660	0.000513	20.790492
762.182414	-3.033200	3.712500	-11.260000	24.732442	0.000513	20.774870
763.182166	-2.987700	3.713000	-11.092000	24.736368	0.000513	20.781655
764.182946	-2.983300	3.713500	-11.076000	24.720401	0.000511	20.777960
765.191626	-2.997800	3.711700	-11.127000	24.736466	0.000512	20.777012
766.192331	-3.025800	3.710800	-11.228000	24.741159	0.000513	20.781722
767.183238	-3.022800	3.711000	-11.217000	24.724370	0.000511	20.780994
768.187591	-2.976900	3.711000	-11.046000	24.745233	0.000513	20.784387
769.196710	-3.012500	3.711000	-11.179000	24.772466	0.000511	20.782319
770.192958	-3.004600	3.710700	-11.149000	24.715620	0.000510	20.793551
771.187397	-3.019400	3.709600	-11.200000	24.748092	0.000511	20.773032
772.184439	-3.011700	3.711000	-11.175000	24.766243	0.000512	20.786031
773.183312	-3.023000	3.708800	-11.211000	24.736224	0.000511	20.777717
774.186904	-3.003400	3.709500	-11.141000	24.694301	0.000510	20.802503
775.186851	-2.987800	3.709500	-11.083000	24.723785	0.000510	20.778985
776.191182	-3.007100	3.708900	-11.153000	24.680257	0.000510	20.771816
777.198969	-2.988100	3.708100	-11.079000	24.691784	0.000511	20.768683
778.189062	-2.976200	3.709300	-11.039000	24.700061	0.000511	20.766084
779.188129	-3.017900	3.708600	-11.192000	24.690726	0.000509	20.799390
780.186346	-2.992500	3.708600	-11.098000	24.717439	0.000509	20.756021
781.187230	-3.000100	3.707500	-11.122000	24.715500	0.000507	20.782525
782.186065	-2.997400	3.707900	-11.114000	24.765780	0.000507	20.763755
783.186339	-3.017900	3.706800	-11.186000	24.744371	0.000508	20.783996
784.193486	-2.982900	3.706700	-11.055000	24.752281	0.000510	20.772494
785.192155	-3.001500	3.705900	-11.122000	24.739450	0.000509	20.753453
786.189678	-3.011800	3.706600	-11.163000	24.758546	0.000508	20.771194
787.185294	-3.003900	3.706900	-11.134000	24.791986	0.000509	20.765872
788.186991	-3.008500	3.705600	-11.147000	24.807308	0.000507	20.751851
789.195081	-3.000000	3.706700	-11.119000	24.787115	0.000508	20.769518
790.199455	-3.012800	3.705600	-11.163000	24.805394	0.000508	20.775535
791.189278	-3.010300	3.704600	-11.151000	24.765959	0.000507	20.749709
792.191078	-3.004000	3.704800	-11.128000	24.743052	0.000504	20.736204
793.195556	-2.988300	3.705300	-11.072000	24.752452	0.000504	20.752751
794.188907	-2.982900	3.705400	-11.051000	24.746009	0.000507	20.766199
795.189377	-3.001200	3.705300	-11.120000	24.727305	0.000506	20.755490
796.193354	-2.992400	3.704800	-11.085000	24.674636	0.000505	20.759062
797.192680	-2.987000	3.703500	-11.062000	24.647377	0.000504	20.747829
798.186215	-2.993400	3.704000	-11.087000	24.672820	0.000506	20.739695
799.189724	-2.983700	3.703800	-11.050000	24.677569	0.000505	20.756790
800.189084	-3.002600	3.704600	-11.123000	24.696641	0.000504	20.778299
801.196034	-2.998000	3.703500	-11.103000	24.758066	0.000505	20.759807
802.202413	-3.015000	3.702700	-11.162000	24.796784	0.000501	20.770214
803.191404	-2.962000	3.702600	-10.966000	24.816716	0.000505	20.766035
804.189461	-2.985700	3.702100	-11.052000	24.800295	0.000507	20.750977
805.199243	-2.980400	3.702500	-11.034000	24.773829	0.000505	20.751918
806.200512	-2.970000	3.702200	-10.994000	24.725716	0.000502	20.757689
807.195966	-2.999600	3.701600	-11.102000	24.718758	0.000503	20.749758
808.195909	-3.000200	3.702100	-11.106000	24.736282	0.000505	20.761180
809.190273	-2.990700	3.702500	-11.072000	24.768020	0.000502	20.762209
810.204286	-2.986400	3.701600	-11.054000	24.768705	0.000503	20.757681
811.193440	-2.997700	3.701900	-11.097000	24.787342	0.000502	20.745564
812.197988	-2.995000	3.701700	-11.085000	24.788956	0.000503	20.748132
813.196764	-2.979400	3.700800	-11.025000	24.826459	0.000502	20.745466
814.198617	-2.968100	3.701100	-10.985000	24.834091	0.000501	20.734634
815.206660	-3.003700	3.698800	-11.109000	24.842368	0.000501	20.751001
816.194426	-2.975600	3.699300	-11.006000	24.807218	0.000499	20.750812
817.192898	-2.995500	3.700000	-11.082000	24.790119	0.000502	20.767317
818.196090	-3.011700	3.698600	-11.138000	24.836461	0.000500	20.731796
819.209797	-3.009000	3.698100	-11.126000	24.877767	0.000499	20.739113
820.197921	-3.016300	3.698700	-11.155000	24.892608	0.000499	20.743103
821.192258	-3.020000	3.697700	-11.167000	24.919918	0.000501	20.761979
822.194654	-3.009700	3.699800	-11.133000	24.942985	0.000499	20.733921
823.203241	-2.983500	3.699000	-11.035000	24.938464	0.000499	20.728909
824.199602	-2.990800	3.697400	-11.057000	24.880185	0.000498	20.731108
825.197840	-2.986000	3.698800	-11.044000	24.876724	0.000500	20.727160
826.196660	-3.003000	3.697700	-11.103000	24.880511	0.000499	20.732383
827.197101	-2.969300	3.698300	-10.981000	24.888689	0.000499	20.726366
828.196725	-3.007800	3.695300	-11.114000	24.869995	0.000496	20.728941
829.195985	-3.003900	3.695700	-11.101000	24.825382	0.000499	20.741066
830.206611	-2.996800	3.696600	-11.078000	24.850461	0.000498	20.742054
831.195630	-2.981100	3.696800	-11.019000	24.835066	0.000496	20.748889
832.205882	-3.015800	3.696000	-11.146000	24.840287	0.000497	20.725204
833.197077	-3.003300	3.696800	-11.102000	24.831360	0.000496	20.740427
834.204843	-3.005900	3.696400	-11.110000	24.829526	0.000497	20.730052
835.199385	-2.972400	3.696300	-10.985000	24.812396	0.000498	20.727558
836.196001	-3.007600	3.694800	-11.112000	24.800258	0.000493	20.724861
837.196112	-3.002900	3.695000	-11.094000	24.829771	0.000496	20.726978
838.209217	-2.980000	3.694600	-11.009000	24.808241	0.000496	20.718647
839.197510	-3.003200	3.693800	-11.093000	24.822195	0.000494	20.737393
840.199139	-3.003300	3.695400	-11.098000	24.848677	0.000493	20.722244
841.213426	-3.000800	3.694100	-11.084000	24.843406	0.000495	20.743034
842.205144	-2.999300	3.693100	-11.076000	24.873097	0.000495	20.722097
843.199332	-2.982500	3.694100	-11.017000	24.902069	0.000494	20.725571
844.201913	-3.009000	3.692700	-11.110000	24.903885	0.000494	20.719333
845.203258	-2.988400	3.693300	-11.035000	24.902509	0.000495	20.716529
846.205308	-2.990200	3.692100	-11.038000	24.873471	0.000494	20.710144
847.211786	-3.011900	3.692000	-11.118000	24.862931	0.000494	20.735128
848.200037	-2.997800	3.692300	-11.068000	24.830584	0.000494	20.727320
849.204140	-3.014000	3.691700	-11.126000	24.836474	0.000491	20.741767
850.208166	-3.013700	3.691200	-11.123000	24.856667	0.000491	20.706554
851.208467	-2.986900	3.692300	-11.028000	24.868877	0.000490	20.717861
852.203459	-3.015700	3.692400	-11.133000	24.836702	0.000492	20.732986
853.209285	-2.991600	3.691400	-11.042000	24.838567	0.000491	20.736280
854.203681	-2.998300	3.689400	-11.060000	24.819644	0.000491	20.714918
855.202929	-2.979800	3.690000	-10.995000	24.805439	0.000489	20.713463
856.205497	-2.983200	3.690500	-11.008000	24.804078	0.000491	20.721581
857.203941	-3.009700	3.689900	-11.105000	24.817160	0.000492	20.715269
858.217421	-3.002400	3.691000	-11.081000	24.839813	0.000492	20.724728
859.205102	-2.981000	3.691500	-11.003000	24.845678	0.000493	20.726347
860.207690	-2.969000	3.689700	-10.954000	24.834339	0.000490	20.717812
861.206036	-2.986100	3.689900	-11.018000	24.873527	0.000491	20.719684
862.214346	-2.989400	3.687900	-11.024000	24.851967	0.000489	20.719856
863.207234	-2.992800	3.689500	-11.040000	24.861154	0.000490	20.706790
864.208493	-2.993700	3.689000	-11.043000	24.847715	0.000489	20.724598
865.209126	-2.999600	3.688600	-11.063000	24.865790	0.000487	20.721876
866.212127	-2.989200	3.687400	-11.021000	24.876834	0.000488	20.697397
867.209644	-3.024200	3.687700	-11.151000	24.906020	0.000488	20.703930
868.213650	-3.035400	3.685500	-11.186000	24.919450	0.000489	20.722153
869.220269	-2.987800	3.688100	-11.018000	24.965974	0.000487	20.699621
870.206982	-2.988200	3.688700	-11.022000	24.961649	0.000489	20.700970
871.206902	-3.018100	3.686200	-11.123000	24.946101	0.000486	20.711443
872.212458	-2.993300	3.686000	-11.032000	24.965501	0.000487	20.725701
873.211916	-2.997100	3.685200	-11.044000	24.998984	0.000487	20.726119
874.207325	-2.990200	3.686600	-11.023000	25.023898	0.000486	20.713667
875.207621	-3.007800	3.685400	-11.084000	25.008285	0.000486	20.706055
876.224565	-3.022700	3.685100	-11.138000	25.002575	0.000486	20.702220
877.217987	-2.991900	3.685000	-11.024000	24.941573	0.000485	20.698837
878.211202	-3.023600	3.684400	-11.139000	24.918359	0.000487	20.699245
879.217530	-2.994100	3.683900	-11.028000	24.933231	0.000485	20.713225
880.215964	-3.006900	3.684500	-11.078000	24.901841	0.000485	20.694994
881.215252	-3.003400	3.683400	-11.063000	24.905001	0.000484	20.698640
882.210561	-3.016700	3.682300	-11.107000	24.871931	0.000484	20.713814
883.212692	-3.010000	3.684500	-11.090000	24.832971	0.000483	20.709800
884.223727	-2.983300	3.683300	-10.988000	24.840449	0.000482	20.704977
885.212639	-3.003600	3.682400	-11.060000	24.860316	0.000482	20.681766
886.220843	-2.989200	3.683600	-11.011000	24.883546	0.000482	20.717411
887.211918	-3.011000	3.683000	-11.088000	24.908903	0.000482	20.699711
888.212534	-2.995600	3.682200	-11.029000	24.905922	0.000484	20.688183
889.212229	-3.001900	3.681400	-11.050000	24.942868	0.000481	20.701559
890.211471	-2.971300	3.682500	-10.940000	24.938787	0.000481	20.703628
891.211065	-3.003300	3.681700	-11.057000	24.934886	0.000481	20.684537
892.217240	-2.985400	3.680800	-10.988000	24.926977	0.000480	20.695092
893.215099	-2.998300	3.681600	-11.038000	24.927702	0.000482	20.697716
894.212832	-2.997800	3.681100	-11.034000	24.923866	0.000481	20.710463
895.226042	-3.015600	3.680500	-11.098000	24.951119	0.000479	20.700832
896.224162	-3.025500	3.679200	-11.131000	24.995303	0.000479	20.699662
897.223886	-3.014200	3.679800	-11.091000	24.979829	0.000480	20.702149
898.211941	-3.005900	3.680800	-11.063000	24.961658	0.000481	20.706670
899.218789	-3.009400	3.679600	-11.072000	24.956462	0.000480	20.677744
900.218470	-2.989400	3.680600	-11.002000	24.956934	0.000480	20.693866
901.219666	-3.004000	3.679200	-11.052000	24.903878	0.000481	20.694193
902.220262	-2.981300	3.678500	-10.966000	24.904896	0.000478	20.684309
903.216613	-2.990600	3.679000	-11.001000	24.958254	0.000478	20.689500
904.220783	-2.998000	3.678200	-11.027000	24.978591	0.000478	20.691896
905.224239	-3.003200	3.677400	-11.042000	24.986002	0.000479	20.700284
906.217776	-3.032100	3.676800	-11.148000	25.027784	0.000476	20.695756
907.219065	-2.997400	3.677600	-11.022000	25.046189	0.000478	20.690522
908.229111	-3.000600	3.677900	-11.034000	25.038680	0.000479	20.689623
909.219007	-3.013400	3.676300	-11.077000	24.990824	0.000476	20.686631
910.224085	-2.994600	3.676900	-11.010000	24.969966	0.000475	20.698412
911.225160	-2.995400	3.676300	-11.011000	24.980659	0.000475	20.693024
912.224958	-3.011500	3.676200	-11.070000	24.952585	0.000476	20.688078
913.224144	-3.007900	3.676500	-11.058000	25.013929	0.000476	20.675208
914.223474	-2.978500	3.676800	-10.951000	25.029803	0.000477	20.684031
915.232264	-3.002600	3.674600	-11.032000	24.975341	0.000476	20.714239
916.227297	-2.997700	3.675800	-11.018000	24.957967	0.000474	20.671668
917.222315	-2.996100	3.676200	-11.013000	24.982801	0.000475	20.683793
918.221658	-3.009900	3.674900	-11.060000	24.979323	0.000474	20.662282
919.224366	-3.014400	3.674900	-11.077000	24.996052	0.000474	20.678127
920.237875	-2.996900	3.673700	-11.009000	24.940586	0.000475	20.662756
921.236740	-3.011800	3.674000	-11.064000	24.987451	0.000474	20.689409
922.227489	-2.995300	3.675300	-11.007000	24.985464	0.000474	20.674137
923.224520	-3.000200	3.674500	-11.024000	24.948120	0.000472	20.677906
924.226430	-2.990600	3.672900	-10.983000	24.960851	0.000471	20.703014
925.227481	-2.996200	3.672500	-11.001000	25.017113	0.000471	20.651849
926.227005	-3.020200	3.671800	-11.087000	25.031292	0.000472	20.684103
927.232398	-2.992600	3.673600	-10.993000	25.001451	0.000472	20.685444
928.227590	-3.000100	3.671500	-11.014000	24.988883	0.000470	20.669982
929.229921	-3.001300	3.672200	-11.021000	25.022211	0.000471	20.678781
930.227860	-3.020600	3.671600	-11.089000	24.999699	0.000470	20.670881
931.233294	-3.016700	3.670300	-11.071000	24.974509	0.000468	20.681633
932.234359	-3.007700	3.671700	-11.042000	24.996711	0.000469	20.672149
933.246562	-2.995000	3.671200	-10.995000	25.007999	0.000470	20.670203
934.231758	-3.015100	3.670100	-11.064000	25.056848	0.000470	20.673719
935.232688	-2.979200	3.670200	-10.933000	25.035680	0.000468	20.677602
936.230000	-2.980000	3.670800	-10.937000	25.005840	0.000470	20.682737
937.235346	-3.015800	3.669500	-11.065000	25.024588	0.000468	20.663621
938.234327	-2.986200	3.669500	-10.957000	25.041691	0.000469	20.676523
939.236391	-2.979700	3.669800	-10.934000	25.065634	0.000470	20.663098
940.232697	-3.012600	3.668800	-11.052000	25.088128	0.000468	20.667186
941.230889	-2.986500	3.669500	-10.957000	25.075725	0.000469	20.674651
942.239118	-2.988000	3.668600	-10.961000	25.026551	0.000467	20.670808
943.241536	-2.984300	3.669400	-10.949000	25.049526	0.000467	20.668739
944.239463	-3.003200	3.667800	-11.014000	25.087135	0.000467	20.671879
945.234975	-3.002300	3.668500	-11.013000	25.100417	0.000466	20.673358
946.235233	-2.970500	3.668500	-10.896000	25.114302	0.000466	20.660270
947.238069	-2.994000	3.666600	-10.977000	25.095123	0.000466	20.669941
948.231135	-3.002300	3.666600	-11.006000	25.116941	0.000466	20.652011
949.240540	-2.972000	3.668100	-10.900000	25.106924	0.000464	20.664717
950.232117	-3.013800	3.667300	-11.051000	25.048157	0.000463	20.665469
951.234069	-3.009500	3.666000	-11.031000	25.056692	0.000463	20.669769
952.247230	-3.007800	3.666700	-11.028000	24.970754	0.000464	20.653205
953.248921	-3.012700	3.665300	-11.042000	24.963186	0.000463	20.671690
954.248074	-2.995800	3.665700	-10.980000	24.955571	0.000462	20.658356
955.234332	-2.995800	3.664900	-10.978000	25.002957	0.000462	20.668461
956.236237	-2.992300	3.666300	-10.970000	25.050739	0.000463	20.663793
957.236788	-3.003700	3.665200	-11.009000	25.039973	0.000461	20.658201
958.241189	-3.004100	3.665300	-11.009000	25.018895	0.000461	20.680668
959.247335	-3.007600	3.664800	-11.021000	25.020932	0.000462	20.683186
960.248168	-2.988400	3.664300	-10.949000	24.995822	0.000460	20.659876
961.234335	-3.012300	3.664200	-11.036000	25.007282	0.000461	20.664267
962.237623	-2.997000	3.664100	-10.981000	25.031299	0.000460	20.673203
963.240322	-3.001800	3.662600	-10.994000	24.982889	0.000461	20.676768
964.248593	-3.001800	3.663300	-10.994000	25.004472	0.000460	20.654808
965.244649	-3.004400	3.661900	-11.001000	25.062768	0.000459	20.661643
966.242270	-2.992600	3.662800	-10.960000	25.015623	0.000459	20.673589
967.244542	-3.016500	3.663200	-11.049000	25.039990	0.000459	20.654424
968.237321	-2.995800	3.661400	-10.967000	25.045179	0.000458	20.654891
969.239636	-3.004400	3.662400	-11.001000	25.007291	0.000460	20.652422
970.247242	-3.018700	3.661900	-11.053000	24.983175	0.000459	20.670417
971.238031	-2.983200	3.660800	-10.920000	24.947144	0.000457	20.646576
972.252289	-2.991800	3.661300	-10.952000	24.944187	0.000456	20.669690
973.240387	-2.997200	3.662000	-10.975000	24.952389	0.000459	20.664645
974.241237	-2.983500	3.661500	-10.922000	24.993333	0.000456	20.674923
975.245179	-3.002300	3.660800	-10.990000	25.011430	0.000457	20.642824
976.243369	-2.992700	3.660600	-10.954000	24.998668	0.000457	20.685021
977.241452	-2.997100	3.660100	-10.969000	25.004361	0.000455	20.660387
978.238527	-3.003400	3.659100	-10.989000	25.006593	0.000456	20.682544
979.241814	-3.007000	3.659800	-11.004000	24.982380	0.000456	20.654443
980.242038	-2.992800	3.658800	-10.949000	25.004158	0.000457	20.654018
981.244174	-2.995100	3.659800	-10.961000	25.052609	0.000456	20.686060
982.243736	-2.995900	3.658400	-10.958000	25.013721	0.000454	20.690173
983.247265	-2.999700	3.659400	-10.977000	24.963501	0.000456	20.671058
984.244614	-3.001800	3.658000	-10.980000	25.009087	0.000454	20.685522
985.246469	-2.986200	3.657500	-10.921000	25.031516	0.000454	20.665834
986.244108	-2.963100	3.658500	-10.840000	25.038447	0.000454	20.663308
987.238790	-2.985000	3.658000	-10.918000	25.057716	0.000454	20.681230
988.244018	-2.992100	3.655800	-10.938000	25.046925	0.000452	20.664706
989.241620	-2.992700	3.656800	-10.942000	25.011043	0.000453	20.668517
990.245500	-3.010000	3.656000	-11.003000	25.069542	0.000453	20.660382
991.261220	-3.003200	3.656300	-10.979000	25.079111	0.000452	20.675679
992.243357	-3.028200	3.654700	-11.067000	25.086343	0.000451	20.668239
993.251589	-2.995700	3.655800	-10.951000	25.132086	0.000452	20.672908
994.248765	-3.008900	3.655800	-11.000000	25.119781	0.000451	20.651070
995.255238	-2.985100	3.656300	-10.913000	25.123413	0.000452	20.667519
996.251441	-3.024600	3.654100	-11.051000	25.117356	0.000452	20.677561
997.251589	-3.002300	3.654200	-10.970000	25.058352	0.000451	20.673333
998.252377	-2.991000	3.653700	-10.927000	25.034157	0.000451	20.681288
999.254199	-3.012900	3.653300	-11.005000	25.023268	0.000450	20.692170
1000.247473	-3.001000	3.653500	-10.963000	25.016630	0.000450	20.678868
1001.249874	-3.006000	3.652800	-10.979000	25.041626	0.000450	20.690684
1002.248789	-2.979500	3.653700	-10.886000	25.081360	0.000449	20.693111
1003.248472	-3.004100	3.652900	-10.973000	25.064275	0.000448	20.689711
1004.249788	-3.024100	3.652200	-11.044000	25.104228	0.000450	20.678134
1005.246058	-2.999700	3.652800	-10.956000	25.148301	0.000450	20.674013
1006.252073	-3.007700	3.651900	-10.983000	25.156306	0.000446	20.677782
1007.261350	-3.006400	3.650800	-10.975000	25.225922	0.000446	20.689352
1008.256389	-3.013000	3.651500	-11.001000	25.212803	0.000448	20.687087
1009.248225	-2.982900	3.652500	-10.894000	25.234951	0.000448	20.682770
1010.252363	-2.999100	3.651600	-10.951000	25.183009	0.000448	20.699851
1011.256397	-3.006700	3.650800	-10.976000	25.128921	0.000446	20.680637
1012.254887	-2.991700	3.650600	-10.920000	25.123205	0.000445	20.679165
1013.255287	-2.976100	3.650300	-10.863000	25.124744	0.000444	20.676917
1014.257956	-2.967000	3.651000	-10.832000	25.098815	0.000445	20.700676
1015.254774	-2.975900	3.649300	-10.859000	25.087780	0.000446	20.682011
1016.263700	-3.016900	3.649800	-11.011000	25.121234	0.000446	20.688568
1017.257749	-2.999200	3.648800	-10.943000	25.115493	0.000445	20.687072
1018.257823	-2.992100	3.648600	-10.916000	25.088245	0.000445	20.692910
1019.253534	-3.017600	3.648600	-11.009000	25.031783	0.000447	20.664679
1020.250919	-2.987500	3.648000	-10.898000	25.017815	0.000444	20.687170
1021.268292	-2.985700	3.648600	-10.892000	25.028141	0.000444	20.689001
1022.265690	-2.988400	3.648000	-10.900000	25.027507	0.000443	20.721083
1023.259259	-2.998200	3.649000	-10.939000	25.038298	0.000442	20.695878
1024.268829	-2.991300	3.648000	-10.911000	25.039764	0.000444	20.703514
1025.270680	-2.999700	3.648300	-10.943000	25.066191	0.000443	20.701593
1026.257986	-2.987700	3.646600	-10.895000	25.090207	0.000443	20.700096
1027.256313	-3.014000	3.645400	-10.986000	25.109321	0.000442	20.695575
1028.255566	-2.993100	3.645500	-10.910000	25.087912	0.000441	20.694946
1029.262710	-2.981900	3.646600	-10.874000	25.087863	0.000441	20.715762
1030.270414	-3.008600	3.644700	-10.965000	25.056044	0.000439	20.687138
1031.261294	-2.980100	3.645100	-10.861000	25.091194	0.000440	20.696344
1032.266421	-3.006000	3.645100	-10.956000	25.145829	0.000439	20.696190
1033.262196	-2.990000	3.644600	-10.895000	25.157434	0.000439	20.685079
1034.255978	-2.997300	3.643500	-10.921000	25.156391	0.000439	20.693516
1035.256685	-2.988800	3.644800	-10.892000	25.163053	0.000440	20.701627
1036.257745	-3.004000	3.643700	-10.945000	25.184771	0.000438	20.703990
1037.256844	-2.991500	3.643500	-10.898000	25.186408	0.000437	20.703263
1038.271286	-2.994200	3.643800	-10.909000	25.192727	0.000437	20.710555
1039.260806	-3.003600	3.642800	-10.940000	25.131564	0.000437	20.707474
1040.271286	-2.991500	3.642500	-10.895000	25.119609	0.000436	20.702111
1041.258806	-3.002900	3.642800	-10.937000	25.130392	0.000436	20.704875
1042.270422	-2.986300	3.642400	-10.877000	25.157632	0.000438	20.714204
1043.263460	-2.987300	3.641800	-10.878000	25.090797	0.000436	20.708750
1044.259561	-3.000700	3.640400	-10.923000	25.130766	0.000437	20.711415
1045.263463	-2.987900	3.639900	-10.875000	25.120295	0.000436	20.717499
1046.260209	-2.999600	3.641300	-10.922000	25.105645	0.000433	20.713698
1047.267985	-2.991800	3.640700	-10.891000	25.139506	0.000434	20.707386
1048.270908	-2.993100	3.640700	-10.895000	25.181908	0.000436	20.719609
1049.281625	-2.988600	3.639600	-10.876000	25.160532	0.000433	20.706209
1050.265780	-2.975100	3.640700	-10.830000	25.176639	0.000434	20.702465
1051.269266	-3.006000	3.640000	-10.941000	25.188422	0.000435	20.727098
1052.248749	-3.013500	3.639600	-10.967000	25.197819	0.000433	20.697175
1053.267302	-2.998500	3.639900	-10.913000	25.204008	0.000435	20.706234
1054.249881	-2.993700	3.639800	-10.895000	25.177902	0.000433	20.729813
1055.269233	-3.002400	3.639200	-10.925000	25.173260	0.000433	20.728471
1056.273687	-2.985000	3.639300	-10.862000	25.172381	0.000433	20.716683
1057.268522	-3.000800	3.638100	-10.916000	25.121582	0.000430	20.714997
1058.253340	-3.004600	3.638300	-10.930000	25.117421	0.000428	20.712243
1059.252132	-2.996100	3.637200	-10.897000	25.104815	0.000429	20.710968
1060.254045	-3.012600	3.637600	-10.958000	25.116851	0.000430	20.715938
1061.254775	-2.991700	3.638000	-10.882000	25.065195	0.000430	20.710550
1062.250229	-3.008300	3.634800	-10.933000	25.051822	0.000430	20.712300
1063.253660	-2.984200	3.637200	-10.853000	25.061888	0.000430	20.711499
1064.258800	-2.954600	3.637500	-10.746000	25.079243	0.000430	20.706160
1065.257762	-3.004100	3.635400	-10.920000	25.084904	0.000430	20.720378
1066.251105	-3.003500	3.635200	-10.918000	25.131021	0.000432	20.723525
1067.251505	-3.025700	3.634500	-10.996000	25.091646	0.000428	20.732837
1068.253210	-3.001900	3.634300	-10.909000	25.089935	0.000429	20.724007
1069.251402	-3.005500	3.634600	-10.923000	25.115410	0.000428	20.715914
1070.259944	-3.005600	3.634100	-10.922000	25.153416	0.000429	20.742689
1071.255487	-2.995900	3.634300	-10.887000	25.199310	0.000426	20.745141
1072.288697	-3.014100	3.632300	-10.947000	25.230326	0.000425	20.732184
1073.267444	-2.978600	3.633000	-10.820000	25.218624	0.000424	20.749360
1074.271393	-2.999100	3.632300	-10.893000	25.250910	0.000427	20.734832
1075.279811	-3.009100	3.632100	-10.928000	25.231995	0.000425	20.723427
1076.275039	-2.999400	3.632400	-10.894000	25.223144	0.000427	20.730663
1077.274238	-2.986100	3.632000	-10.844000	25.199863	0.000426	20.752809
1078.253953	-2.999500	3.631600	-10.891000	25.221563	0.000425	20.741878
1079.273687	-3.005200	3.631100	-10.911000	25.244918	0.000425	20.735928
1080.270842	-3.007000	3.631400	-10.918000	25.227769	0.000423	20.722503
1081.276442	-3.026000	3.630600	-10.986000	25.201850	0.000422	20.728724
1082.278433	-2.971000	3.631000	-10.786000	25.194993	0.000424	20.746497
1083.275897	-3.013400	3.630100	-10.938000	25.228444	0.000423	20.734088
1084.275143	-2.983500	3.630300	-10.830000	25.261927	0.000424	20.739729
1085.282856	-3.017700	3.628200	-10.948000	25.288048	0.000422	20.735608
1086.279156	-2.980900	3.629700	-10.819000	25.302688	0.000421	20.733712
1087.259150	-3.021900	3.629000	-10.965000	25.288129	0.000420	20.740905
1088.274233	-2.992000	3.629100	-10.857000	25.242483	0.000420	20.744863
1089.260682	-2.997500	3.629700	-10.879000	25.226604	0.000421	20.741249
1090.261870	-2.999800	3.628000	-10.882000	25.228525	0.000419	20.722788
1091.267288	-3.016700	3.627500	-10.942000	25.211295	0.000420	20.732992
1092.262487	-3.005100	3.627300	-10.900000	25.226107	0.000420	20.743596
1093.282568	-3.026700	3.625900	-10.973000	25.270875	0.000418	20.737333
1094.288258	-3.015200	3.626400	-10.933000	25.305993	0.000417	20.746514
1095.280265	-2.992900	3.626400	-10.853000	25.289937	0.000420	20.751256
1096.266513	-3.003000	3.626400	-10.889000	25.278781	0.000418	20.765186
1097.269133	-2.996500	3.625700	-10.863000	25.208657	0.000418	20.737930
1098.266803	-3.013200	3.625000	-10.921000	25.191085	0.000417	20.731193
1099.267334	-3.008800	3.625100	-10.906000	25.187184	0.000417	20.706413
1100.268505	-3.015100	3.624000	-10.926000	25.205621	0.000417	20.749581
1101.282563	-3.024200	3.625100	-10.961000	25.284351	0.000417	20.766037
1102.269581	-3.007400	3.624800	-10.900000	25.280590	0.000415	20.744242
1103.292155	-2.995500	3.625500	-10.859000	25.287551	0.000413	20.745542
1104.292928	-2.998300	3.623900	-10.864000	25.264614	0.000414	20.756177
1105.283948	-2.981800	3.624700	-10.807000	25.214154	0.000414	20.753880
1106.289565	-3.003600	3.622900	-10.880000	25.218722	0.000415	20.762735
1107.299282	-3.001400	3.623600	-10.875000	25.188349	0.000414	20.754052
1108.269887	-3.006900	3.622700	-10.892000	25.202192	0.000415	20.764157
1109.293444	-2.994000	3.621700	-10.842000	25.185522	0.000414	20.760698
1110.297203	-3.001700	3.622100	-10.872000	25.220098	0.000416	20.740881
1111.296046	-2.980700	3.623500	-10.799000	25.250438	0.000415	20.756644
1112.296174	-3.008100	3.622200	-10.895000	25.289000	0.000414	20.755057
1113.291079	-3.002200	3.621200	-10.871000	25.282755	0.000417	20.739304
1114.293473	-2.993300	3.619600	-10.833000	25.262514	0.000414	20.742689
1115.285357	-3.001100	3.619800	-10.862000	25.260194	0.000415	20.765017
1116.287042	-2.998100	3.620000	-10.852000	25.261237	0.000414	20.767486
1117.289564	-3.008700	3.620500	-10.891000	25.314496	0.000413	20.752681
1118.291128	-3.002400	3.618400	-10.863000	25.341382	0.000413	20.762133
1119.292582	-3.014200	3.618600	-10.906000	25.315793	0.000412	20.769157
1120.271172	-3.002800	3.620200	-10.869000	25.329879	0.000413	20.777611
1121.296653	-2.995200	3.619400	-10.839000	25.314362	0.000414	20.770090
1122.288633	-3.023100	3.617000	-10.933000	25.255420	0.000412	20.761172
1123.277514	-3.007400	3.617400	-10.878000	25.203829	0.000412	20.760111
1124.289374	-3.010300	3.617000	-10.887000	25.226012	0.000413	20.774321
1125.292497	-3.002800	3.617100	-10.860000	25.282149	0.000413	20.759558
1126.291765	-3.005400	3.616900	-10.869000	25.311511	0.000412	20.771496
1127.295141	-3.009100	3.615800	-10.879000	25.295423	0.000413	20.797069
1128.290826	-3.002300	3.616600	-10.857000	25.235700	0.000410	20.784996
1129.291806	-3.020000	3.616600	-10.921000	25.218701	0.000410	20.794008
1130.275218	-3.000500	3.616900	-10.851000	25.211585	0.000410	20.762681
1131.274811	-2.997500	3.615800	-10.838000	25.230283	0.000410	20.780032
1132.292692	-2.999800	3.615100	-10.844000	25.259672	0.000409	20.794365
1133.302330	-2.996500	3.614700	-10.831000	25.274648	0.000410	20.784270
1134.276617	-3.006800	3.614000	-10.865000	25.278992	0.000410	20.783890
1135.278480	-2.995400	3.614900	-10.828000	25.218502	0.000409	20.779109
1136.275753	-2.990400	3.614800	-10.809000	25.243665	0.000410	20.782561
1137.298422	-2.998200	3.613400	-10.833000	25.269276	0.000409	20.802110
1138.294368	-2.997900	3.613100	-10.831000	25.291727	0.000409	20.800944
1139.297056	-3.004800	3.612700	-10.854000	25.334931	0.000407	20.790270
1140.303868	-3.008000	3.612300	-10.864000	25.323073	0.000411	20.821985
1141.298544	-2.997200	3.613300	-10.829000	25.318011	0.000410	20.803626
1142.302145	-3.003400	3.613200	-10.850000	25.337368	0.000410	20.809312
1143.278071	-2.994200	3.612500	-10.815000	25.342419	0.000409	20.801107
1144.279174	-2.985100	3.611500	-10.780000	25.327678	0.000409	20.826609
1145.281194	-2.998500	3.611800	-10.829000	25.331956	0.000409	20.814783
1146.278561	-3.008800	3.611900	-10.865000	25.336259	0.000407	20.802508
1147.304793	-2.964700	3.612800	-10.710000	25.375775	0.000409	20.794770
1148.303060	-3.005100	3.609700	-10.847000	25.399469	0.000407	20.805760
1149.299100	-3.014100	3.609600	-10.878000	25.453915	0.000407	20.807801
1150.298986	-3.005300	3.609000	-10.845000	25.471015	0.000407	20.817860
1151.303552	-2.982900	3.610100	-10.768000	25.439351	0.000408	20.823996
1152.295366	-2.991600	3.610000	-10.798000	25.453016	0.000407	20.836295
1153.300694	-3.020400	3.607400	-10.895000	25.457189	0.000407	20.823891
1154.303458	-2.983200	3.608000	-10.762000	25.410586	0.000407	20.831147
1155.280433	-2.981500	3.609400	-10.760000	25.342818	0.000405	20.833276
1156.281234	-3.015600	3.607900	-10.879000	25.284404	0.000403	20.843377
1157.283113	-3.005000	3.607700	-10.840000	25.301906	0.000405	20.832026
1158.285367	-3.014300	3.608500	-10.876000	25.279498	0.000405	20.849356
1159.280313	-2.984600	3.606600	-10.764000	25.308505	0.000404	20.847660
1160.287339	-3.018000	3.606700	-10.884000	25.364429	0.000405	20.843120
1161.283518	-2.981500	3.607200	-10.753000	25.380488	0.000403	20.845021
1162.283092	-3.001400	3.605700	-10.821000	25.378866	0.000401	20.855245
1163.286266	-3.011700	3.604900	-10.855000	25.339498	0.000403	20.849381
1164.298591	-3.000600	3.605900	-10.819000	25.359808	0.000402	20.841799
1165.283211	-3.000200	3.606400	-10.818000	25.368606	0.000402	20.866279
1166.286533	-3.000800	3.605300	-10.817000	25.380035	0.000400	20.845988
1167.309574	-3.005200	3.603500	-10.827000	25.391145	0.000403	20.846713
1168.284050	-2.984000	3.605300	-10.757000	25.423952	0.000402	20.845990
1169.291078	-2.993100	3.603900	-10.786000	25.422467	0.000399	20.845921
1170.283638	-3.004600	3.603300	-10.825000	25.417344	0.000398	20.861165
1171.287086	-2.989100	3.603900	-10.772000	25.384092	0.000398	20.876612
1172.284418	-3.016900	3.601600	-10.865000	25.416654	0.000399	20.858102
1173.284010	-3.002700	3.602200	-10.815000	25.377392	0.000397	20.878894
1174.285503	-3.001700	3.603200	-10.815000	25.399069	0.000395	20.852773
1175.304867	-3.002200	3.602000	-10.813000	25.388588	0.000394	20.882075
1176.312207	-3.002800	3.602100	-10.816000	25.408481	0.000397	20.869334
1177.322470	-3.019300	3.600300	-10.869000	25.419714	0.000392	20.882984
1178.310072	-3.013800	3.600200	-10.850000	25.434958	0.000396	20.885963
1179.304822	-2.998500	3.601500	-10.798000	25.412727	0.000394	20.878814
1180.306962	-2.984000	3.600100	-10.741000	25.415922	0.000392	20.872538
1181.306392	-2.999100	3.599700	-10.795000	25.469063	0.000391	20.883227
1182.312418	-3.016600	3.600800	-10.861000	25.461152	0.000393	20.898041
1183.321757	-2.984000	3.599200	-10.739000	25.466474	0.000391	20.892954
1184.312748	-2.979600	3.599200	-10.723000	25.469220	0.000391	20.889074
1185.311953	-3.002100	3.599400	-10.804000	25.433175	0.000391	20.882750
1186.306634	-2.984600	3.599000	-10.741000	25.459285	0.000391	20.890951
1187.316782	-2.990400	3.599400	-10.762000	25.474210	0.000391	20.896455
1188.311089	-3.015100	3.598700	-10.848000	25.539711	0.000390	20.888266
1189.310755	-2.993900	3.598800	-10.774000	25.511272	0.000386	20.876302
1190.290709	-3.000200	3.598300	-10.795000	25.509971	0.000390	20.892064
1191.310754	-3.022500	3.597400	-10.872000	25.511577	0.000388	20.879927
1192.323346	-3.001000	3.597700	-10.796000	25.475809	0.000386	20.857760
1193.295708	-3.026700	3.597000	-10.885000	25.430050	0.000387	20.864915
1194.313283	-3.007300	3.596500	-10.815000	25.441726	0.000387	20.876164
1195.295706	-3.009700	3.596700	-10.824000	25.470418	0.000386	20.883165
1196.296622	-3.003200	3.595800	-10.798000	25.488029	0.000385	20.878565
1197.312424	-3.009600	3.595600	-10.820000	25.467474	0.000385	20.874520
1198.298442	-3.001500	3.596100	-10.793000	25.439186	0.000384	20.873140
1199.317218	-3.011700	3.594700	-10.825000	25.483914	0.000382	20.869218
1200.312833	-2.991500	3.595100	-10.754000	25.494142	0.000384	20.867635
1201.313874	-3.002000	3.593900	-10.788000	25.506792	0.000385	20.857105
1202.310509	-2.988800	3.594400	-10.742000	25.551284	0.000384	20.868595
1203.315420	-3.019000	3.593100	-10.847000	25.537297	0.000383	20.875885
1204.315917	-2.979000	3.593600	-10.704000	25.503125	0.000383	20.859112
1205.315759	-2.972900	3.595100	-10.687000	25.505038	0.000380	20.894222
1206.294044	-2.996700	3.592000	-10.763000	25.495318	0.000382	20.849377
1207.298544	-3.023200	3.591100	-10.855000	25.495662	0.000380	20.844032
1208.293650	-2.994600	3.592200	-10.757000	25.474610	0.000380	20.851815
1209.296849	-2.989600	3.592400	-10.739000	25.448365	0.000379	20.847271
1210.294111	-2.985500	3.591100	-10.720000	25.414986	0.000380	20.835565
1211.317733	-2.998000	3.591900	-10.767000	25.410387	0.000378	20.845645
1212.318233	-2.998500	3.590900	-10.767000	25.403899	0.000379	20.857621
1213.311006	-3.004200	3.590600	-10.786000	25.444213	0.000377	20.842154
1214.304717	-2.993800	3.590900	-10.750000	25.475916	0.000379	20.867824
1215.299093	-3.000900	3.589400	-10.771000	25.470256	0.000378	20.850288
1216.299020	-3.008500	3.589700	-10.798000	25.466669	0.000377	20.835780
1217.303554	-2.989000	3.589400	-10.728000	25.491105	0.000377	20.832345
1218.324868	-2.986700	3.589100	-10.718000	25.457753	0.000377	20.858594
1219.324878	-2.981400	3.589700	-10.701000	25.428404	0.000376	20.850460
1220.326754	-2.968700	3.589600	-10.655000	25.452485	0.000375	20.855202
1221.326071	-3.008500	3.588600	-10.796000	25.439761	0.000376	20.843847
1222.320488	-3.000000	3.588300	-10.764000	25.463020	0.000375	20.846815
1223.322144	-3.015900	3.587000	-10.817000	25.468196	0.000376	20.833521
1224.304477	-2.979100	3.588700	-10.690000	25.482760	0.000374	20.843878
1225.326395	-3.016700	3.586600	-10.818000	25.463615	0.000376	20.825128
1226.324767	-3.009500	3.587300	-10.794000	25.469809	0.000376	20.836089
1227.318556	-3.001000	3.586500	-10.762000	25.473341	0.000373	20.824937
1228.330640	-3.035500	3.585000	-10.881000	25.396993	0.000374	20.817024
1229.320718	-2.989200	3.587400	-10.722000	25.401317	0.000374	20.830848
1230.322769	-2.982500	3.586000	-10.694000	25.416648	0.000373	20.828699
1231.326963	-2.989900	3.585900	-10.720000	25.405647	0.000373	20.814334
1232.328206	-3.010800	3.583800	-10.790000	25.395699	0.000375	20.822837
1233.303460	-3.018800	3.584300	-10.819000	25.407554	0.000374	20.811981
1234.303949	-2.998800	3.584300	-10.748000	25.432580	0.000375	20.835214
1235.303746	-3.002000	3.584300	-10.759000	25.447089	0.000374	20.805688
1236.309007	-3.001200	3.583600	-10.754000	25.404199	0.000374	20.839906
1237.307358	-3.014400	3.582900	-10.799000	25.409786	0.000372	20.800472
1238.307492	-2.998200	3.583100	-10.742000	25.423277	0.000371	20.825873
1239.305259	-3.008500	3.581900	-10.774000	25.417880	0.000371	20.828040
1240.303857	-2.964000	3.583100	-10.619000	25.453791	0.000369	20.838970
1241.307623	-2.974900	3.582200	-10.656000	25.448272	0.000369	20.832006
1242.304756	-2.984600	3.582200	-10.691000	25.418763	0.000368	20.817547
1243.305043	-3.004000	3.580800	-10.756000	25.411232	0.000369	20.802399
1244.305236	-3.015300	3.580600	-10.795000	25.392614	0.000368	20.825429
1245.306380	-2.989700	3.580800	-10.705000	25.430929	0.000369	20.828341
1246.308994	-3.001100	3.580600	-10.746000	25.474548	0.000368	20.819511
1247.307292	-2.991700	3.579600	-10.708000	25.547382	0.000370	20.812522
1248.325407	-2.991900	3.579800	-10.709000	25.561718	0.000367	20.805108
1249.334002	-2.991000	3.579500	-10.705000	25.484629	0.000365	20.818255
1250.328949	-3.027900	3.578300	-10.834000	25.453343	0.000364	20.816709
1251.336518	-3.004100	3.578100	-10.748000	25.457935	0.000364	20.817528
1252.338228	-3.001700	3.578800	-10.742000	25.491876	0.000365	20.804196
1253.308060	-2.981200	3.580200	-10.672000	25.501025	0.000365	20.807220
1254.328038	-3.000300	3.578400	-10.735000	25.439490	0.000366	20.818919
1255.331692	-2.973400	3.579200	-10.641000	25.386009	0.000362	20.809788
1256.331565	-2.985000	3.577100	-10.677000	25.407380	0.000363	20.820342
1257.335845	-2.989300	3.577100	-10.692000	25.441231	0.000363	20.785107
1258.328397	-2.975300	3.577200	-10.642000	25.461983	0.000362	20.786979
1259.334298	-3.006100	3.575700	-10.748000	25.486260	0.000362	20.814203
1260.311621	-3.014700	3.576300	-10.780000	25.488731	0.000360	20.797244
1261.311497	-3.000200	3.575400	-10.726000	25.493367	0.000362	20.795735
1262.313386	-2.992700	3.575400	-10.700000	25.494961	0.000360	20.788802
1263.315052	-3.022500	3.574900	-10.804000	25.464693	0.000361	20.806296
1264.312996	-2.991700	3.575900	-10.697000	25.492907	0.000360	20.803334
1265.328062	-3.000900	3.573700	-10.723000	25.491760	0.000359	20.817830
1266.335576	-2.988200	3.575700	-10.684000	25.507090	0.000360	20.791973
1267.313403	-3.033700	3.573000	-10.839000	25.461548	0.000361	20.790810
1268.329544	-3.014100	3.573200	-10.769000	25.487535	0.000359	20.801733
1269.330483	-3.009600	3.574100	-10.756000	25.473891	0.000361	20.797041
1270.312945	-3.007200	3.572500	-10.742000	25.443672	0.000360	20.796093
1271.315417	-3.006400	3.572300	-10.738000	25.441035	0.000357	20.764995
1272.315070	-2.984100	3.572300	-10.659000	25.454808	0.000360	20.792103
1273.317195	-2.987100	3.572600	-10.670000	25.408779	0.000359	20.774805
1274.344877	-3.003000	3.571800	-10.725000	25.391902	0.000359	20.766393
1275.317652	-2.998300	3.571100	-10.707000	25.407626	0.000358	20.792139
1276.316966	-2.991700	3.572700	-10.688000	25.407577	0.000357	20.774546
1277.340088	-3.004600	3.570100	-10.726000	25.481133	0.000359	20.789140
1278.332873	-2.995600	3.570200	-10.693000	25.478269	0.000360	20.806653
1279.317086	-2.981400	3.570700	-10.645000	25.479459	0.000359	20.788407
1280.318859	-2.989100	3.569500	-10.668000	25.450367	0.000360	20.784798
1281.317790	-3.012000	3.569900	-10.751000	25.434184	0.000360	20.788462
1282.318664	-2.989500	3.568700	-10.668000	25.450778	0.000359	20.785210
1283.320048	-3.004200	3.568000	-10.718000	25.413959	0.000360	20.770998
1284.322098	-3.003700	3.568300	-10.718000	25.403607	0.000357	20.788104
1285.318627	-2.997700	3.568900	-10.697000	25.391422	0.000357	20.771127
1286.318492	-3.022600	3.567400	-10.782000	25.415988	0.000360	20.772561
1287.322693	-3.017100	3.566100	-10.759000	25.481407	0.000360	20.783251
1288.317881	-2.982200	3.569100	-10.643000	25.487140	0.000358	20.773361
1289.320886	-3.010300	3.566300	-10.735000	25.527384	0.000358	20.793387
1290.320161	-2.994700	3.565400	-10.677000	25.522521	0.000357	20.796564
1291.323194	-2.994500	3.566300	-10.678000	25.503021	0.000356	20.781723
1292.337511	-2.987000	3.567300	-10.654000	25.491401	0.000359	20.795658
1293.348012	-2.981700	3.565400	-10.630000	25.482964	0.000359	20.779599
1294.341825	-2.990600	3.565700	-10.662000	25.485257	0.000356	20.766728
1295.339991	-2.982400	3.565100	-10.632000	25.506271	0.000355	20.786409
1296.340842	-2.998300	3.564000	-10.685000	25.516070	0.000356	20.777283
1297.321352	-2.993800	3.565800	-10.675000	25.548256	0.000356	20.789691
1298.322581	-2.963200	3.566500	-10.567000	25.565467	0.000355	20.797019
1299.322619	-2.989400	3.564200	-10.655000	25.544325	0.000353	20.782425
1300.324057	-2.990400	3.563700	-10.656000	25.529897	0.000352	20.792118
1301.325060	-2.998100	3.564100	-10.684000	25.537366	0.000352	20.782074
1302.323738	-2.999600	3.564100	-10.690000	25.554670	0.000352	20.789969
1303.330281	-2.987800	3.563300	-10.646000	25.533540	0.000353	20.797198
1304.326556	-3.025800	3.562200	-10.778000	25.518640	0.000353	20.794563
1305.327016	-3.004000	3.562500	-10.701000	25.514280	0.000352	20.792082
1306.325062	-3.004400	3.562400	-10.702000	25.499356	0.000350	20.797482
1307.326376	-3.025500	3.561400	-10.774000	25.470645	0.000346	20.787618
1308.347594	-2.987800	3.561200	-10.640000	25.503213	0.000350	20.805149
1309.342681	-3.006400	3.561100	-10.705000	25.505022	0.000348	20.805543
1310.346833	-3.004400	3.560700	-10.697000	25.532720	0.000348	20.798745
1311.350894	-3.002000	3.561200	-10.690000	25.499853	0.000346	20.783283
1312.349632	-2.998700	3.561300	-10.678000	25.524645	0.000346	20.796326
1313.347337	-3.017600	3.559700	-10.741000	25.497695	0.000346	20.801505
1314.346751	-2.997000	3.560100	-10.669000	25.465232	0.000344	20.788346
1315.354168	-2.974800	3.560100	-10.588000	25.474627	0.000345	20.775020
1316.354450	-2.991500	3.558200	-10.644000	25.512891	0.000346	20.757969
1317.332207	-3.005900	3.557800	-10.693000	25.561534	0.000345	20.787854
1318.360735	-2.984900	3.557800	-10.618000	25.569634	0.000344	20.794566
1319.352129	-3.007400	3.558000	-10.700000	25.552631	0.000342	20.799776
1320.349478	-3.013500	3.557100	-10.719000	25.565447	0.000344	20.776610
1321.349668	-2.989900	3.558100	-10.638000	25.591438	0.000340	20.779005
1322.350396	-3.014800	3.556300	-10.721000	25.536646	0.000341	20.764756
1323.333607	-2.994800	3.556200	-10.649000	25.532066	0.000340	20.792873
1324.351982	-2.973400	3.556400	-10.573000	25.567550	0.000339	20.779196
1325.358974	-2.962100	3.556500	-10.534000	25.601237	0.000341	20.760871
1326.352042	-3.005700	3.555500	-10.686000	25.577833	0.000339	20.779092
1327.363328	-2.982600	3.554300	-10.600000	25.536610	0.000339	20.766142
1328.351124	-3.008200	3.553600	-10.690000	25.490559	0.000340	20.769208
1329.354741	-3.000100	3.554200	-10.661000	25.496348	0.000340	20.770754
1330.355594	-2.999000	3.553500	-10.656000	25.533476	0.000341	20.769633
1331.356410	-3.001800	3.554300	-10.668000	25.548610	0.000339	20.765390
1332.371637	-3.001800	3.553500	-10.666000	25.544354	0.000340	20.764910
1333.357737	-2.987800	3.553200	-10.615000	25.544005	0.000338	20.756499
1334.353349	-3.003000	3.553700	-10.671000	25.544753	0.000337	20.763414
1335.351375	-2.993700	3.551100	-10.630000	25.562670	0.000337	20.755803
1336.336404	-2.983000	3.552100	-10.595000	25.493092	0.000337	20.762268
1337.341053	-3.002900	3.552000	-10.666000	25.501689	0.000338	20.751935
1338.358779	-3.010600	3.550700	-10.689000	25.524469	0.000338	20.774338
1339.365356	-3.012100	3.551000	-10.694000	25.560873	0.000338	20.768698
1340.354683	-3.015600	3.550200	-10.705000	25.592003	0.000335	20.775305
1341.353958	-2.973100	3.551500	-10.558000	25.573443	0.000338	20.765674
1342.343109	-2.992600	3.550200	-10.624000	25.577220	0.000336	20.763303
1343.336926	-2.989600	3.549800	-10.611000	25.584443	0.000335	20.760600
1344.359624	-2.987900	3.549500	-10.605000	25.532091	0.000334	20.764923
1345.354818	-3.004400	3.549300	-10.662000	25.481141	0.000333	20.755009
1346.357103	-2.995700	3.548400	-10.628000	25.437523	0.000335	20.755305
1347.356058	-3.003300	3.547900	-10.655000	25.403452	0.000335	20.746696
1348.370478	-2.990700	3.549900	-10.615000	25.367061	0.000333	20.780331
1349.370472	-3.006200	3.548500	-10.666000	25.361683	0.000335	20.743161
1350.339259	-2.991400	3.547600	-10.611000	25.404373	0.000336	20.748094
1351.356349	-2.996300	3.547100	-10.627000	25.452585	0.000334	20.743402
1352.357831	-2.998900	3.546900	-10.636000	25.492806	0.000335	20.757714
1353.361125	-3.008200	3.546300	-10.667000	25.519591	0.000335	20.758533
1354.361076	-2.986200	3.546300	-10.590000	25.581552	0.000336	20.761964
1355.363708	-3.006500	3.545400	-10.658000	25.595863	0.000334	20.757844
1356.357766	-2.993200	3.545100	-10.610000	25.526668	0.000334	20.752364
1357.361089	-3.004400	3.543800	-10.646000	25.506777	0.000333	20.748036
1358.367566	-3.008700	3.543900	-10.661000	25.507366	0.000333	20.767594
1359.359509	-2.980600	3.545600	-10.568000	25.522764	0.000336	20.747020
1360.357901	-2.980100	3.545000	-10.564000	25.492730	0.000335	20.742464
1361.341480	-2.989000	3.544100	-10.592000	25.566049	0.000335	20.748765
1362.340317	-3.022100	3.542900	-10.706000	25.592249	0.000336	20.738568
1363.341312	-2.990800	3.543200	-10.596000	25.593826	0.000335	20.753428
1364.361446	-2.990200	3.543000	-10.593000	25.598511	0.000336	20.748650
1365.341596	-3.010200	3.543100	-10.664000	25.589469	0.000335	20.751897
1366.342411	-2.999800	3.542600	-10.626000	25.604914	0.000336	20.762668
1367.344190	-2.991800	3.543400	-10.600000	25.576270	0.000335	20.731053
1368.341956	-2.987900	3.543900	-10.588000	25.560396	0.000335	20.736924
1369.369097	-3.000700	3.541200	-10.625000	25.573801	0.000335	20.744696
1370.364714	-3.034900	3.539700	-10.742000	25.577329	0.000334	20.757248
1371.361037	-3.015700	3.541800	-10.681000	25.626111	0.000334	20.764990
1372.362864	-3.014000	3.539500	-10.667000	25.632876	0.000334	20.758508
1373.375081	-3.025500	3.540000	-10.710000	25.612362	0.000333	20.763983
1374.372073	-2.986000	3.539000	-10.566000	25.582350	0.000330	20.755179
1375.371635	-2.991100	3.538600	-10.584000	25.601095	0.000332	20.761677
1376.367041	-3.002400	3.539200	-10.625000	25.591508	0.000330	20.748729
1377.361882	-3.007600	3.538200	-10.641000	25.554297	0.000328	20.765412
1378.363026	-2.992100	3.538500	-10.586000	25.511689	0.000329	20.752494
1379.370828	-3.024100	3.537500	-10.697000	25.508495	0.000328	20.754503
1380.365082	-3.004000	3.537500	-10.625000	25.490242	0.000329	20.741388
1381.367886	-3.025500	3.536800	-10.700000	25.510730	0.000327	20.767653
1382.364882	-3.009600	3.536700	-10.643000	25.499824	0.000325	20.762865
1383.372394	-3.005900	3.537600	-10.632000	25.527965	0.000324	20.757460
1384.377188	-3.014400	3.535200	-10.656000	25.520749	0.000324	20.757799
1385.373637	-2.987600	3.537100	-10.567000	25.537416	0.000323	20.748458
1386.350052	-3.008900	3.535300	-10.636000	25.549336	0.000323	20.745731
1387.350780	-3.007400	3.536400	-10.635000	25.528030	0.000321	20.761793
1388.351565	-3.018100	3.534500	-10.667000	25.536242	0.000319	20.758660
1389.353952	-3.008500	3.535500	-10.636000	25.538862	0.000320	20.756075
1390.356547	-3.016100	3.533500	-10.657000	25.516395	0.000319	20.764333
1391.354252	-2.961500	3.535800	-10.471000	25.557019	0.000320	20.758188
1392.378617	-2.999900	3.532600	-10.596000	25.555248	0.000320	20.766367
1393.356964	-2.999100	3.534000	-10.598000	25.531114	0.000320	20.755881
1394.359548	-2.971900	3.534900	-10.505000	25.493434	0.000318	20.755025
1395.394989	-3.011600	3.533400	-10.641000	25.440796	0.000317	20.751953
1396.375941	-3.008600	3.531000	-10.622000	25.422179	0.000315	20.764553
1397.357749	-2.998600	3.533700	-10.595000	25.498415	0.000316	20.749596
1398.357810	-2.998700	3.532800	-10.592000	25.492676	0.000316	20.744306
1399.358562	-2.997000	3.530400	-10.580000	25.488071	0.000315	20.744424
1400.359735	-3.016400	3.530600	-10.649000	25.535355	0.000317	20.751131
1401.362148	-2.997600	3.530400	-10.582000	25.563162	0.000317	20.749659
1402.368201	-3.028400	3.531200	-10.693000	25.531057	0.000315	20.753452
1403.360481	-3.006600	3.530400	-10.613000	25.536270	0.000314	20.762481
1404.364316	-3.018400	3.529100	-10.651000	25.550385	0.000312	20.757216
1405.388737	-3.004300	3.530600	-10.606000	25.546307	0.000315	20.758337
1406.364097	-3.010100	3.529500	-10.623000	25.499185	0.000314	20.738040
1407.361634	-3.017800	3.528100	-10.646000	25.527367	0.000313	20.763972
1408.377326	-3.022300	3.527400	-10.659000	25.561784	0.000312	20.752543
1409.377007	-3.013500	3.528200	-10.631000	25.560368	0.000312	20.730730
1410.385477	-2.979400	3.528200	-10.511000	25.578579	0.000313	20.729579
1411.382101	-2.991700	3.527500	-10.552000	25.567346	0.000310	20.735368
1412.366499	-3.015400	3.526000	-10.631000	25.593903	0.000309	20.747340
1413.363834	-2.977900	3.527100	-10.502000	25.607176	0.000311	20.744550
1414.378848	-2.992100	3.527300	-10.553000	25.628563	0.000313	20.753702
1415.390381	-3.014400	3.526700	-10.630000	25.573901	0.000311	20.757600
1416.380596	-2.996400	3.526800	-10.567000	25.557977	0.000309	20.742081
1417.366647	-2.982900	3.526700	-10.518000	25.535860	0.000308	20.740258
1418.367018	-2.994400	3.524600	-10.552000	25.532752	0.000309	20.717220
1419.364141	-2.994500	3.525200	-10.556000	25.512518	0.000309	20.759965
1420.363548	-2.986400	3.523800	-10.523000	25.550044	0.000308	20.762563
1421.364725	-3.003700	3.524300	-10.585000	25.521770	0.000310	20.735116
1422.363785	-2.999700	3.524100	-10.571000	25.525861	0.000310	20.749657
1423.379193	-2.999300	3.523400	-10.567000	25.510157	0.000311	20.752378
1424.387311	-3.007600	3.522200	-10.593000	25.496464	0.000309	20.730566
1425.383660	-3.012000	3.523800	-10.613000	25.515375	0.000311	20.742919
1426.365876	-3.002700	3.522500	-10.576000	25.570935	0.000311	20.726170
1427.364123	-2.984800	3.521800	-10.510000	25.571328	0.000310	20.755963
1428.367301	-3.014700	3.521400	-10.615000	25.596345	0.000310	20.752639
1429.366112	-2.990800	3.521300	-10.531000	25.621859	0.000311	20.733691
1430.366547	-3.002700	3.521400	-10.573000	25.587684	0.000308	20.736827
1431.368932	-2.955300	3.521000	-10.404000	25.565813	0.000309	20.745683
1432.366285	-3.010500	3.521000	-10.599000	25.512161	0.000307	20.738269
1433.375880	-3.010400	3.520100	-10.595000	25.549725	0.000307	20.735215
1434.366114	-3.017800	3.518600	-10.617000	25.584161	0.000307	20.740401
1435.367435	-2.983400	3.519700	-10.500000	25.623022	0.000305	20.740075
1436.367281	-2.995900	3.519200	-10.542000	25.618939	0.000305	20.744510
1437.367313	-2.999400	3.518800	-10.552000	25.635310	0.000304	20.736296
1438.367878	-3.000800	3.518900	-10.559000	25.623901	0.000305	20.738587
1439.371908	-2.995700	3.518700	-10.540000	25.575188	0.000304	20.741348
1440.368915	-2.985600	3.517500	-10.501000	25.605980	0.000302	20.741926
1441.368263	-2.971500	3.518600	-10.455000	25.597496	0.000305	20.739569
1442.373841	-2.983500	3.516500	-10.491000	25.587685	0.000303	20.752002
1443.370169	-3.004600	3.517800	-10.569000	25.592799	0.000304	20.755716
1444.372516	-3.014000	3.514900	-10.592000	25.619109	0.000302	20.766493
1445.392292	-3.003700	3.515900	-10.560000	25.663083	0.000301	20.745224
1446.393992	-2.997100	3.515700	-10.536000	25.669097	0.000299	20.741781
1447.390279	-3.018800	3.515100	-10.611000	25.649067	0.000300	20.740630
1448.388602	-3.017700	3.515500	-10.609000	25.613684	0.000298	20.747767
1449.387862	-2.992800	3.515700	-10.521000	25.599019	0.000299	20.742047
1450.372638	-2.986000	3.515600	-10.497000	25.565258	0.000298	20.744651
1451.370944	-2.967500	3.515100	-10.430000	25.573628	0.000298	20.746893
1452.371885	-2.990900	3.512700	-10.505000	25.562548	0.000299	20.747145
1453.392553	-2.985900	3.513200	-10.489000	25.576534	0.000297	20.748864
1454.390141	-2.981100	3.511900	-10.468000	25.582819	0.000299	20.727200
1455.394437	-3.015400	3.513500	-10.594000	25.573235	0.000296	20.758827
1456.403982	-2.996200	3.512000	-10.521000	25.589606	0.000297	20.735439
1457.391312	-2.982200	3.513300	-10.476000	25.618203	0.000296	20.758470
1458.402867	-3.003900	3.512100	-10.549000	25.552707	0.000297	20.771876
1459.390956	-3.039300	3.509300	-10.665000	25.572787	0.000296	20.763119
1460.406962	-2.983600	3.510600	-10.473000	25.582874	0.000294	20.755705
1461.375286	-2.987700	3.510500	-10.488000	25.606785	0.000296	20.742261
1462.402867	-3.017600	3.510100	-10.591000	25.583455	0.000295	20.746331
1463.394492	-3.010800	3.509500	-10.564000	25.549584	0.000296	20.746928
1464.402934	-2.979100	3.510200	-10.456000	25.543826	0.000294	20.743990
1465.394309	-2.979000	3.510100	-10.456000	25.608832	0.000295	20.755696
1466.396024	-2.996800	3.509900	-10.517000	25.625080	0.000292	20.741194
1467.398395	-2.982100	3.509700	-10.465000	25.623502	0.000292	20.727281
1468.391912	-3.009800	3.508200	-10.558000	25.660719	0.000293	20.744272
1469.394008	-2.998400	3.507800	-10.516000	25.688056	0.000294	20.743754
1470.378036	-3.009100	3.507000	-10.552000	25.663611	0.000293	20.744332
1471.380846	-2.980900	3.508800	-10.459000	25.696883	0.000292	20.756414
1472.402150	-2.988800	3.506600	-10.479000	25.630594	0.000291	20.754320
1473.379018	-2.985000	3.508200	-10.471000	25.594119	0.000292	20.748506
1474.377725	-2.986600	3.506100	-10.471000	25.589526	0.000290	20.763808
1475.378793	-2.996800	3.505600	-10.505000	25.549149	0.000289	20.727525
1476.379933	-2.981700	3.506200	-10.454000	25.511388	0.000291	20.738441
1477.397087	-2.987100	3.505600	-10.471000	25.556291	0.000290	20.762674
1478.379939	-3.009100	3.505900	-10.549000	25.585962	0.000289	20.748374
1479.399149	-2.999200	3.504300	-10.509000	25.628236	0.000289	20.747684
1480.381313	-2.993700	3.505700	-10.494000	25.676371	0.000288	20.742448
1481.381698	-3.002200	3.504100	-10.519000	25.699994	0.000290	20.767124
1482.382052	-3.018400	3.504200	-10.576000	25.698883	0.000289	20.756525
1483.381682	-2.989100	3.503600	-10.472000	25.697963	0.000287	20.745170
1484.382004	-3.009700	3.503300	-10.543000	25.696007	0.000290	20.747472
1485.383510	-2.991500	3.502900	-10.478000	25.714098	0.000287	20.745255
1486.382274	-2.994700	3.503200	-10.490000	25.742943	0.000287	20.749572
1487.383673	-2.996800	3.501700	-10.493000	25.753156	0.000287	20.755089
1488.382116	-2.993000	3.501700	-10.480000	25.719817	0.000288	20.740568
1489.382318	-2.996000	3.501400	-10.490000	25.677508	0.000287	20.744539
1490.399761	-2.989200	3.501600	-10.466000	25.651175	0.000286	20.746066
1491.406161	-3.016400	3.498900	-10.554000	25.594522	0.000287	20.755075
1492.386917	-3.006400	3.499800	-10.520000	25.599642	0.000285	20.745992
1493.386526	-2.998900	3.500400	-10.497000	25.650138	0.000287	20.744550
1494.383868	-2.986700	3.499700	-10.452000	25.620346	0.000285	20.770580
1495.383660	-2.971600	3.499200	-10.397000	25.609856	0.000283	20.741078
1496.385754	-2.994900	3.499000	-10.478000	25.644650	0.000284	20.743306
1497.387866	-2.997300	3.498200	-10.484000	25.661866	0.000283	20.765814
1498.385632	-3.000800	3.497500	-10.494000	25.676305	0.000282	20.751391
1499.383641	-3.001400	3.498700	-10.500000	25.718698	0.000284	20.757937
1500.383925	-3.017800	3.496800	-10.552000	25.693084	0.000283	20.742165
1501.386837	-2.991100	3.496500	-10.458000	25.646691	0.000283	20.767168
1502.401469	-3.012400	3.496500	-10.532000	25.637107	0.000280	20.757542
1503.405688	-2.977700	3.498400	-10.416000	25.604139	0.000281	20.761415
1504.408233	-2.991100	3.495200	-10.454000	25.550868	0.000281	20.758649
1505.404468	-2.996400	3.496600	-10.477000	25.541204	0.000283	20.765065
1506.401462	-3.017300	3.494600	-10.544000	25.544337	0.000282	20.750193
1507.408502	-2.990300	3.496900	-10.456000	25.577790	0.000280	20.769566
1508.407260	-3.003700	3.495700	-10.499000	25.594786	0.000281	20.770040
1509.403223	-2.983200	3.494500	-10.423000	25.603014	0.000280	20.760285
1510.405553	-3.007600	3.494500	-10.509000	25.648214	0.000278	20.778180
1511.413377	-3.001600	3.494500	-10.488000	25.660316	0.000280	20.769947
1512.408060	-2.999800	3.493400	-10.479000	25.721588	0.000279	20.768426
1513.419051	-2.984900	3.495800	-10.434000	25.747286	0.000279	20.759625
1514.416308	-2.989600	3.493400	-10.443000	25.731763	0.000277	20.769637
1515.410443	-2.998300	3.493400	-10.473000	25.706621	0.000278	20.760030
1516.410769	-2.990200	3.492600	-10.442000	25.697982	0.000278	20.755620
1517.411317	-3.009700	3.492000	-10.509000	25.664881	0.000279	20.751772
1518.412265	-3.010500	3.491700	-10.511000	25.628162	0.000278	20.757092
1519.408680	-3.003900	3.490800	-10.485000	25.649436	0.000276	20.768976
1520.411993	-3.005300	3.491100	-10.490000	25.676700	0.000276	20.753685
1521.407839	-2.996300	3.490000	-10.456000	25.669643	0.000274	20.766038
1522.394338	-3.000400	3.491000	-10.473000	25.644682	0.000276	20.751873
1523.391865	-3.020100	3.489700	-10.538000	25.596828	0.000275	20.756917
1524.396744	-2.977300	3.491200	-10.394000	25.583461	0.000275	20.762459
1525.396261	-3.019000	3.488700	-10.531000	25.548995	0.000275	20.745388
1526.393342	-3.001000	3.489000	-10.469000	25.541698	0.000274	20.767458
1527.394413	-2.994200	3.489000	-10.445000	25.551239	0.000276	20.772772
1528.395905	-3.013500	3.487600	-10.509000	25.547816	0.000274	20.757955
1529.396208	-2.996900	3.488200	-10.452000	25.523240	0.000275	20.769311
1530.397705	-2.989300	3.488300	-10.426000	25.526098	0.000274	20.768861
1531.394132	-3.015200	3.487700	-10.516000	25.515489	0.000275	20.775752
1532.396675	-3.000500	3.485600	-10.457000	25.499313	0.000275	20.764248
1533.402897	-3.013200	3.487800	-10.509000	25.546007	0.000274	20.744284
1534.398088	-3.033300	3.486700	-10.575000	25.586807	0.000273	20.776725
1535.403900	-2.996300	3.487500	-10.449000	25.620179	0.000272	20.775154
1536.424577	-2.983300	3.486800	-10.401000	25.609444	0.000272	20.788554
1537.415665	-2.999700	3.484900	-10.452000	25.596598	0.000272	20.766170
1538.421102	-3.025800	3.484200	-10.541000	25.611037	0.000272	20.749377
1539.427274	-2.992200	3.484600	-10.426000	25.594489	0.000270	20.759784
1540.421330	-3.004900	3.484300	-10.468000	25.579632	0.000271	20.751501
1541.418645	-2.997400	3.483600	-10.441000	25.554353	0.000271	20.769736
1542.423820	-3.005100	3.482800	-10.465000	25.586138	0.000270	20.774157
1543.421806	-3.019200	3.483700	-10.516000	25.624306	0.000269	20.756064
1544.399572	-2.953000	3.484200	-10.288000	25.613663	0.000270	20.774773
1545.418738	-2.991200	3.483300	-10.419000	25.635661	0.000268	20.756089
1546.419945	-3.015400	3.482600	-10.501000	25.648413	0.000270	20.764629
1547.421333	-2.998200	3.482700	-10.442000	25.667119	0.000270	20.762080
1548.417499	-3.010500	3.481100	-10.479000	25.693261	0.000269	20.776484
1549.400737	-3.026700	3.481600	-10.537000	25.669761	0.000268	20.767105
1550.400987	-3.046800	3.482100	-10.608000	25.712119	0.000269	20.784994
1551.404988	-3.016900	3.480800	-10.500000	25.711101	0.000270	20.769272
1552.402189	-3.007500	3.480000	-10.464000	25.695799	0.000267	20.777136
1553.400036	-2.994000	3.482400	-10.425000	25.680048	0.000267	20.778860
1554.401897	-3.016200	3.479700	-10.494000	25.661367	0.000268	20.780959
1555.401670	-3.000000	3.480400	-10.440000	25.682182	0.000266	20.773891
1556.401778	-3.005300	3.480200	-10.458000	25.670012	0.000267	20.807660
1557.422132	-3.001000	3.478200	-10.437000	25.688742	0.000265	20.776686
1558.432415	-3.001700	3.479000	-10.441000	25.693212	0.000267	20.779753
1559.422372	-2.989300	3.479200	-10.399000	25.728396	0.000264	20.780480
1560.427588	-2.986100	3.478400	-10.386000	25.726557	0.000265	20.762511
1561.422184	-2.985400	3.477600	-10.382000	25.738290	0.000268	20.791366
1562.427333	-3.002900	3.477500	-10.441000	25.747854	0.000264	20.768256
1563.423500	-3.007600	3.477200	-10.457000	25.772278	0.000265	20.761494
1564.421219	-2.992400	3.477300	-10.405000	25.773945	0.000262	20.779764
1565.421647	-3.002100	3.477700	-10.439000	25.759391	0.000262	20.787905
1566.429497	-2.989200	3.476100	-10.389000	25.718696	0.000266	20.781642
1567.402828	-3.007900	3.475400	-10.453000	25.677434	0.000263	20.776234
1568.400913	-3.015500	3.476500	-10.483000	25.704711	0.000262	20.777079
1569.403323	-2.983500	3.475500	-10.368000	25.704692	0.000261	20.771369
1570.406351	-2.970900	3.475900	-10.326000	25.732249	0.000259	20.792885
1571.405439	-3.024900	3.473900	-10.506000	25.729343	0.000263	20.783802
1572.407849	-2.997100	3.474200	-10.411000	25.725616	0.000261	20.795705
1573.405721	-3.008900	3.474900	-10.455000	25.717424	0.000261	20.792693
1574.409672	-3.006400	3.474400	-10.444000	25.734001	0.000261	20.789429
1575.407441	-2.986600	3.473100	-10.372000	25.700987	0.000262	20.798942
1576.407482	-2.970800	3.473800	-10.319000	25.737838	0.000261	20.783799
1577.407905	-2.988400	3.472900	-10.377000	25.740995	0.000259	20.786971
1578.409507	-3.018200	3.471400	-10.476000	25.789744	0.000261	20.792789
1579.408502	-2.983500	3.472100	-10.358000	25.785869	0.000259	20.785578
1580.407889	-2.986800	3.471900	-10.369000	25.734495	0.000258	20.800831
1581.408598	-2.987300	3.472100	-10.371000	25.707790	0.000258	20.818103
1582.409096	-2.978200	3.472400	-10.341000	25.677779	0.000257	20.788909
1583.410264	-2.993400	3.472400	-10.394000	25.686331	0.000257	20.796550
1584.409040	-2.970200	3.471800	-10.311000	25.728473	0.000257	20.806162
1585.408900	-3.017800	3.470500	-10.472000	25.674816	0.000256	20.778346
1586.409296	-3.042900	3.469300	-10.555000	25.668280	0.000255	20.788377
1587.409648	-3.023900	3.468300	-10.487000	25.724064	0.000256	20.806000
1588.408921	-3.029600	3.468000	-10.506000	25.704213	0.000256	20.798389
1589.409522	-3.008700	3.467700	-10.432000	25.691895	0.000256	20.792656
1590.410285	-3.008300	3.467900	-10.431000	25.735558	0.000256	20.797630
1591.411219	-3.015900	3.467500	-10.457000	25.677444	0.000255	20.810383
1592.409781	-2.993000	3.468600	-10.381000	25.692133	0.000256	20.806645
1593.410841	-3.004300	3.467400	-10.416000	25.664089	0.000255	20.790806
1594.410839	-3.008500	3.466500	-10.428000	25.662004	0.000254	20.811472
1595.411839	-2.984900	3.467700	-10.350000	25.629381	0.000256	20.808103
1596.411391	-3.017100	3.465500	-10.455000	25.618503	0.000255	20.800972
1597.411646	-3.015600	3.465700	-10.450000	25.604714	0.000253	20.820313
1598.423349	-2.997500	3.464900	-10.385000	25.599349	0.000251	20.793588
1599.411223	-2.985200	3.467000	-10.349000	25.642292	0.000252	20.793569
1600.412409	-2.993300	3.466400	-10.374000	25.676765	0.000252	20.803538
1601.418362	-2.997500	3.465200	-10.386000	25.708897	0.000252	20.801672
1602.414206	-3.029400	3.463100	-10.490000	25.696893	0.000251	20.783451
1603.414592	-3.004000	3.463500	-10.403000	25.621487	0.000252	20.815822
1604.415386	-2.996000	3.464300	-10.378000	25.634166	0.000252	20.811961
1605.415804	-3.004300	3.462400	-10.402000	25.658352	0.000250	20.786466
1606.414685	-3.016200	3.463200	-10.445000	25.733638	0.000251	20.793806
1607.421636	-3.006600	3.462600	-10.409000	25.768570	0.000252	20.796177
1608.415353	-3.025900	3.460600	-10.471000	25.803605	0.000253	20.808609
1609.416184	-3.000400	3.463900	-10.392000	25.782320	0.000251	20.815204
1610.420837	-3.008300	3.461700	-10.413000	25.786323	0.000252	20.834397
1611.414560	-3.007100	3.461700	-10.409000	25.794077	0.000251	20.821324
1612.419027	-2.990300	3.461800	-10.350000	25.805632	0.000250	20.825819
1613.419761	-2.974000	3.461800	-10.294000	25.832022	0.000251	20.815344
1614.420177	-2.996500	3.460400	-10.368000	25.810658	0.000248	20.808583
1615.418909	-2.998900	3.461400	-10.380000	25.822759	0.000249	20.799401
1616.423418	-2.990400	3.460700	-10.348000	25.818989	0.000249	20.823114
1617.418558	-2.995200	3.460400	-10.364000	25.771393	0.000252	20.802806
1618.419342	-3.010500	3.460200	-10.415000	25.749979	0.000247	20.812590
1619.424622	-3.012700	3.459200	-10.420000	25.747103	0.000246	20.822978
1620.425664	-2.992700	3.458000	-10.347000	25.726707	0.000248	20.828569
1621.423341	-2.987500	3.459600	-10.335000	25.725664	0.000248	20.813772
1622.425881	-3.018800	3.458500	-10.439000	25.732230	0.000247	20.817995
1623.425982	-3.008500	3.458400	-10.403000	25.731163	0.000246	20.815976
1624.424175	-3.041800	3.456400	-10.512000	25.751639	0.000247	20.849818
1625.427782	-2.996400	3.457100	-10.358000	25.701851	0.000246	20.823992
1626.426658	-3.002900	3.456700	-10.379000	25.722549	0.000245	20.826763
1627.424485	-2.970300	3.458500	-10.272000	25.709012	0.000244	20.827391
1628.426627	-3.009700	3.456000	-10.400000	25.708172	0.000244	20.812323
1629.424280	-2.994600	3.457200	-10.352000	25.670877	0.000245	20.807107
1630.428036	-3.006400	3.456700	-10.391000	25.638339	0.000244	20.821842
1631.425484	-2.998600	3.455700	-10.361000	25.572568	0.000243	20.816952
1632.427331	-2.979100	3.457000	-10.298000	25.632379	0.000241	20.827710
1633.424179	-2.994900	3.455500	-10.348000	25.678374	0.000242	20.819378
1634.426930	-3.003800	3.454200	-10.375000	25.676461	0.000244	20.829311
1635.426752	-2.992700	3.453500	-10.334000	25.647541	0.000244	20.816860
1636.423815	-3.003800	3.452800	-10.371000	25.658178	0.000243	20.816638
1637.424968	-2.972000	3.454600	-10.266000	25.664573	0.000242	20.832068
1638.426938	-3.005800	3.453100	-10.378000	25.649220	0.000240	20.810959
1639.426210	-2.997900	3.454000	-10.354000	25.611979	0.000240	20.820023
1640.427718	-2.994900	3.453200	-10.341000	25.621047	0.000240	20.833398
1641.424323	-2.995800	3.452700	-10.342000	25.631685	0.000242	20.820374
1642.426299	-3.015600	3.452600	-10.411000	25.649232	0.000241	20.794850
1643.427332	-3.001500	3.451700	-10.359000	25.663296	0.000241	20.824623
1644.429256	-3.031000	3.450300	-10.456000	25.712944	0.000240	20.811900
1645.425107	-3.005000	3.451900	-10.371000	25.745571	0.000240	20.824757
1646.427464	-3.003000	3.451800	-10.365000	25.785498	0.000241	20.815551
1647.429572	-3.000500	3.450800	-10.353000	25.819833	0.000240	20.788402
1648.430428	-2.997500	3.450400	-10.341000	25.835140	0.000238	20.813260
1649.428862	-2.995300	3.450000	-10.332000	25.816014	0.000239	20.814910
1650.428916	-3.000800	3.449500	-10.350000	25.816314	0.000242	20.807626
1651.428983	-3.006800	3.448700	-10.368000	25.820593	0.000238	20.807656
1652.429518	-2.998800	3.449000	-10.341000	25.790781	0.000238	20.799522
1653.428185	-3.005100	3.449100	-10.364000	25.768896	0.000237	20.812625
1654.432498	-3.017900	3.446800	-10.401000	25.747212	0.000238	20.797009
1655.430333	-3.026500	3.447000	-10.432000	25.767706	0.000236	20.808586
1656.425959	-3.014200	3.448000	-10.393000	25.753379	0.000235	20.796565
1657.425548	-3.012400	3.447000	-10.382000	25.747518	0.000235	20.797790
1658.433828	-2.997700	3.445800	-10.328000	25.727293	0.000235	20.799287
1659.429361	-3.001300	3.446200	-10.341000	25.739070	0.000235	20.811116
1660.427991	-3.002500	3.445700	-10.345000	25.701483	0.000235	20.816984
1661.429648	-2.997000	3.446700	-10.329000	25.693359	0.000234	20.803135
1662.429178	-3.014200	3.444600	-10.382000	25.680766	0.000234	20.803289
1663.434446	-2.987900	3.444800	-10.292000	25.681582	0.000235	20.806953
1664.430757	-2.994600	3.445300	-10.316000	25.676572	0.000233	20.807137
1665.429380	-2.995500	3.444800	-10.318000	25.726587	0.000235	20.818018
1666.428791	-3.014500	3.443600	-10.380000	25.755364	0.000233	20.781015
1667.435745	-3.002100	3.443600	-10.337000	25.784483	0.000233	20.782290
1668.430565	-2.999400	3.443700	-10.329000	25.800508	0.000232	20.791748
1669.429282	-2.993100	3.444700	-10.309000	25.784268	0.000232	20.783496
1670.431801	-3.013400	3.442900	-10.374000	25.781264	0.000231	20.799445
1671.432933	-3.004200	3.441700	-10.339000	25.781663	0.000233	20.782775
1672.430610	-3.013000	3.442300	-10.371000	25.739853	0.000229	20.792936
1673.435068	-3.028500	3.440900	-10.419000	25.741545	0.000232	20.788945
1674.438526	-3.017300	3.441500	-10.384000	25.717598	0.000231	20.781488
1675.432765	-2.992200	3.442300	-10.299000	25.723912	0.000231	20.790201
1676.437927	-3.005500	3.441500	-10.343000	25.741753	0.000232	20.769714
1677.432940	-2.993500	3.442200	-10.303000	25.724789	0.000231	20.779227
1678.432791	-3.031400	3.439400	-10.424000	25.692026	0.000228	20.748689
1679.435225	-3.018600	3.439500	-10.381000	25.685938	0.000229	20.769602
1680.432881	-3.010000	3.439300	-10.351000	25.635007	0.000229	20.780089
1681.432429	-2.998700	3.439200	-10.312000	25.659881	0.000227	20.765242
1682.437307	-2.998100	3.440300	-10.313000	25.654099	0.000229	20.782668
1683.438392	-2.989500	3.439300	-10.281000	25.659292	0.000228	20.770814
1684.434588	-2.973200	3.439900	-10.226000	25.711919	0.000227	20.779103
1685.439338	-2.977400	3.439500	-10.240000	25.759597	0.000229	20.764878
1686.435773	-3.000600	3.438000	-10.315000	25.741769	0.000229	20.772101
1687.441196	-2.991000	3.437900	-10.281000	25.777320	0.000227	20.788370
1688.438783	-2.992600	3.437000	-10.284000	25.819587	0.000227	20.766817
1689.436283	-2.979700	3.436900	-10.240000	25.806297	0.000225	20.768165
1690.439268	-3.000500	3.436400	-10.310000	25.815492	0.000226	20.773609
1691.441084	-3.004200	3.435100	-10.319000	25.749069	0.000228	20.778486
1692.440471	-3.003900	3.436200	-10.321000	25.780972	0.000226	20.756951
1693.439243	-2.982400	3.437300	-10.250000	25.757738	0.000226	20.778184
1694.443940	-3.003600	3.435300	-10.318000	25.720923	0.000227	20.760646
1695.437904	-2.982500	3.435300	-10.245000	25.744704	0.000225	20.773627
1696.444741	-2.992300	3.435100	-10.278000	25.711782	0.000225	20.775172
1697.444927	-3.016100	3.434300	-10.358000	25.737304	0.000223	20.763349
1698.446886	-3.001400	3.434100	-10.306000	25.716435	0.000224	20.781743
1699.440566	-3.000400	3.433500	-10.301000	25.769459	0.000224	20.782845
1700.448565	-3.012700	3.433400	-10.343000	25.809189	0.000222	20.757320
1701.442864	-2.986200	3.433600	-10.252000	25.788131	0.000222	20.758452
1702.445320	-2.992800	3.434200	-10.277000	25.790319	0.000223	20.774876
1703.445290	-3.005200	3.433000	-10.315000	25.749080	0.000220	20.766642
1704.445468	-3.014600	3.431400	-10.343000	25.732981	0.000220	20.770860
1705.446814	-3.006000	3.432400	-10.317000	25.766778	0.000223	20.764031
1706.443656	-2.986700	3.433200	-10.252000	25.774509	0.000221	20.765632
1707.445243	-3.006900	3.432700	-10.321000	25.765791	0.000220	20.752133
1708.448770	-2.990700	3.432200	-10.263000	25.761193	0.000220	20.753679
1709.450325	-3.031200	3.429600	-10.394000	25.795707	0.000219	20.751363
1710.446343	-3.008800	3.430500	-10.321000	25.819161	0.000222	20.773976
1711.450997	-2.985500	3.430200	-10.239000	25.824439	0.000221	20.759836
1712.450433	-3.012300	3.428300	-10.325000	25.797337	0.000223	20.759165
1713.448704	-2.996000	3.429000	-10.273000	25.830501	0.000220	20.741744
1714.462698	-3.001200	3.429400	-10.292000	25.855702	0.000218	20.771327
1715.457945	-2.989000	3.428800	-10.248000	25.868593	0.000219	20.754879
1716.451611	-2.982900	3.429700	-10.228000	25.895000	0.000220	20.752483
1717.457806	-2.993600	3.427400	-10.259000	25.836030	0.000220	20.754885
1718.458616	-2.994200	3.427700	-10.262000	25.832383	0.000219	20.736521
1719.453181	-3.010200	3.426500	-10.314000	25.793254	0.000220	20.747002
1720.463140	-3.004500	3.427200	-10.296000	25.796215	0.000220	20.730061
1721.456824	-2.991200	3.428200	-10.253000	25.756392	0.000219	20.738424
1722.454820	-2.985100	3.426400	-10.226000	25.726701	0.000222	20.766449
1723.460392	-3.004000	3.426800	-10.294000	25.722753	0.000218	20.738775
1724.458046	-2.987000	3.425500	-10.230000	25.775598	0.000219	20.735431
1725.456738	-2.996100	3.425900	-10.264000	25.792518	0.000218	20.756695
1726.461253	-3.009400	3.427000	-10.311000	25.833860	0.000217	20.740376
1727.460816	-3.005100	3.425700	-10.292000	25.845390	0.000218	20.751485
1728.457831	-3.009200	3.424700	-10.304000	25.844023	0.000217	20.742525
1729.464178	-3.013000	3.424200	-10.316000	25.827282	0.000216	20.728078
1730.465323	-2.990200	3.424200	-10.238000	25.819282	0.000218	20.736638
1731.463916	-3.027800	3.421900	-10.360000	25.819577	0.000216	20.749736
1732.465349	-3.006000	3.422800	-10.288000	25.781593	0.000216	20.747143
1733.463890	-2.998800	3.423500	-10.265000	25.812944	0.000217	20.735012
1734.461197	-2.988200	3.424000	-10.231000	25.821514	0.000217	20.733663
1735.468234	-3.008700	3.421800	-10.294000	25.836367	0.000216	20.754749
1736.467070	-3.003200	3.421900	-10.276000	25.820521	0.000215	20.746891
1737.462661	-3.015700	3.421600	-10.317000	25.819988	0.000215	20.747304
1738.470836	-2.993600	3.422200	-10.244000	25.800708	0.000215	20.735998
1739.469271	-3.024500	3.421100	-10.346000	25.783685	0.000215	20.749244
1740.464765	-3.003400	3.421600	-10.275000	25.750666	0.000213	20.747372
1741.470346	-3.001300	3.421000	-10.267000	25.738638	0.000215	20.755679
1742.468021	-3.009200	3.419800	-10.290000	25.720344	0.000213	20.728769
1743.465939	-3.038300	3.419200	-10.387000	25.733035	0.000214	20.730136
1744.471488	-2.995500	3.420400	-10.245000	25.717298	0.000215	20.749417
1745.470466	-2.999400	3.419800	-10.256000	25.730761	0.000213	20.721213
1746.471094	-2.975400	3.419500	-10.172000	25.711726	0.000213	20.730069
1747.470319	-2.980500	3.418200	-10.187000	25.744837	0.000212	20.734404
1748.469426	-2.994400	3.417200	-10.231000	25.780707	0.000212	20.735821
1749.466146	-3.014500	3.417000	-10.300000	25.822185	0.000212	20.731018
1750.472068	-2.995200	3.417500	-10.236000	25.829682	0.000212	20.737601
1751.468809	-2.994500	3.417200	-10.231000	25.837075	0.000210	20.723691
1752.473690	-2.975600	3.418100	-10.170000	25.845449	0.000210	20.721671
1753.473293	-2.987800	3.416900	-10.208000	25.843279	0.000212	20.746519
1754.473112	-3.018100	3.416000	-10.309000	25.804396	0.000207	20.740651
1755.471894	-2.983900	3.416000	-10.192000	25.829751	0.000208	20.720126
1756.473764	-2.968000	3.416800	-10.140000	25.841006	0.000207	20.745658
1757.472697	-2.990900	3.415700	-10.216000	25.834765	0.000208	20.747450
1758.474604	-3.024300	3.413400	-10.321000	25.745196	0.000206	20.750412
1759.482319	-2.968000	3.416300	-10.139000	25.778877	0.000206	20.732560
1760.473318	-2.991800	3.414200	-10.214000	25.815775	0.000207	20.725053
1761.474413	-2.997700	3.415200	-10.237000	25.827343	0.000205	20.733829
1762.475249	-2.975900	3.413800	-10.158000	25.861799	0.000206	20.709646
1763.480099	-2.995600	3.413700	-10.225000	25.811171	0.000204	20.740344
1764.471748	-3.016100	3.413400	-10.293000	25.824756	0.000204	20.716057
1765.477677	-3.000400	3.413600	-10.241000	25.851557	0.000206	20.725436
1766.474453	-3.013700	3.411900	-10.282000	25.844256	0.000205	20.715730
1767.475496	-2.991500	3.412100	-10.207000	25.830267	0.000204	20.730603
1768.474068	-3.005000	3.411100	-10.249000	25.793621	0.000205	20.752113
1769.481058	-2.988400	3.410600	-10.192000	25.817149	0.000206	20.733546
1770.473569	-3.001100	3.411700	-10.238000	25.844722	0.000204	20.723786
1771.476402	-3.008200	3.411700	-10.262000	25.853660	0.000204	20.713797
1772.476256	-2.988800	3.411900	-10.197000	25.873067	0.000202	20.753683
1773.471964	-3.013300	3.409300	-10.272000	25.841546	0.000203	20.735295
1774.475857	-2.987800	3.410200	-10.188000	25.763471	0.000205	20.737475
1775.475010	-3.018300	3.410000	-10.291000	25.764483	0.000202	20.728059
1776.473958	-3.027500	3.409200	-10.320000	25.749053	0.000203	20.733423
1777.475321	-3.004500	3.408400	-10.239000	25.789556	0.000201	20.718631
1778.481707	-3.016800	3.408300	-10.281000	25.785332	0.000201	20.710120
1779.473552	-3.007100	3.408300	-10.249000	25.818552	0.000201	20.737801
1780.482479	-2.985200	3.408900	-10.175000	25.849331	0.000201	20.725097
1781.479795	-3.007900	3.408600	-10.252000	25.827122	0.000201	20.712743
1782.473816	-3.026800	3.406800	-10.311000	25.832614	0.000199	20.709251
1783.479700	-2.968400	3.406700	-10.111000	25.880513	0.000199	20.728921
1784.479777	-2.990200	3.407500	-10.188000	25.917776	0.000201	20.719886
1785.476530	-3.009600	3.405900	-10.249000	25.967583	0.000199	20.720613
1786.482252	-3.019000	3.406100	-10.281000	25.986192	0.000202	20.722239
1787.476298	-3.017700	3.404900	-10.274000	25.969649	0.000200	20.713204
1788.475056	-3.033300	3.405000	-10.328000	25.971641	0.000198	20.728009
1789.475168	-3.017900	3.404600	-10.274000	25.893692	0.000197	20.721296
1790.478252	-3.015700	3.405800	-10.270000	25.940123	0.000197	20.721949
1791.476390	-2.982000	3.406000	-10.156000	25.911038	0.000196	20.748681
1792.479898	-3.005600	3.406000	-10.236000	25.917217	0.000196	20.736870
1793.480464	-3.006500	3.404000	-10.233000	25.911142	0.000198	20.726025
1794.475832	-3.007400	3.404200	-10.237000	25.867965	0.000198	20.715839
1795.477913	-2.995200	3.405000	-10.198000	25.852861	0.000195	20.706830
1796.477939	-3.015200	3.403200	-10.259000	25.868816	0.000197	20.721911
1797.476707	-2.998900	3.403200	-10.205000	25.907471	0.000195	20.710956
1798.475651	-2.983300	3.403500	-10.153000	25.907569	0.000195	20.705838
1799.480636	-3.015100	3.401800	-10.255000	25.949353	0.000195	20.730748
1800.475145	-3.001600	3.401900	-10.210000	25.901114	0.000194	20.706940
1801.480444	-3.004000	3.402600	-10.219000	25.883197	0.000194	20.708856
1802.480268	-3.012200	3.402200	-10.247000	25.885440	0.000195	20.705419
1803.476853	-2.988400	3.401900	-10.165000	25.871973	0.000193	20.709434
1804.480313	-3.020200	3.400200	-10.269000	25.899502	0.000191	20.725711
1805.482015	-3.029600	3.399800	-10.299000	25.943996	0.000193	20.714933
1806.478979	-3.019900	3.399400	-10.265000	25.917890	0.000192	20.707199
1807.481684	-2.989400	3.399800	-10.162000	25.893347	0.000193	20.715260
1808.481922	-3.012300	3.399700	-10.239000	25.848134	0.000190	20.705875
1809.478605	-2.991000	3.399900	-10.168000	25.880181	0.000189	20.710567
1810.481985	-3.011500	3.397800	-10.232000	25.883932	0.000190	20.703904
1811.481866	-3.014800	3.397300	-10.240000	25.906538	0.000189	20.694371
1812.479076	-3.014400	3.397200	-10.240000	25.900703	0.000193	20.709372
1813.484904	-2.981200	3.398600	-10.131000	25.892857	0.000190	20.691531
1814.486537	-2.999400	3.398700	-10.193000	25.878716	0.000190	20.704828
1815.481686	-3.003300	3.398100	-10.204000	25.867516	0.000190	20.712070
1816.484928	-3.003300	3.397100	-10.201000	25.857255	0.000189	20.694648
1817.483250	-2.991500	3.397300	-10.162000	25.852541	0.000190	20.697025
1818.483505	-3.020800	3.395700	-10.256000	25.847998	0.000189	20.691038
1819.481021	-3.004000	3.396700	-10.203000	25.877740	0.000189	20.703848
1820.479641	-3.024600	3.394800	-10.267000	25.916811	0.000189	20.696156
1821.483910	-2.972700	3.397300	-10.098000	25.927219	0.000187	20.694758
1822.484893	-3.009400	3.394600	-10.215000	25.936989	0.000188	20.687503
1823.482935	-2.978500	3.395000	-10.110000	25.951295	0.000189	20.700929
1824.486043	-3.008300	3.394000	-10.209000	25.939226	0.000188	20.694493
1825.486649	-3.000300	3.393500	-10.180000	25.952423	0.000185	20.706803
1826.486860	-3.022700	3.394000	-10.257000	25.950087	0.000186	20.718208
1827.486456	-3.003900	3.392800	-10.190000	25.964596	0.000185	20.700540
1828.486219	-3.013600	3.393500	-10.226000	25.993262	0.000187	20.698520
1829.494877	-3.004900	3.392700	-10.193000	25.986189	0.000186	20.673394
1830.482458	-2.999100	3.393700	-10.177000	25.966691	0.000189	20.690791
1831.486026	-2.986200	3.393300	-10.132000	25.946630	0.000186	20.675376
1832.489157	-3.009900	3.392100	-10.209000	25.917073	0.000184	20.685987
1833.489159	-3.001200	3.390900	-10.176000	25.902196	0.000185	20.713718
1834.483197	-3.022200	3.391800	-10.250000	25.926960	0.000184	20.686911
1835.485685	-3.007700	3.391500	-10.200000	25.860195	0.000183	20.689066
1836.489392	-3.011700	3.391300	-10.213000	25.862359	0.000181	20.685549
1837.485873	-3.007400	3.390500	-10.195000	25.903201	0.000182	20.682957
1838.486673	-3.025800	3.388800	-10.253000	25.925120	0.000181	20.684114
1839.486346	-2.997900	3.390300	-10.162000	25.951109	0.000181	20.694103
1840.492182	-2.993600	3.388700	-10.143000	25.948130	0.000182	20.695377
1841.488727	-3.032000	3.387900	-10.271000	25.905732	0.000181	20.687870
1842.487043	-3.015300	3.388800	-10.217000	25.925959	0.000182	20.675947
1843.490623	-3.000200	3.388900	-10.167000	25.893246	0.000179	20.677222
1844.494099	-2.988700	3.387800	-10.123000	25.907239	0.000178	20.686065
1845.490813	-3.006100	3.387800	-10.183000	25.940701	0.000179	20.681748
1846.491642	-2.993800	3.387800	-10.142000	25.944905	0.000180	20.667479
1847.490673	-3.006900	3.387400	-10.185000	25.929636	0.000179	20.677745
1848.487909	-2.998600	3.387300	-10.156000	25.852555	0.000179	20.644877
1849.490570	-3.002000	3.386000	-10.164000	25.830174	0.000178	20.674080
1850.488071	-2.998600	3.386200	-10.153000	25.788838	0.000179	20.680448
1851.492001	-3.021500	3.386200	-10.231000	25.890977	0.000178	20.673045
1852.495085	-3.000500	3.385500	-10.157000	25.839528	0.000178	20.676839
1853.488686	-3.002200	3.386200	-10.164000	25.875235	0.000180	20.675250
1854.490313	-3.011100	3.384700	-10.191000	25.848067	0.000176	20.681150
1855.491757	-3.009700	3.384600	-10.187000	25.868112	0.000175	20.679949
1856.488132	-2.997100	3.383700	-10.140000	25.871483	0.000179	20.690448
1857.489729	-2.981400	3.385000	-10.092000	25.890387	0.000175	20.682412
1858.492489	-2.994300	3.383700	-10.131000	25.941765	0.000175	20.675705
1859.491965	-3.000000	3.383700	-10.150000	25.984021	0.000176	20.673586
1860.492071	-2.989500	3.383800	-10.115000	25.949501	0.000175	20.667828
1861.494260	-2.989800	3.382600	-10.112000	25.992651	0.000175	20.686999
1862.491501	-2.989600	3.381600	-10.109000	25.975391	0.000174	20.673925
1863.489168	-3.035700	3.381500	-10.264000	25.960349	0.000175	20.665451
1864.492332	-2.996700	3.381500	-10.133000	25.990707	0.000175	20.688366
1865.492335	-2.994600	3.381600	-10.125000	25.999882	0.000175	20.680988
1866.490042	-2.970400	3.382500	-10.046000	25.987170	0.000173	20.678174
1867.489977	-2.955600	3.381800	-9.993800	25.992117	0.000174	20.660382
1868.492289	-3.013300	3.380500	-10.185000	25.983971	0.000172	20.655991
1869.491475	-2.983400	3.379800	-10.083000	25.918601	0.000174	20.651957
1870.490544	-2.980600	3.381100	-10.077000	25.961054	0.000173	20.660942
1871.489685	-2.980700	3.380900	-10.076000	26.006550	0.000171	20.653071
1872.492719	-2.981700	3.380600	-10.078000	25.977884	0.000171	20.681647
1873.492358	-2.988300	3.380900	-10.102000	25.966012	0.000171	20.657388
1874.488726	-3.009400	3.379100	-10.168000	25.986508	0.000172	20.647633
1875.493308	-3.025200	3.377900	-10.218000	25.983388	0.000170	20.660147
1876.493383	-3.006600	3.378900	-10.158000	25.970878	0.000172	20.666546
1877.491051	-2.991300	3.379100	-10.107000	25.948145	0.000169	20.673579
1878.494290	-3.015900	3.376200	-10.181000	25.971455	0.000170	20.688464
1879.491336	-3.003700	3.376900	-10.142000	25.976952	0.000169	20.671226
1880.494029	-2.987700	3.377900	-10.092000	25.994292	0.000168	20.682958
1881.494492	-3.041000	3.375900	-10.265000	26.000354	0.000169	20.674349
1882.493316	-2.990200	3.376300	-10.094000	25.987740	0.000169	20.662149
1883.497438	-2.993900	3.376400	-10.108000	25.980618	0.000167	20.660209
1884.491888	-3.011400	3.376200	-10.166000	26.007862	0.000167	20.688057
1885.497225	-3.001000	3.376700	-10.132000	26.013801	0.000167	20.673160
1886.494515	-3.006300	3.374300	-10.143000	26.000415	0.000168	20.654494
1887.496806	-3.005600	3.374700	-10.142000	26.026874	0.000167	20.679657
1888.497912	-2.988400	3.374500	-10.083000	26.048288	0.000166	20.667032
1889.490996	-2.992200	3.373700	-10.094000	26.021542	0.000167	20.671454
1890.491537	-2.983000	3.373800	-10.063000	25.994476	0.000168	20.658484
1891.494881	-2.998600	3.373600	-10.116000	26.042264	0.000169	20.663824
1892.495311	-2.992600	3.373400	-10.094000	26.075892	0.000169	20.674379
1893.491589	-3.001300	3.372500	-10.122000	26.099935	0.000170	20.662974
1894.498943	-3.002400	3.372300	-10.125000	26.121538	0.000170	20.664292
1895.493446	-2.987400	3.371600	-10.071000	26.084950	0.000168	20.659297
1896.494708	-3.001500	3.372000	-10.120000	26.027671	0.000168	20.653428
1897.497412	-2.995000	3.370900	-10.094000	25.984994	0.000168	20.658441
1898.492332	-2.990800	3.372800	-10.087000	25.963407	0.000169	20.657142
1899.495370	-3.020000	3.370200	-10.177000	25.968071	0.000168	20.674158
1900.496696	-3.013100	3.371500	-10.158000	25.962818	0.000168	20.653231
1901.494976	-2.991800	3.370400	-10.083000	25.982959	0.000167	20.680107
1902.495733	-3.009800	3.369800	-10.141000	25.958038	0.000165	20.684941
1903.496118	-2.999500	3.369700	-10.106000	26.057831	0.000167	20.684683
1904.493491	-3.020500	3.369400	-10.176000	26.063482	0.000164	20.668548
1905.495962	-2.987800	3.370400	-10.069000	26.058702	0.000165	20.659476
1906.496667	-2.983100	3.370100	-10.052000	26.034480	0.000164	20.691094
1907.494355	-3.030600	3.368900	-10.209000	26.043239	0.000164	20.673339
1908.496330	-3.000100	3.368300	-10.104000	26.105402	0.000164	20.682220
1909.496610	-2.991900	3.367900	-10.076000	26.131074	0.000163	20.668185
1910.498198	-2.994100	3.367400	-10.081000	26.110752	0.000164	20.689019
1911.497808	-2.975800	3.367400	-10.020000	26.123610	0.000163	20.691507
1912.494867	-3.003100	3.366700	-10.110000	26.173102	0.000162	20.681494
1913.499469	-3.003000	3.366500	-10.109000	26.168781	0.000160	20.681420
1914.496891	-2.989500	3.366700	-10.064000	26.135689	0.000161	20.680884
1915.494833	-2.993000	3.365900	-10.073000	26.103374	0.000159	20.696305
1916.498976	-2.980500	3.366600	-10.034000	26.092018	0.000160	20.694377
1917.494815	-2.989900	3.365500	-10.061000	26.099875	0.000160	20.705117
1918.496786	-2.993200	3.365100	-10.071000	26.101180	0.000160	20.703110
1919.502254	-2.992300	3.365500	-10.070000	26.093005	0.000159	20.678772
1920.495301	-2.992100	3.364300	-10.065000	26.147793	0.000160	20.689254
1921.496170	-2.974000	3.365800	-10.007000	26.186155	0.000160	20.694612
1922.498911	-2.987600	3.363800	-10.049000	26.172232	0.000158	20.686784
1923.499699	-3.003600	3.363800	-10.103000	26.211543	0.000157	20.704951
1924.496548	-3.002600	3.363500	-10.098000	26.211219	0.000157	20.700357
1925.498402	-2.995300	3.364100	-10.076000	26.255008	0.000155	20.692678
1926.500618	-2.985800	3.362600	-10.039000	26.227384	0.000155	20.712335
1927.495711	-3.004300	3.361600	-10.098000	26.230644	0.000157	20.685737
1928.499762	-3.002800	3.362400	-10.095000	26.216090	0.000157	20.700511
1929.500704	-3.004300	3.361800	-10.099000	26.256815	0.000154	20.711091
1930.498622	-2.993800	3.361800	-10.064000	26.226299	0.000153	20.715039
1931.500980	-3.027800	3.360800	-10.174000	26.181253	0.000155	20.693004
1932.501308	-3.010100	3.359400	-10.111000	26.139428	0.000154	20.694599
1933.502413	-2.997200	3.360300	-10.071000	26.116060	0.000152	20.707630
1934.501269	-2.989600	3.359800	-10.044000	26.048357	0.000155	20.687018
1935.499922	-3.005100	3.360400	-10.098000	26.014188	0.000154	20.692043
1936.504588	-2.965000	3.360700	-9.963600	26.026330	0.000153	20.707088
1937.499643	-2.961400	3.361500	-9.953300	26.054406	0.000153	20.713012
1938.500940	-2.983500	3.360600	-10.025000	26.067675	0.000153	20.692203
1939.503795	-3.007700	3.357800	-10.098000	26.055276	0.000154	20.704403
1940.500736	-3.002900	3.359100	-10.086000	26.106046	0.000153	20.702783
1941.505010	-2.983100	3.358800	-10.018000	26.126423	0.000151	20.715672
1942.501338	-2.990800	3.359200	-10.045000	26.123316	0.000154	20.699273
1943.501178	-2.996100	3.357800	-10.060000	26.069225	0.000151	20.723161
1944.505162	-2.996700	3.357400	-10.060000	26.050232	0.000151	20.703128
1945.506534	-3.007800	3.357500	-10.098000	26.093598	0.000150	20.706872
1946.502559	-3.017200	3.356700	-10.126000	26.121593	0.000150	20.711294
1947.506812	-2.996400	3.356900	-10.057000	26.148074	0.000150	20.703762
1948.505965	-2.994000	3.355800	-10.047000	26.175344	0.000151	20.697499
1949.503798	-3.002700	3.356400	-10.077000	26.100144	0.000150	20.707759
1950.508182	-2.995700	3.356100	-10.053000	26.098336	0.000148	20.710209
1951.512530	-3.000700	3.355000	-10.066000	26.079766	0.000147	20.705301
1952.508822	-2.998200	3.353800	-10.055000	26.095988	0.000149	20.710696
1953.510299	-3.005600	3.354800	-10.083000	26.143723	0.000147	20.693699
1954.509089	-3.021800	3.353100	-10.132000	26.171146	0.000148	20.707980
1955.511742	-2.996800	3.354400	-10.051000	26.150182	0.000148	20.712519
1956.512525	-2.968900	3.356000	-9.961600	26.146345	0.000145	20.722415
1957.513084	-2.991600	3.354500	-10.034000	26.189549	0.000146	20.717464
1958.513813	-3.014100	3.353000	-10.106000	26.192012	0.000145	20.691014
1959.516161	-3.010900	3.353700	-10.097000	26.162046	0.000146	20.724441
1960.514360	-3.014300	3.351600	-10.101000	26.116126	0.000148	20.708171
1961.511171	-2.985200	3.353500	-10.010000	26.149667	0.000144	20.713898
1962.514239	-3.030300	3.351900	-10.156000	26.196878	0.000145	20.715819
1963.514225	-3.014200	3.351000	-10.100000	26.216579	0.000145	20.716176
1964.511213	-3.014500	3.350300	-10.099000	26.215261	0.000142	20.716275
1965.513641	-2.986100	3.351400	-10.006000	26.255821	0.000145	20.704876
1966.517658	-2.987000	3.350200	-10.006000	26.226151	0.000143	20.711570
1967.511365	-2.998900	3.350600	-10.047000	26.217038	0.000143	20.731338
1968.513378	-2.983300	3.350800	-9.995800	26.210886	0.000142	20.705239
1969.517370	-2.978600	3.348900	-9.974200	26.240269	0.000144	20.711533
1970.513967	-3.030300	3.347700	-10.143000	26.251446	0.000143	20.739362
1971.515192	-2.988200	3.348700	-10.005000	26.314951	0.000141	20.720678
1972.512756	-3.019400	3.348300	-10.108000	26.310950	0.000143	20.730882
1973.514283	-3.030200	3.346900	-10.141000	26.347015	0.000143	20.724927
1974.528543	-2.979700	3.348800	-9.976900	26.339570	0.000138	20.704168
1975.515564	-3.014600	3.346200	-10.086000	26.318168	0.000141	20.719643
1976.515656	-3.013600	3.345500	-10.081000	26.269927	0.000141	20.725217
1977.515366	-2.989400	3.348400	-10.009000	26.224980	0.000141	20.728887
1978.513722	-3.006400	3.346300	-10.059000	26.233081	0.000140	20.689135
1979.515614	-3.032800	3.345200	-10.144000	26.201474	0.000140	20.714273
1980.517678	-3.025600	3.345400	-10.121000	26.225274	0.000138	20.731079
1981.513154	-2.996500	3.345300	-10.024000	26.298561	0.000137	20.730759
1982.515755	-2.980200	3.344100	-9.965400	26.337751	0.000139	20.705658
1983.519111	-2.998600	3.345400	-10.031000	26.342297	0.000139	20.728721
1984.515215	-2.995900	3.343700	-10.017000	26.283928	0.000138	20.718424
1985.514482	-3.000500	3.343800	-10.032000	26.303499	0.000139	20.717230
1986.518925	-2.980600	3.343900	-9.966600	26.337647	0.000140	20.706976
1987.515296	-3.000800	3.343900	-10.033000	26.331844	0.000137	20.715370
1988.519930	-3.008800	3.343800	-10.060000	26.293732	0.000136	20.726855
1989.519077	-3.009700	3.344000	-10.063000	26.280375	0.000135	20.738088
1990.518204	-3.013700	3.342300	-10.071000	26.264216	0.000137	20.718055
1991.522054	-2.993000	3.342700	-10.004000	26.318996	0.000137	20.716208
1992.517697	-3.004000	3.341500	-10.036000	26.317194	0.000136	20.740951
1993.521691	-2.953600	3.342100	-9.870200	26.313677	0.000137	20.730778
1994.523765	-2.991800	3.342000	-9.997300	26.314970	0.000133	20.728284
1995.520353	-3.002800	3.340600	-10.029000	26.245000	0.000135	20.717236
1996.523359	-2.964800	3.342100	-9.907100	26.223247	0.000133	20.743741
1997.526937	-3.009500	3.339500	-10.049000	26.237083	0.000135	20.714022
1998.522063	-2.998900	3.340200	-10.015000	26.250430	0.000133	20.728857
1999.525638	-2.968300	3.341100	-9.916300	26.270896	0.000133	20.733303
2000.523145	-3.019200	3.340000	-10.082000	26.281013	0.000134	20.742522
2001.524925	-2.978100	3.339800	-9.945700	26.267434	0.000133	20.724134
2002.524256	-2.983600	3.339300	-9.961900	26.292692	0.000133	20.728180
2003.522550	-2.995100	3.338400	-9.997800	26.309812	0.000133	20.740170
2004.526004	-3.014500	3.337600	-10.060000	26.321681	0.000132	20.724596
2005.524725	-2.973200	3.338000	-9.923700	26.259959	0.000132	20.736537
2006.526642	-3.002700	3.337200	-10.020000	26.233469	0.000131	20.740263
2007.530167	-2.997300	3.338100	-10.005000	26.310799	0.000130	20.752542
2008.528650	-3.004300	3.336200	-10.022000	26.335234	0.000131	20.726364
2009.527126	-2.991300	3.338200	-9.984900	26.360975	0.000133	20.750338
2010.528995	-2.987700	3.336500	-9.967900	26.359933	0.000129	20.726531
2011.528900	-3.001300	3.336100	-10.012000	26.381390	0.000129	20.726759
2012.529004	-2.991400	3.336000	-9.978600	26.435300	0.000132	20.737794
2013.528897	-2.997800	3.335700	-9.999600	26.420185	0.000132	20.747734
2014.528518	-3.008300	3.334400	-10.030000	26.441365	0.000129	20.724450
2015.533757	-3.016500	3.334100	-10.056000	26.446732	0.000128	20.762088
2016.527064	-2.984600	3.335600	-9.954300	26.444373	0.000129	20.734112
2017.529562	-3.000700	3.334400	-10.004000	26.441850	0.000129	20.740110
2018.528116	-3.002300	3.333600	-10.008000	26.399937	0.000129	20.754884
2019.530075	-3.006900	3.335100	-10.027000	26.365706	0.000128	20.748455
2020.527140	-3.002300	3.334100	-10.009000	26.354604	0.000128	20.739193
2021.530590	-2.999500	3.332900	-9.995400	26.341002	0.000127	20.725048
2022.531511	-2.995500	3.333500	-9.985200	26.297375	0.000128	20.749958
2023.531218	-2.999300	3.332100	-9.992700	26.280586	0.000127	20.743990
2024.532696	-2.997000	3.331800	-9.984600	26.336657	0.000126	20.749132
2025.531835	-3.028300	3.329600	-10.082000	26.381385	0.000125	20.754730
2026.528850	-3.041600	3.331100	-10.130000	26.392806	0.000127	20.782804
2027.531349	-3.009600	3.331400	-10.026000	26.398725	0.000126	20.756510
2028.531530	-3.000700	3.330800	-9.994000	26.368427	0.000126	20.763518
2029.530428	-3.016100	3.330200	-10.043000	26.313460	0.000126	20.760433
2030.534684	-3.007500	3.330600	-10.016000	26.328736	0.000124	20.752551
2031.533514	-2.993300	3.329300	-9.964100	26.291690	0.000122	20.748985
2032.529361	-3.016900	3.328700	-10.042000	26.304122	0.000124	20.766221
2033.529620	-2.993200	3.329300	-9.964600	26.319753	0.000122	20.743997
2034.535192	-3.020200	3.329200	-10.054000	26.315685	0.000122	20.749866
2035.531322	-3.005300	3.328300	-10.002000	26.373513	0.000123	20.757250
2036.531440	-3.020900	3.327300	-10.051000	26.397083	0.000123	20.753438
2037.530550	-3.003300	3.328000	-9.993900	26.441428	0.000120	20.765292
2038.537649	-2.993300	3.327400	-9.959300	26.446722	0.000122	20.749275
2039.534213	-2.996500	3.327700	-9.971100	26.489160	0.000122	20.764905
2040.534366	-3.025300	3.327100	-10.064000	26.540877	0.000120	20.765206
2041.537790	-2.947700	3.327800	-9.808400	26.522450	0.000120	20.756166
2042.534177	-3.040100	3.325500	-10.109000	26.473244	0.000120	20.769295
2043.532881	-2.994100	3.324400	-9.952600	26.462847	0.000120	20.759319
2044.535838	-2.989200	3.327000	-9.944100	26.432184	0.000121	20.768329
2045.536788	-2.997100	3.325700	-9.967000	26.423772	0.000120	20.764616
2046.536106	-2.984400	3.325000	-9.922100	26.455508	0.000119	20.759055
2047.533710	-3.010500	3.324400	-10.007000	26.474598	0.000118	20.764492
2048.533995	-2.989400	3.324800	-9.938500	26.514603	0.000117	20.753020
2049.538150	-2.987600	3.325700	-9.934800	26.525232	0.000118	20.758015
2050.537879	-2.995400	3.324600	-9.957200	26.494675	0.000118	20.774715
2051.535937	-3.016300	3.322900	-10.022000	26.518990	0.000118	20.768336
2052.539045	-3.003700	3.323100	-9.980300	26.536933	0.000119	20.793485
2053.539801	-3.012500	3.323900	-10.011000	26.516086	0.000118	20.771107
2054.535766	-3.008100	3.321500	-9.990100	26.487691	0.000118	20.772438
2055.539701	-2.993400	3.322000	-9.943200	26.456110	0.000117	20.754444
2056.542380	-3.002600	3.322300	-9.975000	26.481363	0.000116	20.794052
2057.555449	-2.975200	3.321400	-9.880900	26.487575	0.000117	20.765683
2058.542980	-3.011000	3.321300	-9.999600	26.464736	0.000114	20.777340
2059.541945	-2.997000	3.321500	-9.953200	26.453550	0.000114	20.781743
2060.544558	-2.990500	3.320800	-9.929700	26.485450	0.000116	20.771133
2061.541545	-2.984600	3.321000	-9.909400	26.501250	0.000115	20.775635
2062.539222	-3.011900	3.318900	-9.995100	26.511487	0.000115	20.775019
2063.541820	-2.998000	3.319300	-9.950100	26.482394	0.000115	20.779915
2064.554417	-2.991700	3.318700	-9.927900	26.442823	0.000115	20.767642
2065.543272	-3.003600	3.318100	-9.964800	26.420332	0.000113	20.783444
2066.543013	-2.996200	3.318200	-9.940200	26.425350	0.000114	20.784694
2067.544688	-3.033600	3.316000	-10.058000	26.410941	0.000113	20.786333
2068.543517	-3.005900	3.317500	-9.971200	26.422937	0.000112	20.790329
2069.546311	-3.000100	3.318500	-9.955200	26.464280	0.000114	20.765501
2070.541633	-2.999400	3.316400	-9.946400	26.511955	0.000113	20.789714
2071.543970	-3.016000	3.316500	-10.001000	26.531075	0.000109	20.786173
2072.546693	-3.013200	3.316500	-9.992500	26.510056	0.000113	20.784961
2073.541707	-2.981500	3.316000	-9.885700	26.553435	0.000111	20.779727
2074.543725	-3.009200	3.315300	-9.974500	26.584665	0.000111	20.804956
2075.541801	-2.989800	3.316000	-9.912800	26.558882	0.000111	20.786624
2076.548604	-2.995400	3.314700	-9.928200	26.563231	0.000109	20.795264
2077.545234	-2.988700	3.315500	-9.908200	26.516141	0.000110	20.787284
2078.543749	-2.986300	3.313700	-9.894700	26.481859	0.000109	20.777481
2079.546189	-2.981600	3.313500	-9.878900	26.542637	0.000110	20.788312
2080.545621	-3.007100	3.313000	-9.961300	26.561633	0.000109	20.769001
2081.546672	-2.982000	3.313300	-9.879400	26.601782	0.000111	20.780911
2082.546959	-2.987500	3.312700	-9.895900	26.536940	0.000110	20.783535
2083.542882	-2.989700	3.313100	-9.904600	26.578278	0.000109	20.792371
2084.545301	-2.991100	3.312100	-9.905800	26.502138	0.000109	20.805925
2085.546471	-2.997600	3.312900	-9.930300	26.529399	0.000107	20.805826
2086.542927	-2.988500	3.310900	-9.893600	26.537872	0.000108	20.798222
2087.543269	-2.998000	3.310000	-9.922300	26.562547	0.000108	20.809749
2088.548162	-2.983600	3.311700	-9.880000	26.608405	0.000105	20.814596
2089.542795	-2.999400	3.310100	-9.927800	26.604240	0.000107	20.803296
2090.548276	-2.985300	3.311400	-9.885000	26.547166	0.000106	20.799503
2091.548546	-3.001700	3.310100	-9.934600	26.523660	0.000107	20.796739
2092.543189	-3.005400	3.310000	-9.946000	26.481757	0.000107	20.787810
2093.543448	-3.001900	3.309600	-9.934500	26.487669	0.000107	20.816512
2094.546786	-3.016400	3.308100	-9.977900	26.547007	0.000107	20.810724
2095.543335	-3.018500	3.309200	-9.988000	26.596639	0.000106	20.797078
2096.545784	-2.990300	3.309500	-9.896200	26.554114	0.000101	20.810755
2097.546458	-3.013600	3.307600	-9.966700	26.575438	0.000104	20.813698
2098.544721	-3.007100	3.307500	-9.945000	26.536140	0.000102	20.797903
2099.545102	-3.002600	3.307700	-9.929900	26.588921	0.000104	20.816346
2100.548528	-2.985600	3.307200	-9.873000	26.617228	0.000102	20.805447
2101.549614	-2.994500	3.306600	-9.900200	26.645338	0.000106	20.807153
2102.545999	-2.969900	3.307300	-9.821700	26.644346	0.000103	20.812320
2103.551356	-2.995600	3.305900	-9.902700	26.650471	0.000103	20.808046
2104.549971	-2.997800	3.305400	-9.907400	26.639238	0.000101	20.799598
2105.548163	-2.968800	3.305600	-9.812400	26.708472	0.000102	20.799974
2106.548865	-3.000500	3.304700	-9.914100	26.700380	0.000102	20.803693
2107.551769	-3.004800	3.304400	-9.928200	26.706469	0.000101	20.799383
2108.550299	-3.001900	3.303500	-9.915700	26.713201	0.000102	20.806151
2109.554001	-3.007600	3.303200	-9.933500	26.755842	0.000101	20.804925
2110.552237	-2.993700	3.303800	-9.889200	26.726113	0.000103	20.812494
2111.549108	-2.993500	3.303500	-9.888500	26.734186	0.000101	20.822507
2112.549046	-2.990900	3.302700	-9.878100	26.740917	0.000101	20.778066
2113.550926	-2.975900	3.302300	-9.826900	26.787582	9.971681E-5	20.788947
2114.553570	-3.015900	3.301200	-9.955600	26.797020	0.000101	20.795592
2115.552283	-2.998900	3.300000	-9.896100	26.835616	9.905676E-5	20.795518
2116.549925	-3.028700	3.300200	-9.994400	26.849519	9.776967E-5	20.807600
2117.561791	-2.984900	3.302000	-9.855100	26.858356	9.842972E-5	20.802735
2118.556249	-3.006300	3.301300	-9.924200	26.804572	9.978282E-5	20.788960
2119.558924	-2.991500	3.300100	-9.870800	26.739889	9.928778E-5	20.797895
2120.559287	-2.974700	3.301400	-9.819600	26.713883	9.882575E-5	20.781707
2121.552444	-3.013100	3.300300	-9.942700	26.644160	9.753865E-5	20.780365
2122.558349	-2.997000	3.299000	-9.886900	26.639346	9.793468E-5	20.783111
2123.557729	-3.014200	3.298900	-9.943000	26.696152	9.677960E-5	20.786166
2124.555351	-3.012600	3.297800	-9.933500	26.743713	9.671359E-5	20.794627
2125.556934	-2.993700	3.298300	-9.872900	26.701414	9.763766E-5	20.794301
2126.557930	-3.001300	3.298100	-9.897200	26.719091	9.641657E-5	20.766079
2127.556729	-2.995500	3.297900	-9.877600	26.729571	9.628456E-5	20.764762
2128.556853	-2.975300	3.297400	-9.808600	26.791278	9.783567E-5	20.789344
2129.559389	-3.005500	3.295900	-9.905500	26.821987	9.605354E-5	20.783236
2130.560616	-3.011000	3.295400	-9.921400	26.806749	9.542650E-5	20.797787
2131.559193	-3.001800	3.295800	-9.892500	26.857159	9.344635E-5	20.763124
2132.558443	-3.025600	3.294500	-9.967000	26.865923	9.559151E-5	20.767669
2133.559760	-3.013500	3.297100	-9.934000	26.883028	9.496446E-5	20.774911
2134.554800	-2.994600	3.296000	-9.869500	26.895759	9.433742E-5	20.772066
2135.559396	-2.991600	3.295000	-9.856600	26.907236	9.331434E-5	20.781236
2136.559509	-3.015400	3.294500	-9.933600	26.914058	9.526149E-5	20.769604
2137.555597	-2.980400	3.293700	-9.815800	26.919772	9.107018E-5	20.783410
2138.565716	-2.995900	3.294400	-9.869200	26.900390	9.460144E-5	20.772455
2139.563635	-3.004500	3.294300	-9.897400	26.915486	9.232427E-5	20.765350
2140.562243	-3.018500	3.292000	-9.935700	26.887794	9.176323E-5	20.783023
2141.562322	-3.021600	3.292500	-9.948000	26.847387	9.324834E-5	20.770368
2142.562636	-3.015900	3.293000	-9.930600	26.850492	9.199425E-5	20.765904
2143.563573	-2.998600	3.291100	-9.868100	26.840393	9.338035E-5	20.772820
2144.566133	-3.004200	3.291900	-9.888100	26.805779	9.093817E-5	20.770733
2145.566457	-3.015800	3.291600	-9.925400	26.764432	9.209325E-5	20.765671
2146.559732	-3.020900	3.290500	-9.939100	26.817299	9.130120E-5	20.765721
2147.560097	-3.029900	3.289700	-9.966100	26.823583	9.074016E-5	20.771091
2148.560250	-3.012500	3.289600	-9.909400	26.813288	9.034413E-5	20.764059
2149.560739	-2.998700	3.290200	-9.865900	26.801401	9.008011E-5	20.768228
2150.561362	-3.009700	3.289900	-9.900900	26.811531	9.014611E-5	20.760395
2151.565447	-3.006800	3.290200	-9.892500	26.823719	8.942006E-5	20.774546
2152.560761	-2.995100	3.289700	-9.851500	26.885598	9.275330E-5	20.743830
2153.561614	-3.002500	3.288600	-9.873600	26.891379	9.067415E-5	20.761024
2154.566389	-2.977200	3.289100	-9.791800	26.901417	9.050914E-5	20.746461
2155.565836	-3.001800	3.287800	-9.868300	26.905043	8.889202E-5	20.746313
2156.562284	-2.995600	3.287800	-9.848100	26.933936	8.796795E-5	20.759719
2157.565280	-2.999100	3.286900	-9.856100	26.934805	8.859500E-5	20.753007
2158.566685	-2.995900	3.286700	-9.845500	26.915699	8.727490E-5	20.741381
2159.562493	-3.017600	3.286000	-9.914700	26.883861	8.826497E-5	20.755834
2160.564698	-2.996700	3.285500	-9.844900	26.911615	8.664786E-5	20.767621
2161.564762	-2.983600	3.286700	-9.805800	26.951727	8.767093E-5	20.742996
2162.562817	-3.000400	3.285600	-9.857300	26.947483	8.730790E-5	20.742522
2163.566602	-2.986100	3.285200	-9.808500	26.903417	8.413967E-5	20.762222
2164.563113	-2.993600	3.283000	-9.827200	26.948708	8.493173E-5	20.748496
2165.567903	-3.001400	3.284400	-9.857600	26.945690	8.476672E-5	20.757789
2166.566158	-3.010400	3.283200	-9.882900	26.987037	8.595481E-5	20.736304
2167.565560	-2.998100	3.284800	-9.846900	26.943315	8.582280E-5	20.741175
2168.570341	-3.031300	3.283600	-9.951900	26.870257	8.354563E-5	20.753061
2169.567929	-3.011400	3.283000	-9.885400	26.877337	8.460171E-5	20.748326
2170.566700	-3.022900	3.281300	-9.918300	26.902189	8.463471E-5	20.743443
2171.575397	-2.997700	3.282200	-9.838000	26.915141	8.453570E-5	20.734181
2172.569644	-2.984600	3.282900	-9.797000	26.914058	8.493173E-5	20.762016
2173.573635	-2.987100	3.280700	-9.798500	26.901081	8.245655E-5	20.756555
2174.579110	-3.017400	3.281700	-9.900800	26.912877	8.166449E-5	20.748500
2175.570430	-2.991400	3.280700	-9.812500	26.966093	8.311660E-5	20.753649
2176.574032	-2.977600	3.280400	-9.766500	27.030370	8.215953E-5	20.744320
2177.588129	-2.984200	3.279500	-9.785400	27.051318	8.027839E-5	20.744998
2178.572394	-3.002700	3.278500	-9.843100	27.093683	8.265456E-5	20.742086
2179.576468	-3.021800	3.277000	-9.902000	27.064655	8.212653E-5	20.747505
2180.575524	-3.003200	3.277900	-9.843200	27.074807	8.324861E-5	20.719307
2181.580061	-2.994500	3.276700	-9.810900	27.064166	8.123546E-5	20.751281
2182.577109	-2.989400	3.277700	-9.796100	27.070032	8.173050E-5	20.729679
2183.577106	-3.000100	3.276500	-9.829400	27.068147	8.001437E-5	20.750069
2184.575121	-2.983500	3.277000	-9.776400	27.077681	8.103745E-5	20.739742
2185.575938	-3.009900	3.277100	-9.863100	27.105234	8.083943E-5	20.730943
2186.576434	-3.026700	3.275100	-9.911400	27.053000	8.031139E-5	20.736732
2187.578442	-3.006700	3.275300	-9.846300	27.011718	8.037740E-5	20.704223
2188.579757	-3.012600	3.276300	-9.869100	27.025024	7.951934E-5	20.743686
2189.577461	-2.988600	3.274700	-9.785900	27.021357	7.777021E-5	20.745687
2190.579588	-3.015800	3.274000	-9.872600	27.070226	7.965135E-5	20.723710
2191.580053	-3.011300	3.274000	-9.856900	27.083892	7.786921E-5	20.736980
2192.578612	-2.994100	3.275000	-9.804500	27.040059	7.783621E-5	20.732726
2193.582404	-3.008800	3.272500	-9.845300	26.997436	7.786921E-5	20.719259
2194.580517	-3.003800	3.273100	-9.830800	26.989892	7.862827E-5	20.722104
2195.578534	-2.999900	3.273200	-9.818800	27.004043	7.796822E-5	20.743449
2196.582925	-2.983800	3.272400	-9.763100	26.977199	7.763820E-5	20.724987
2197.580492	-3.019800	3.271500	-9.877600	26.998815	7.717616E-5	20.733923
2198.579273	-2.991200	3.270600	-9.782000	26.978987	7.753919E-5	20.737692
2199.581759	-3.014000	3.269800	-9.853000	26.977960	7.674713E-5	20.724330
2200.579018	-2.989500	3.270200	-9.774600	27.025428	7.648311E-5	20.738401
2201.582498	-3.011700	3.269900	-9.846200	27.092758	7.483299E-5	20.734042
2202.584874	-2.997300	3.268700	-9.796500	27.113973	7.592207E-5	20.708910
2203.579709	-3.003900	3.270400	-9.823200	27.062695	7.628510E-5	20.718980
2204.581329	-2.986800	3.267500	-9.758000	27.032936	7.687914E-5	20.717976
2205.580843	-2.986900	3.268600	-9.762100	27.034902	7.394193E-5	20.726592
2206.580615	-2.994600	3.268200	-9.786300	27.103370	7.453597E-5	20.726223
2207.583009	-3.002300	3.266800	-9.806600	27.073601	7.489900E-5	20.719991
2208.586742	-2.984800	3.267600	-9.752000	27.004887	7.404093E-5	20.744772
2209.584759	-2.985300	3.267100	-9.751900	26.967345	7.272084E-5	20.715077
2210.581410	-3.008200	3.267000	-9.826300	26.944589	7.410694E-5	20.715903
2211.585175	-2.995200	3.265200	-9.777900	26.988098	7.420595E-5	20.714610
2212.583378	-3.024100	3.265800	-9.875800	27.072683	7.295185E-5	20.713852
2213.581924	-2.985200	3.265100	-9.746600	27.019315	7.331488E-5	20.725141
2214.581625	-2.977000	3.265000	-9.719200	27.020809	7.433796E-5	20.725221
2215.588871	-2.976900	3.264500	-9.716600	27.023767	7.258883E-5	20.708755
2216.582633	-2.992700	3.264900	-9.769900	27.089505	7.374391E-5	20.729822
2217.585752	-2.987500	3.263600	-9.749300	27.087748	7.404093E-5	20.722839
2218.587948	-2.995800	3.263900	-9.776700	27.037350	7.245682E-5	20.708189
2219.585934	-2.966400	3.263600	-9.679800	26.999759	7.658212E-5	20.705948
2220.585921	-3.003100	3.262600	-9.797400	26.991995	7.486600E-5	20.731332
2221.583232	-3.007300	3.261700	-9.808200	27.025692	7.219280E-5	20.730605
2222.586072	-2.980100	3.262400	-9.721700	27.143369	7.285285E-5	20.719509
2223.586114	-3.010800	3.261100	-9.817600	27.171354	7.186278E-5	20.715414
2224.583997	-2.991300	3.260900	-9.753600	27.219990	7.248982E-5	20.704588
2225.586193	-2.995000	3.259300	-9.760000	27.233311	7.093871E-5	20.716566
2226.583233	-2.999300	3.260100	-9.777000	27.256050	7.206079E-5	20.693917
2227.587631	-2.992600	3.260500	-9.756600	27.294102	7.123573E-5	20.700900
2228.589649	-2.994500	3.259600	-9.760000	27.293264	7.186278E-5	20.710489
2229.584848	-3.005200	3.259900	-9.796000	27.230790	7.031166E-5	20.698381
2230.591037	-3.001400	3.258200	-9.778200	27.195637	7.011365E-5	20.716604
2231.591665	-2.987200	3.258900	-9.734000	27.193556	6.882655E-5	20.705975
2232.585952	-2.989500	3.258100	-9.739200	27.243752	7.136774E-5	20.706204
2233.589789	-3.028200	3.256700	-9.860000	27.218505	7.067469E-5	20.711630
2234.588470	-2.979800	3.256900	-9.703900	27.214011	7.011365E-5	20.714222
2235.591599	-3.006600	3.255700	-9.788200	27.211881	7.093871E-5	20.717296
2236.585063	-3.041200	3.255100	-9.899000	27.200414	6.902457E-5	20.718564
2237.603844	-3.028800	3.254700	-9.856200	27.143623	6.753946E-5	20.709807
2238.590865	-3.039300	3.254700	-9.891100	27.121196	6.658239E-5	20.716650
2239.586110	-3.019400	3.255100	-9.828000	27.055810	7.031166E-5	20.697829
2240.585987	-3.000100	3.254400	-9.762500	27.006740	6.796849E-5	20.723400
2241.588482	-3.004800	3.255200	-9.780000	27.043858	6.602135E-5	20.705251
2242.588101	-3.001400	3.255400	-9.770500	27.061726	6.651638E-5	20.714686
2243.584795	-2.993300	3.254200	-9.739800	27.112172	6.651638E-5	20.685760
2244.588701	-3.023900	3.253200	-9.836200	27.179374	6.674740E-5	20.720636
2245.588776	-3.009900	3.252300	-9.788400	27.233042	6.681341E-5	20.702069
2246.586030	-3.009300	3.251300	-9.782700	27.200986	6.532830E-5	20.691162
2247.586154	-2.993700	3.252500	-9.735900	27.169879	6.635137E-5	20.709189
2248.588152	-3.006600	3.250800	-9.773400	27.120745	6.635137E-5	20.710032
2249.587936	-3.012100	3.251400	-9.792800	27.135734	6.694542E-5	20.713253
2250.585823	-3.035100	3.250200	-9.863800	27.163311	6.605435E-5	20.697365
2251.586740	-3.003200	3.250200	-9.760700	27.229480	6.354617E-5	20.702754
2252.589266	-2.991500	3.249800	-9.720900	27.296668	6.503128E-5	20.701584
2253.591331	-3.026400	3.248700	-9.830900	27.309946	6.496527E-5	20.710200
2254.589653	-3.010700	3.248300	-9.778500	27.284321	6.275411E-5	20.694380
2255.589080	-3.005500	3.248000	-9.761100	27.286360	6.361217E-5	20.696431
2256.592365	-3.010200	3.250000	-9.783100	27.273437	6.460224E-5	20.703347
2257.589170	-2.998700	3.246800	-9.735900	27.323979	6.532830E-5	20.685907
2258.590986	-3.021100	3.247300	-9.810100	27.389104	6.417321E-5	20.702585
2259.593251	-3.010700	3.247200	-9.775700	27.376629	6.315014E-5	20.699044
2260.589309	-2.991200	3.245800	-9.708000	27.346121	6.258910E-5	20.704390
2261.591226	-3.000700	3.246200	-9.739900	27.295962	6.225907E-5	20.707038
2262.596953	-3.006500	3.245000	-9.754500	27.258081	6.371118E-5	20.696908
2263.589965	-3.019900	3.244500	-9.797400	27.308249	6.113699E-5	20.704699
2264.593861	-3.014800	3.244000	-9.779100	27.272816	6.186304E-5	20.704618
2265.593323	-3.013500	3.244400	-9.776400	27.216311	5.945387E-5	20.701362
2266.590888	-3.002300	3.244200	-9.739200	27.198991	6.219307E-5	20.692475
2267.595255	-3.017200	3.244500	-9.788700	27.250748	5.971789E-5	20.709922
2268.594057	-3.031300	3.242400	-9.827800	27.273535	6.116999E-5	20.701074
2269.599304	-2.995800	3.242600	-9.713500	27.275200	6.275411E-5	20.695162
2270.591464	-3.011000	3.241800	-9.760600	27.328692	5.905784E-5	20.710090
2271.596042	-2.988500	3.242000	-9.687700	27.410104	5.965188E-5	20.680086
2272.595702	-3.036600	3.239700	-9.837100	27.378679	5.991590E-5	20.684509
2273.591975	-3.015000	3.239500	-9.766200	27.375711	5.942086E-5	20.681997
2274.596522	-2.978500	3.241000	-9.652700	27.366211	5.793576E-5	20.707056
2275.593793	-2.960700	3.240600	-9.593300	27.340790	6.110399E-5	20.686223
2276.597660	-2.985000	3.240200	-9.671000	27.333206	5.839779E-5	20.684284
2277.599119	-2.992900	3.239100	-9.693700	27.344421	5.747372E-5	20.686556
2278.599750	-2.976800	3.239000	-9.641100	27.355066	5.790275E-5	20.678772
2279.599184	-3.024200	3.237600	-9.790200	27.399298	5.849680E-5	20.667318
2280.597733	-3.006800	3.236800	-9.731500	27.414290	5.872781E-5	20.686194
2281.601327	-2.985400	3.237600	-9.664800	27.393998	5.681367E-5	20.677160
2282.599656	-3.010900	3.236300	-9.743400	27.400555	5.734171E-5	20.679489
2283.598784	-2.995000	3.235900	-9.690200	27.382498	5.658266E-5	20.687403
2284.603503	-2.993800	3.235600	-9.686300	27.318021	5.598861E-5	20.683707
2285.600421	-2.992900	3.235900	-9.684100	27.285235	5.417348E-5	20.681073
2286.604677	-3.003600	3.234300	-9.713900	27.263178	5.569159E-5	20.684017
2287.611219	-2.987000	3.235300	-9.663200	27.330095	5.480053E-5	20.668350
2288.606751	-2.992300	3.233600	-9.674500	27.336212	5.588961E-5	20.686359
2289.605293	-2.980800	3.233600	-9.638700	27.359552	5.612062E-5	20.692770
2290.605561	-2.982700	3.234000	-9.645500	27.343153	5.483353E-5	20.658251
2291.607691	-2.994400	3.234100	-9.683700	27.376796	5.592261E-5	20.684038
2292.606509	-2.997200	3.231900	-9.686000	27.408326	5.268837E-5	20.674504
2293.607257	-3.001100	3.231400	-9.696100	27.450305	5.338142E-5	20.685917
2294.606214	-3.014300	3.231600	-9.740400	27.451872	5.328241E-5	20.689865
2295.604714	-2.989900	3.234100	-9.668600	27.462963	5.212733E-5	20.665459
2296.610312	-2.983900	3.231500	-9.641300	27.491118	5.245735E-5	20.677666
2297.608575	-2.999800	3.228900	-9.685400	27.483389	5.331542E-5	20.668466
2298.605811	-2.987000	3.230700	-9.649000	27.413539	5.295239E-5	20.665997
2299.609094	-2.989400	3.229800	-9.653900	27.370502	5.324941E-5	20.664901
2300.611751	-3.003100	3.228800	-9.695400	27.411954	5.232534E-5	20.653495
2301.611075	-2.997800	3.227900	-9.675600	27.384984	5.301840E-5	20.668565
2302.607310	-3.001100	3.228200	-9.687800	27.349965	5.021319E-5	20.646611
2303.607940	-2.958100	3.229800	-9.553100	27.329177	5.126927E-5	20.656994
2304.609831	-2.991600	3.227600	-9.654000	27.416332	4.945413E-5	20.665013
2305.608759	-2.986300	3.227100	-9.636700	27.485191	5.044421E-5	20.680711
2306.609930	-3.006300	3.225600	-9.695500	27.521455	4.892610E-5	20.657451
2307.612088	-2.970100	3.226200	-9.581100	27.540906	5.126927E-5	20.668013
2308.608901	-2.998600	3.225300	-9.670200	27.607474	5.057622E-5	20.662920
2309.614048	-3.006200	3.224100	-9.692000	27.615767	5.004818E-5	20.677431
2310.613374	-2.995500	3.224800	-9.659200	27.632585	5.107125E-5	20.644563
2311.609240	-2.992300	3.225900	-9.652700	27.612818	5.054321E-5	20.660711
2312.608902	-3.025600	3.223800	-9.752800	27.589295	4.783702E-5	20.646997
2313.610539	-2.985000	3.222600	-9.617800	27.606455	4.994917E-5	20.668533
2314.614465	-3.016100	3.223200	-9.720700	27.525798	4.843106E-5	20.662769
2315.613504	-2.992500	3.222000	-9.640700	27.498048	4.945413E-5	20.641011
2316.610451	-2.998500	3.223600	-9.665600	27.481505	5.034520E-5	20.652343
2317.612212	-3.014700	3.221900	-9.712000	27.500129	4.829905E-5	20.649270
2318.610170	-2.998800	3.221700	-9.660900	27.502492	4.902510E-5	20.655442
2319.615846	-3.005800	3.220800	-9.680300	27.492669	5.140128E-5	20.658361
2320.616402	-2.955800	3.221700	-9.521700	27.520596	4.892610E-5	20.646154
2321.611652	-2.986800	3.220800	-9.618800	27.516858	4.829905E-5	20.668948
2322.613399	-2.982700	3.220300	-9.604200	27.542362	4.975116E-5	20.646242
2323.615876	-2.996000	3.218900	-9.642900	27.618777	5.070823E-5	20.653903
2324.610282	-2.986300	3.219000	-9.612100	27.641395	5.054321E-5	20.664336
2325.614515	-2.995500	3.218800	-9.641500	27.595693	4.849706E-5	20.649168
2326.613553	-3.007100	3.216000	-9.669800	27.569377	4.971815E-5	20.662994
2327.611464	-3.028200	3.216800	-9.740400	27.593679	4.862907E-5	20.662316
2328.614789	-3.003500	3.216100	-9.659200	27.618881	4.714396E-5	20.647844
2329.619281	-3.011600	3.215300	-9.682600	27.674062	4.955314E-5	20.651687
2330.615002	-3.027600	3.214700	-9.731100	27.597058	4.839806E-5	20.641532
2331.618941	-3.009500	3.215800	-9.677100	27.573000	4.912411E-5	20.622064
2332.621254	-3.025300	3.214300	-9.723500	27.562584	4.846406E-5	20.640509
2333.618755	-3.035600	3.214800	-9.758000	27.625112	4.955314E-5	20.644630
2334.615140	-2.995600	3.213400	-9.625500	27.630987	4.661593E-5	20.650542
2335.618016	-2.974600	3.215300	-9.562800	27.602353	4.602188E-5	20.652551
2336.614704	-2.997300	3.214300	-9.633000	27.598308	4.595588E-5	20.629037
2337.621046	-2.993000	3.213200	-9.616700	27.569035	4.565886E-5	20.643681
2338.616105	-2.991500	3.213500	-9.612600	27.615401	4.588987E-5	20.631064
2339.619120	-3.024100	3.211200	-9.710100	27.616906	4.605488E-5	20.630681
2340.621158	-3.006100	3.210200	-9.649800	27.589581	4.892610E-5	20.648234
2341.616852	-3.008000	3.209700	-9.654100	27.568099	4.575786E-5	20.638946
2342.620940	-2.975700	3.210500	-9.553100	27.525166	4.407474E-5	20.634629
2343.620733	-3.004400	3.209200	-9.640900	27.516470	4.562585E-5	20.627302
2344.618225	-3.004300	3.210200	-9.643700	27.490763	4.536183E-5	20.641742
2345.620823	-2.985700	3.208700	-9.579200	27.460412	4.463578E-5	20.636811
2346.621892	-3.028500	3.209000	-9.717000	27.494565	4.420675E-5	20.644145
2347.617998	-3.027500	3.206400	-9.706900	27.478565	4.605488E-5	20.633263
2348.618834	-3.010300	3.205600	-9.649500	27.507418	4.516382E-5	20.629574
2349.621721	-2.993900	3.206300	-9.598100	27.533534	4.532883E-5	20.644472
2350.624345	-3.008200	3.206600	-9.646000	27.538253	4.354670E-5	20.617448
2351.623534	-3.002900	3.205100	-9.624200	27.501152	4.496580E-5	20.658835
2352.620317	-3.023900	3.205600	-9.692500	27.468756	4.295266E-5	20.633351
2353.629526	-2.982400	3.204100	-9.555300	27.491482	4.216060E-5	20.632034
2354.622180	-2.992900	3.205500	-9.592500	27.504011	4.239162E-5	20.653651
2355.624185	-2.997500	3.204000	-9.602900	27.514184	4.093951E-5	20.623104
2356.625142	-3.021300	3.202900	-9.676100	27.482381	4.209459E-5	20.654174
2357.649022	-3.016400	3.201100	-9.654200	27.509950	4.163256E-5	20.630699
2358.634165	-3.020900	3.201800	-9.671900	27.585197	4.308467E-5	20.626750
2359.624740	-3.004000	3.201700	-9.616900	27.613527	4.321668E-5	20.641508
2360.626137	-3.005800	3.200500	-9.619300	27.613796	4.212760E-5	20.650314
2361.623433	-3.003300	3.202600	-9.617500	27.596270	4.229261E-5	20.638841
2362.625998	-3.014800	3.198500	-9.641800	27.593467	4.113752E-5	20.623691
2363.627079	-3.001700	3.199500	-9.603700	27.644879	4.295266E-5	20.618524
2364.625618	-3.017800	3.198600	-9.651800	27.653239	4.117053E-5	20.646380
2365.628272	-2.966900	3.198900	-9.490600	27.662224	4.235861E-5	20.653999
2366.624557	-3.004100	3.199200	-9.609700	27.630725	4.067549E-5	20.629888
2367.626895	-3.001800	3.196300	-9.594200	27.592385	4.067549E-5	20.644891
2368.624912	-3.007600	3.197400	-9.615800	27.578419	4.008145E-5	20.626568
2369.631266	-2.997300	3.197000	-9.581600	27.571277	4.070849E-5	20.624597
2370.629114	-2.974700	3.196000	-9.505800	27.623511	4.084050E-5	20.637328
2371.625034	-3.000900	3.195000	-9.586600	27.620959	4.123653E-5	20.628121
2372.626742	-3.018300	3.194100	-9.638800	27.656454	4.199559E-5	20.629698
2373.628566	-3.006600	3.193900	-9.601200	27.707993	4.057648E-5	20.652165
2374.632093	-3.021200	3.192600	-9.644600	27.725053	4.103852E-5	20.634718
2375.628513	-3.016300	3.192800	-9.629700	27.696862	4.001544E-5	20.646654
2376.628093	-2.962700	3.193300	-9.460000	27.688454	4.067549E-5	20.632027
2377.631245	-2.991800	3.191300	-9.547000	27.623832	4.146755E-5	20.647610
2378.631311	-3.000200	3.192800	-9.578200	27.615895	4.074149E-5	20.621127
2379.627990	-3.002500	3.190900	-9.579200	27.607657	3.968542E-5	20.643187
2380.634431	-3.005300	3.189700	-9.584800	27.604390	3.843133E-5	20.646064
2381.632818	-2.990600	3.189600	-9.537900	27.558606	3.777128E-5	20.646465
2382.629413	-3.010200	3.189100	-9.599200	27.632126	3.763927E-5	20.639359
2383.632730	-3.000900	3.187600	-9.564800	27.637788	3.572513E-5	20.651221
2384.632315	-2.971900	3.188100	-9.474400	27.646140	4.011445E-5	20.656782
2385.636828	-2.990700	3.187300	-9.531200	27.693146	3.661619E-5	20.641491
2386.632468	-3.018300	3.185500	-9.613700	27.667156	3.651718E-5	20.646634
2387.632164	-3.014500	3.184900	-9.600100	27.700238	3.701222E-5	20.638670
2388.632919	-3.000900	3.185200	-9.557400	27.760775	3.694622E-5	20.642692
2389.634373	-3.025100	3.184200	-9.631500	27.840130	3.575813E-5	20.648113
2390.633399	-2.991900	3.183600	-9.524300	27.838937	3.780428E-5	20.639324
2391.636638	-2.981200	3.184000	-9.489600	27.801773	3.790329E-5	20.649339
2392.636363	-2.978900	3.185100	-9.487300	27.748759	3.836532E-5	20.645299
2393.640837	-2.969200	3.183700	-9.452300	27.754542	3.546111E-5	20.637842
2394.637569	-3.018700	3.181600	-9.603900	27.692451	3.496607E-5	20.639370
2395.637269	-3.009800	3.181200	-9.573300	27.719065	3.744125E-5	20.648134
2396.635780	-3.007400	3.179900	-9.562300	27.734607	3.592314E-5	20.649075
2397.633518	-3.014600	3.179400	-9.583700	27.660092	3.589014E-5	20.645215
2398.636566	-3.027800	3.179500	-9.626700	27.682637	3.450404E-5	20.654626
2399.634427	-3.018100	3.177300	-9.588300	27.746027	3.513108E-5	20.652982
2400.634465	-3.013200	3.178200	-9.575500	27.792078	3.542810E-5	20.665188
2401.636707	-2.998600	3.178500	-9.530000	27.829103	3.420702E-5	20.648394
2402.638174	-3.000400	3.178100	-9.534800	27.759691	3.513108E-5	20.640652
2403.637093	-2.993000	3.177200	-9.508300	27.711858	3.499907E-5	20.650365
2404.638691	-3.003400	3.176500	-9.538200	27.752232	3.387699E-5	20.661598
2405.638084	-2.983300	3.176700	-9.475700	27.793946	3.232588E-5	20.640512
2406.635511	-3.000300	3.175500	-9.527200	27.816585	3.460304E-5	20.644804
2407.637583	-3.024900	3.173400	-9.598500	27.836446	3.387699E-5	20.634920
2408.636551	-2.994400	3.174000	-9.502800	27.806691	3.334895E-5	20.639588
2409.639039	-2.995900	3.172900	-9.504600	27.854405	3.407501E-5	20.638770
2410.636793	-3.002900	3.173100	-9.527300	27.850555	3.509808E-5	20.646276
2411.639047	-2.993700	3.171600	-9.493800	27.860197	3.483406E-5	20.642704
2412.636407	-3.029300	3.169600	-9.600900	27.814927	3.351396E-5	20.662104
2413.637221	-3.013100	3.169900	-9.550000	27.822563	3.400900E-5	20.658883
2414.636602	-3.005500	3.169700	-9.525800	27.816983	3.470205E-5	20.656112
2415.636806	-2.980800	3.170000	-9.448100	27.814927	3.381099E-5	20.659259
2416.640317	-3.011900	3.167500	-9.539100	27.832132	3.252389E-5	20.674205
2417.641342	-2.998800	3.167500	-9.498300	27.866720	3.301893E-5	20.656382
2418.640446	-3.006000	3.167000	-9.519400	27.834268	3.321694E-5	20.636522
2419.642439	-3.037200	3.166000	-9.615100	27.815699	3.278791E-5	20.679478
2420.638987	-3.020500	3.165200	-9.559300	27.766521	3.202886E-5	20.657011
2421.641388	-2.986100	3.166000	-9.453500	27.796333	3.262290E-5	20.668522
2422.639713	-3.010600	3.163400	-9.522300	27.769997	3.120379E-5	20.658139
2423.641323	-3.020700	3.162800	-9.553200	27.765003	2.975169E-5	20.640782
2424.642894	-3.045900	3.161400	-9.627800	27.783043	3.176484E-5	20.674588
2425.639973	-2.972600	3.162900	-9.401100	27.760511	3.034573E-5	20.672301
2426.641946	-3.022800	3.161300	-9.554600	27.798982	3.097278E-5	20.663127
2427.644442	-3.020500	3.160400	-9.544700	27.832335	3.018072E-5	20.682945
2428.642241	-3.016700	3.159300	-9.530000	27.856485	2.942166E-5	20.664100
2429.646615	-3.004900	3.158800	-9.491200	27.960377	3.060975E-5	20.661507
2430.645745	-2.998400	3.156800	-9.465200	27.984004	3.120379E-5	20.665375
2431.642735	-3.012700	3.156600	-9.508500	28.000149	3.100578E-5	20.670247
2432.644560	-2.976900	3.156400	-9.394800	27.942127	2.925665E-5	20.686763
2433.645262	-2.987400	3.155800	-9.426100	27.928969	3.008171E-5	20.678259
2434.647453	-2.970200	3.156200	-9.373400	27.884734	3.031273E-5	20.678783
2435.648473	-3.019700	3.153900	-9.523400	27.892272	3.074176E-5	20.662185
2436.649032	-2.992800	3.155000	-9.440900	27.813497	2.961968E-5	20.693859
2437.649665	-2.980500	3.154500	-9.401100	27.817803	2.948767E-5	20.675906
2438.650116	-3.019200	3.151500	-9.514000	27.831319	2.872861E-5	20.665800
2439.653651	-3.008900	3.152300	-9.484100	27.848060	3.219387E-5	20.678856
2440.647314	-2.988800	3.150400	-9.415000	27.859238	3.080777E-5	20.674933
2441.657496	-3.019300	3.148700	-9.505600	27.907933	2.783755E-5	20.681269
2442.653058	-2.993900	3.148300	-9.425000	27.919881	3.018072E-5	20.671957
2443.654337	-3.001800	3.147700	-9.447200	28.010076	2.879462E-5	20.680714
2444.653920	-2.993600	3.148200	-9.423600	28.027034	2.697948E-5	20.672653
2445.655252	-2.986800	3.147300	-9.399000	28.002061	2.668246E-5	20.675017
2446.650313	-3.003400	3.145300	-9.446200	27.976875	2.697948E-5	20.680486
2447.654189	-3.007600	3.145000	-9.457200	27.940222	2.780454E-5	20.678680
2448.654076	-2.984400	3.145300	-9.385500	27.993680	2.985070E-5	20.691712
2449.651255	-3.008400	3.143400	-9.455700	27.986258	2.628643E-5	20.671911
2450.652190	-2.995000	3.144300	-9.416000	27.982238	2.602241E-5	20.687781
2451.651069	-3.001200	3.142700	-9.431000	28.014018	2.565939E-5	20.676621
2452.652182	-2.977200	3.142800	-9.355600	28.011736	2.826658E-5	20.704199
2453.654142	-3.001700	3.141700	-9.429700	28.035167	2.707849E-5	20.710714
2454.651868	-2.967000	3.140000	-9.315900	28.039155	2.691348E-5	20.679639
2455.652412	-3.016200	3.138200	-9.464800	28.069643	2.671546E-5	20.688993
2456.667933	-3.012300	3.138400	-9.452900	28.096149	2.605542E-5	20.668732
2457.653449	-3.040700	3.136600	-9.536400	28.107300	2.367924E-5	20.671423
2458.656953	-3.007200	3.137400	-9.433400	28.113992	2.688048E-5	20.676263
2459.653535	-3.012800	3.135400	-9.445500	28.139743	2.407527E-5	20.689860
2460.658045	-3.025100	3.134100	-9.480100	28.154490	2.559338E-5	20.688585
2461.659200	-3.001200	3.134400	-9.406100	28.155359	2.622043E-5	20.688037
2462.654767	-3.010300	3.133600	-9.432100	28.178510	2.450430E-5	20.683843
2463.659687	-2.991600	3.132400	-9.369700	28.204707	2.526336E-5	20.686035
2464.662029	-3.026900	3.132400	-9.480100	28.162465	2.391026E-5	20.684285
2465.654825	-2.995500	3.130700	-9.377000	28.110014	2.328321E-5	20.687433
2466.656008	-2.994600	3.128500	-9.368300	28.059681	2.288718E-5	20.696035
2467.659150	-3.000900	3.128300	-9.386800	28.059730	2.295319E-5	20.693541
2468.657730	-3.008100	3.127400	-9.406600	28.088155	2.410827E-5	20.691981
2469.660922	-2.996600	3.126300	-9.366200	28.135758	2.186411E-5	20.698652
2470.663712	-3.009700	3.125300	-9.405300	28.120979	2.242515E-5	20.696101
2471.660677	-2.995600	3.126000	-9.363700	28.132259	2.163309E-5	20.690861
2472.661759	-3.026900	3.125500	-9.459500	28.081585	2.311820E-5	20.691057
2473.660970	-3.000700	3.123600	-9.372400	28.036715	2.301919E-5	20.700893
2474.662941	-2.979600	3.124300	-9.308600	28.090015	2.133607E-5	20.715666
2475.665217	-2.990200	3.122200	-9.335000	28.078930	2.239215E-5	20.690755
2476.663660	-3.028600	3.119100	-9.445800	28.068445	2.374525E-5	20.710074
2477.667412	-3.012100	3.118900	-9.393600	28.098469	2.542837E-5	20.702838
2478.663525	-2.984500	3.118600	-9.306600	28.166512	2.150108E-5	20.681247
2479.664344	-3.002400	3.118100	-9.360600	28.188177	2.051101E-5	20.702586
2480.668889	-2.983200	3.117600	-9.299400	28.189151	2.242515E-5	20.701195
2481.665869	-2.979700	3.117500	-9.287600	28.195235	2.110505E-5	20.713485
2482.668719	-2.994000	3.115600	-9.326900	28.202282	2.410827E-5	20.695448
2483.665945	-2.986600	3.114000	-9.299300	28.193829	2.113806E-5	20.694050
2484.668224	-2.989000	3.113900	-9.306400	28.173926	2.206212E-5	20.734707
2485.670484	-2.965300	3.112800	-9.229500	28.186862	2.242515E-5	20.717384
2486.671479	-2.977000	3.113300	-9.266700	28.157637	1.991697E-5	20.696021
2487.670454	-3.015700	3.109600	-9.376500	28.138357	1.859687E-5	20.700794
2488.671599	-2.976500	3.110000	-9.255700	28.111437	2.001597E-5	20.700246
2489.671578	-2.988300	3.108600	-9.288500	28.073041	2.087404E-5	20.708062
2490.673485	-2.988800	3.108400	-9.289800	28.135109	1.846486E-5	20.711750
2491.669742	-2.992900	3.106900	-9.298200	28.188784	1.790382E-5	20.716474
2492.676780	-2.992200	3.106200	-9.293400	28.240144	2.018098E-5	20.720292
2493.672325	-2.981600	3.105300	-9.257800	28.219868	1.869588E-5	20.726906
2494.670063	-3.009700	3.104400	-9.342400	28.212560	1.744178E-5	20.721919
2495.672084	-3.037100	3.102000	-9.420400	28.200014	1.843186E-5	20.711184
2496.672111	-3.014800	3.101100	-9.348500	28.237649	1.846486E-5	20.724420
2497.671231	-3.022500	3.100300	-9.369900	28.229099	1.843186E-5	20.725294
2498.672881	-3.028200	3.100000	-9.386600	28.169108	1.622069E-5	20.722744
2499.674695	-2.987600	3.098500	-9.255200	28.093162	1.968595E-5	20.704135
2500.672187	-2.996800	3.097900	-9.282900	28.080371	1.882789E-5	20.722080
2501.674642	-3.003600	3.097600	-9.302800	28.080891	1.813483E-5	20.721181
2502.671771	-3.016100	3.096000	-9.336900	28.162106	1.569265E-5	20.725178
2503.674715	-3.032000	3.094300	-9.381100	28.237137	1.671573E-5	20.740026
2504.674858	-2.982900	3.094100	-9.228400	28.314402	2.047801E-5	20.714926
2505.674516	-3.018500	3.091100	-9.330300	28.336932	1.919091E-5	20.730500
2506.676611	-3.003000	3.091600	-9.283600	28.358050	1.902590E-5	20.729478
2507.680447	-2.990200	3.091000	-9.242100	28.404197	1.859687E-5	20.733745
2508.675456	-3.004800	3.089200	-9.280800	28.419289	1.717776E-5	20.720493
2509.675695	-2.999900	3.087400	-9.261100	28.364405	1.750779E-5	20.737300
2510.672812	-3.006500	3.087000	-9.279900	28.366955	1.922391E-5	20.724220
2511.675540	-2.977100	3.087200	-9.190200	28.350278	1.882789E-5	20.727817
2512.674983	-2.994900	3.083800	-9.235000	28.266406	1.750779E-5	20.744838
2513.673810	-2.991400	3.084600	-9.226700	28.256435	1.829985E-5	20.741912
2514.675230	-3.003000	3.082300	-9.255600	28.220772	1.833285E-5	20.698417
2515.679545	-2.955300	3.083600	-9.112100	28.249386	1.628670E-5	20.743349
2516.677217	-2.984500	3.081300	-9.194900	28.320001	1.810183E-5	20.724831
2517.675875	-3.003500	3.080000	-9.249600	28.351625	1.496660E-5	20.732018
2518.677734	-2.997700	3.079500	-9.230700	28.410713	1.800282E-5	20.711382
2519.680361	-2.996200	3.077700	-9.220000	28.373310	1.856387E-5	20.723507
2520.676494	-2.971800	3.076500	-9.142700	28.385976	1.681474E-5	20.759969
2521.681880	-2.983300	3.076000	-9.175800	28.375194	1.711176E-5	20.730146
2522.677276	-3.014100	3.073700	-9.263600	28.379983	1.754079E-5	20.754410
2523.680561	-3.030600	3.072300	-9.310000	28.339137	1.760680E-5	20.739833
2524.675966	-2.982300	3.072400	-9.161400	28.327250	1.717776E-5	20.733079
2525.681674	-3.009900	3.070400	-9.240500	28.367650	1.651772E-5	20.732981
2526.680785	-2.987400	3.070300	-9.170700	28.391365	1.849786E-5	20.737894
2527.678541	-3.021000	3.067800	-9.266500	28.405289	1.658372E-5	20.744329
2528.680345	-2.994200	3.067500	-9.183200	28.325195	1.806883E-5	20.730536
2529.683290	-3.020200	3.066300	-9.259500	28.264878	1.519762E-5	20.747567
2530.684147	-3.006300	3.065500	-9.215300	28.258916	1.466958E-5	20.765748
2531.682259	-3.011300	3.063600	-9.224600	28.270177	1.704575E-5	20.759541
2532.681140	-3.000700	3.064100	-9.193200	28.324497	1.598968E-5	20.737894
2533.683418	-3.007000	3.062000	-9.206500	28.258323	1.598968E-5	20.747132
2534.680826	-3.004800	3.060500	-9.195300	28.220703	1.391052E-5	20.750033
2535.686074	-2.993400	3.059600	-9.158100	28.176830	1.443856E-5	20.748063
2536.683379	-2.990700	3.057600	-9.143700	28.242618	1.526362E-5	20.732268
2537.682657	-2.992300	3.058600	-9.151800	28.293082	1.622069E-5	20.745144
2538.687453	-2.984600	3.056500	-9.122000	28.336382	1.691374E-5	20.750336
2539.686740	-2.989600	3.055600	-9.133800	28.427100	1.410854E-5	20.756335
2540.683888	-3.014900	3.053000	-9.203800	28.493343	1.655072E-5	20.747652
2541.685514	-2.990000	3.052800	-9.127300	28.364162	1.674873E-5	20.766929
2542.695911	-2.993600	3.051200	-9.132700	28.413818	1.592367E-5	20.738692
2543.683983	-3.010900	3.050400	-9.182900	28.449886	1.384452E-5	20.770272
2544.689855	-2.988900	3.047200	-9.106800	28.391725	1.704575E-5	20.742525
2545.691518	-3.020600	3.046100	-9.199700	28.362530	1.595667E-5	20.743947
2546.689702	-3.008000	3.045600	-9.160100	28.412768	1.414154E-5	20.766560
2547.684869	-3.022700	3.044100	-9.199800	28.447693	1.400953E-5	20.750045
2548.687590	-2.992900	3.043600	-9.107800	28.486480	1.618769E-5	20.755914
2549.689936	-2.986600	3.042300	-9.085200	28.468069	1.433956E-5	20.764400
2550.686309	-3.006500	3.041100	-9.142400	28.484587	1.572566E-5	20.757801
2551.690144	-3.008100	3.039200	-9.141300	28.518853	1.668273E-5	20.760540
2552.691521	-3.011100	3.038000	-9.146300	28.494377	1.589067E-5	20.767660
2553.693145	-3.024200	3.036100	-9.181000	28.516457	1.226040E-5	20.752437
2554.691482	-2.974800	3.035800	-9.030100	28.482362	1.539563E-5	20.755560
2555.693084	-2.965800	3.036300	-9.004000	28.418106	1.542864E-5	20.746804
2556.689926	-3.008300	3.032800	-9.122500	28.357459	1.364650E-5	20.753066
2557.692239	-2.987300	3.032200	-9.057100	28.302694	1.595667E-5	20.760513
2558.688965	-3.007600	3.030600	-9.114100	28.268861	1.539563E-5	20.745413
2559.694221	-3.014200	3.030200	-9.132500	28.282793	1.391052E-5	20.771296
2560.693766	-3.008700	3.028800	-9.111900	28.290677	1.523062E-5	20.774018
2561.692720	-3.008400	3.027100	-9.105600	28.253480	1.354750E-5	20.765016
2562.697835	-3.005300	3.025500	-9.091800	28.307913	1.387752E-5	20.764819
2563.691350	-2.980200	3.026000	-9.017600	28.344044	1.437256E-5	20.773698
2564.696998	-2.968600	3.024700	-8.978600	28.350937	1.361350E-5	20.759776
2565.693624	-3.011900	3.020800	-9.098000	28.329453	1.235941E-5	20.782241
2566.691546	-2.992600	3.020900	-9.039500	28.273518	1.364650E-5	20.766225
2567.695045	-2.988200	3.019700	-9.022600	28.250435	1.513161E-5	20.780916
2568.697456	-2.983800	3.019100	-9.007900	28.286485	1.460357E-5	20.789711
2569.693322	-2.979700	3.018100	-8.992100	28.339147	1.391052E-5	20.764500
2570.693941	-3.005300	3.015100	-9.059800	28.448950	1.453757E-5	20.769804
2571.698027	-3.010600	3.014100	-9.072200	28.427137	1.503261E-5	20.759218
2572.694586	-2.988100	3.014400	-9.006500	28.419279	1.595667E-5	20.764107
2573.698916	-2.955200	3.011200	-8.898400	28.434654	1.628670E-5	20.784331
2574.698973	-2.998700	3.010100	-9.025700	28.452717	1.575866E-5	20.774071
2575.695135	-2.999600	3.008700	-9.024800	28.430765	1.367951E-5	20.782311
2576.697628	-3.018000	3.007900	-9.077000	28.455476	1.351449E-5	20.790126
2577.699381	-3.016400	3.005600	-9.065000	28.466704	1.447156E-5	20.772509
2578.696334	-3.011300	3.003300	-9.043000	28.422589	1.391052E-5	20.774079
2579.697474	-3.023900	3.001700	-9.076400	28.438696	1.420755E-5	20.788402
2580.698450	-3.016000	3.001500	-9.051600	28.459194	1.417454E-5	20.788181
2581.695823	-2.993800	3.001500	-8.985200	28.463586	1.420755E-5	20.779326
2582.699686	-2.993800	2.998300	-8.975100	28.489158	1.374551E-5	20.790854
2583.703135	-2.998800	2.997600	-8.988600	28.521652	1.381152E-5	20.798447
2584.696802	-3.002800	2.997500	-9.000000	28.531784	1.414154E-5	20.769769
2585.696820	-3.011200	2.994700	-9.017100	28.510889	1.272244E-5	20.761529
2586.700832	-2.999300	2.994700	-8.979900	28.535655	1.282144E-5	20.792160
2587.700408	-3.015800	2.992000	-9.022500	28.568978	1.655072E-5	20.797745
2588.703147	-2.968000	2.991900	-8.879100	28.672459	1.463658E-5	20.801921
2589.703157	-2.948700	2.990000	-8.815500	28.674942	1.453757E-5	20.797784
2590.704037	-2.981800	2.989000	-8.911600	28.652785	1.318447E-5	20.778786
2591.703338	-3.025200	2.985300	-9.030500	28.677986	1.556064E-5	20.788048
2592.699870	-3.000400	2.985500	-8.956400	28.598213	1.325048E-5	20.793524
2593.703314	-3.027700	2.982500	-9.029100	28.520254	1.265643E-5	20.788031
2594.700921	-2.997400	2.982700	-8.939300	28.499643	1.539563E-5	20.781498
2595.703107	-3.013200	2.981200	-8.982100	28.536270	1.325048E-5	20.792779
2596.704358	-2.987900	2.980700	-8.905000	28.544671	1.295345E-5	20.804559
2597.699922	-3.019200	2.976600	-8.985600	28.589227	1.384452E-5	20.804387
2598.704338	-3.001300	2.977000	-8.934400	28.564469	1.341549E-5	20.796523
2599.702367	-3.008100	2.975600	-8.949300	28.583650	1.275544E-5	20.797349
2600.700144	-3.025400	2.972500	-8.992200	28.619389	1.509861E-5	20.791143
2601.705755	-3.026100	2.971600	-8.991600	28.597733	1.384452E-5	20.795410
2602.704149	-3.001000	2.970600	-8.914500	28.625289	1.292045E-5	20.819371
2603.706663	-3.015700	2.969100	-8.953000	28.571448	1.318447E-5	20.802604
2604.705518	-3.040800	2.965700	-9.016100	28.596652	1.348149E-5	20.774881
2605.707133	-3.005900	2.966200	-8.915900	28.611961	1.301946E-5	20.796464
2606.703069	-3.040000	2.965600	-9.014800	28.614144	1.486759E-5	20.799611
2607.702126	-2.984500	2.964000	-8.845400	28.653097	1.377851E-5	20.817980
2608.706923	-2.978700	2.963000	-8.824300	28.599306	1.391052E-5	20.823547
2609.703594	-3.009100	2.959400	-8.904400	28.572617	1.341549E-5	20.829384
2610.705477	-3.007200	2.958800	-8.895600	28.601043	1.252442E-5	20.809650
2611.703341	-3.004800	2.956500	-8.883100	28.602211	1.414154E-5	20.808456
2612.705050	-2.978100	2.954900	-8.798600	28.564076	1.476859E-5	20.818413
2613.702950	-2.973700	2.955000	-8.786600	28.615466	1.400953E-5	20.808529
2614.706257	-2.973600	2.952900	-8.779900	28.697128	1.529663E-5	20.821078
2615.709954	-3.016000	2.950300	-8.897300	28.714277	1.424055E-5	20.813696
2616.703383	-2.991500	2.950300	-8.824600	28.670522	1.480159E-5	20.797599
2617.707150	-2.972700	2.947400	-8.760800	28.711502	1.351449E-5	20.820383
2618.707550	-2.985800	2.946900	-8.798000	28.702143	1.450457E-5	20.816646
2619.703922	-3.022500	2.943700	-8.896300	28.721363	1.506561E-5	20.811824
2620.708975	-3.001000	2.943400	-8.832500	28.699814	1.404253E-5	20.811929
2621.705583	-3.021400	2.941100	-8.884900	28.712175	1.219440E-5	20.815845
2622.708939	-3.009900	2.939400	-8.846800	28.663890	1.374551E-5	20.808937
2623.708814	-3.004400	2.937700	-8.824900	28.582452	1.239241E-5	20.792349
2624.708989	-2.993400	2.937400	-8.791500	28.591024	1.216140E-5	20.809517
2625.708526	-2.992300	2.936200	-8.783900	28.659458	1.265643E-5	20.804473
2626.707426	-2.982700	2.934700	-8.752400	28.736043	1.417454E-5	20.822817
2627.708646	-3.020100	2.931400	-8.851700	28.810165	1.344849E-5	20.809762
2628.711884	-2.983000	2.930800	-8.741700	28.825844	1.344849E-5	20.798530
2629.711049	-2.999700	2.928700	-8.784100	28.758363	1.272244E-5	20.801677
2630.710341	-2.997300	2.928500	-8.777100	28.683589	1.592367E-5	20.798906
2631.709942	-2.997200	2.926000	-8.769000	28.638898	1.483459E-5	20.799886
2632.712390	-2.980600	2.925300	-8.718500	28.658370	1.493360E-5	20.816654
2633.707241	-2.980000	2.923000	-8.709700	28.673434	1.410854E-5	20.807645
2634.710439	-3.006600	2.921600	-8.783400	28.704309	1.232641E-5	20.797491
2635.709971	-3.030000	2.917300	-8.839000	28.765406	1.358050E-5	20.779375
2636.708978	-3.010800	2.917500	-8.782300	28.873170	1.417454E-5	20.777928
2637.711182	-2.984700	2.915700	-8.702000	28.916300	1.219440E-5	20.800989
2638.710223	-3.010700	2.913400	-8.770600	28.933390	1.387752E-5	20.800188
2639.709666	-3.026100	2.910300	-8.806000	28.980209	1.193038E-5	20.781925
2640.712101	-2.993900	2.909300	-8.709500	28.932700	1.334948E-5	20.785269
2641.715765	-3.006400	2.907000	-8.737700	28.923838	1.433956E-5	20.770176
2642.712275	-2.995700	2.906900	-8.706900	28.910733	1.433956E-5	20.792061
2643.712974	-2.995000	2.905800	-8.701500	28.960192	1.292045E-5	20.794000
2644.714603	-2.993900	2.902600	-8.689500	28.982214	1.381152E-5	20.763081
2645.715560	-2.970600	2.901600	-8.618300	28.930176	1.450457E-5	20.796002
2646.715346	-2.996300	2.899500	-8.686100	28.885513	1.288745E-5	20.796525
2647.711211	-3.001300	2.898200	-8.696400	28.870695	1.358050E-5	20.774960
2648.716611	-2.983100	2.895500	-8.636800	28.890885	1.433956E-5	20.786291
2649.712877	-3.001700	2.893800	-8.684800	28.925428	1.486759E-5	20.761347
2650.716249	-2.979600	2.892400	-8.617500	28.927749	1.278844E-5	20.770798
2651.717309	-2.993600	2.890500	-8.652000	28.946704	1.222740E-5	20.768083
2652.717975	-2.959200	2.890100	-8.551400	29.000729	1.480159E-5	20.780313
2653.712549	-2.984000	2.887400	-8.615300	28.965861	1.021425E-5	20.780746
2654.712182	-3.024600	2.885700	-8.726800	28.876699	1.282144E-5	20.765361
2655.715348	-3.036500	2.882700	-8.752800	28.848142	1.242541E-5	20.775947
2656.711607	-3.008600	2.881500	-8.668000	28.818708	1.249142E-5	20.768108
2657.716675	-2.994300	2.878900	-8.619200	28.861045	1.325048E-5	20.782782
2658.716327	-3.006600	2.878200	-8.652300	28.906902	1.110532E-5	20.779193
2659.717778	-3.026000	2.875700	-8.701300	28.873192	1.202939E-5	20.779846
2660.715548	-3.009100	2.872700	-8.643500	28.901098	1.404253E-5	20.789467
2661.717789	-3.013300	2.872500	-8.653700	28.934207	1.272244E-5	20.759285
2662.719274	-3.033200	2.869400	-8.702700	28.932624	1.381152E-5	20.755320
2663.717689	-3.024200	2.867600	-8.672000	28.923974	1.404253E-5	20.740915
2664.719213	-3.035900	2.865300	-8.698000	28.943302	1.427355E-5	20.771294
2665.718504	-3.012600	2.864500	-8.628400	28.977268	1.272244E-5	20.743399
2666.716693	-3.017700	2.861900	-8.635800	28.948657	1.117132E-5	20.753455
2667.720390	-3.011700	2.860900	-8.615500	28.962442	1.193038E-5	20.758809
2668.720029	-2.977100	2.859600	-8.512500	28.954515	1.341549E-5	20.773581
2669.717325	-3.011300	2.856600	-8.600900	28.918349	1.249142E-5	20.740937
2670.720143	-3.018700	2.854100	-8.614600	28.856343	1.292045E-5	20.756708
2671.721831	-2.992400	2.852900	-8.536300	28.799965	1.146834E-5	20.738795
2672.720675	-3.001600	2.851500	-8.558000	28.870268	1.193038E-5	20.753666
2673.721161	-3.021600	2.848100	-8.605100	28.944736	1.585767E-5	20.765626
2674.726539	-3.026200	2.845100	-8.608500	28.963854	1.328348E-5	20.766395
2675.717170	-3.013600	2.843500	-8.568200	29.000894	1.407554E-5	20.758194
2676.725644	-2.993900	2.842700	-8.509800	29.023849	1.325048E-5	20.747183
2677.721637	-2.973200	2.840500	-8.444700	29.100813	1.282144E-5	20.743176
2678.722746	-2.988800	2.837700	-8.479900	29.181382	1.328348E-5	20.743755
2679.721828	-3.026900	2.835200	-8.581000	29.230284	1.516462E-5	20.745146
2680.722491	-2.973100	2.834000	-8.424900	29.265872	1.202939E-5	20.746871
2681.724934	-3.012300	2.829900	-8.524000	29.227461	1.404253E-5	20.750362
2682.720799	-3.003200	2.827700	-8.491300	29.238266	1.384452E-5	20.750345
2683.724546	-2.996300	2.827400	-8.471100	29.276724	1.222740E-5	20.755438
2684.723656	-2.987000	2.825800	-8.439000	29.148378	1.374551E-5	20.751276
2685.722186	-2.989600	2.822200	-8.436500	29.101817	1.490060E-5	20.752723
2686.724151	-3.005500	2.820600	-8.476100	29.091489	1.255742E-5	20.746583
2687.724343	-2.997700	2.817600	-8.445500	29.074490	1.394353E-5	20.738937
2688.723290	-3.020300	2.814100	-8.498500	29.088405	1.239241E-5	20.756752
2689.728210	-3.007100	2.811100	-8.452700	29.125116	1.298646E-5	20.748224
2690.729965	-3.037600	2.808200	-8.529300	29.117036	1.219440E-5	20.748618
2691.724030	-2.999000	2.806600	-8.416400	29.091065	1.265643E-5	20.740940
2692.725855	-3.003100	2.805600	-8.424000	29.076080	1.387752E-5	20.725366
2693.724780	-3.006200	2.802900	-8.424900	29.051739	1.179837E-5	20.736876
2694.725078	-3.008600	2.799900	-8.421700	29.068850	1.334948E-5	20.764550
2695.729098	-3.004300	2.796900	-8.402100	29.053377	1.341549E-5	20.748485
2696.728878	-3.015300	2.793500	-8.422500	29.097960	1.262343E-5	20.738879
2697.726663	-3.017100	2.792700	-8.424700	29.086910	1.123733E-5	20.731063
2698.730560	-3.029900	2.788700	-8.448500	29.090382	1.292045E-5	20.741674
2699.731551	-2.986700	2.786700	-8.321900	29.090163	1.301946E-5	20.734341
2700.729228	-3.014300	2.783500	-8.389400	29.148090	1.338248E-5	20.744348
2701.727741	-3.006400	2.781000	-8.360400	29.187225	1.193038E-5	20.743954
2702.731678	-3.002700	2.778300	-8.341300	29.175048	1.212839E-5	20.727889
2703.733662	-2.987700	2.774500	-8.288500	29.231479	1.193038E-5	20.747298
2704.731591	-2.985900	2.772700	-8.278200	29.205105	1.249142E-5	20.718823
2705.733208	-2.984800	2.768400	-8.262800	29.156892	1.107231E-5	20.718128
2706.733081	-3.012500	2.766200	-8.332400	29.140837	1.334948E-5	20.728977
2707.734458	-2.987900	2.764000	-8.257800	29.162051	1.064328E-5	20.723801
2708.729915	-3.002500	2.760300	-8.287300	29.203084	1.169936E-5	20.722951
2709.732697	-2.995200	2.757900	-8.259200	29.265313	1.427355E-5	20.742041
2710.734489	-3.010700	2.754300	-8.291500	29.342771	1.305246E-5	20.702511
2711.732411	-3.046800	2.750200	-8.378100	29.388339	1.354750E-5	20.722835
2712.734451	-2.997900	2.747900	-8.236700	29.408268	1.542864E-5	20.716368
2713.734859	-3.032700	2.743700	-8.320100	29.423541	1.440556E-5	20.726547
2714.734405	-3.000600	2.740600	-8.222600	29.447467	1.466958E-5	20.727430
2715.734874	-2.960100	2.739100	-8.106300	29.467297	1.394353E-5	20.712329
2716.731381	-2.999500	2.733900	-8.198600	29.429323	1.298646E-5	20.720521
2717.736356	-2.988300	2.731700	-8.161500	29.444968	1.450457E-5	20.737240
2718.737815	-2.993000	2.728000	-8.163700	29.405136	1.457057E-5	20.730282
2719.738889	-2.993300	2.723900	-8.152300	29.365894	1.427355E-5	20.729137
2720.741413	-2.996600	2.720400	-8.150700	29.309195	1.288745E-5	20.714192
2721.736130	-2.985100	2.715600	-8.104200	29.343459	1.397653E-5	20.716956
2722.739337	-3.000200	2.712300	-8.135800	29.347522	1.239241E-5	20.719629
2723.736364	-3.010300	2.709000	-8.153600	29.373234	1.351449E-5	20.713774
2724.741238	-3.003700	2.706300	-8.127300	29.393763	1.305246E-5	20.722138
2725.748426	-3.027800	2.701300	-8.177900	29.430383	1.417454E-5	20.714003
2726.750658	-3.001900	2.698400	-8.099300	29.435265	1.259043E-5	20.728408
2727.738937	-2.996700	2.693700	-8.070800	29.445120	1.328348E-5	20.715580
2728.745105	-3.006000	2.690000	-8.085200	29.457277	1.232641E-5	20.730680
2729.742686	-3.002800	2.686000	-8.064400	29.526003	1.433956E-5	20.713659
2730.741593	-2.987000	2.682600	-8.011200	29.505906	1.176537E-5	20.717582
2731.738017	-3.007000	2.677800	-8.051600	29.437179	1.305246E-5	20.709946
2732.741651	-3.014400	2.672500	-8.054600	29.440367	1.351449E-5	20.723118
2733.745210	-3.018000	2.668000	-8.050700	29.402660	1.420755E-5	20.704077
2734.738548	-3.017300	2.664400	-8.037400	29.396673	1.430655E-5	20.710846
2735.739550	-3.003800	2.660400	-7.989700	29.378553	1.377851E-5	20.720558
2736.741636	-3.009200	2.654200	-7.985900	29.322893	1.503261E-5	20.689588
2737.738544	-2.982000	2.651900	-7.906800	29.332773	1.110532E-5	20.702865
2738.738697	-2.981700	2.647900	-7.893800	29.311333	1.328348E-5	20.703069
2739.738976	-2.995700	2.640900	-7.910500	29.382648	1.209539E-5	20.713305
2740.744910	-3.005300	2.636600	-7.923200	29.417038	1.503261E-5	20.711932
2741.739420	-3.007500	2.630800	-7.911300	29.467941	1.447156E-5	20.701598
2742.744951	-3.015100	2.625900	-7.915200	29.527761	1.433956E-5	20.724440
2743.744875	-2.989900	2.622000	-7.838800	29.581699	1.582466E-5	20.711956
2744.741932	-3.017400	2.615600	-7.891600	29.584497	1.430655E-5	20.710035
2745.744894	-3.036600	2.609600	-7.922700	29.616139	1.427355E-5	20.713484
2746.742903	-2.989300	2.605800	-7.788700	29.573143	1.523062E-5	20.707124
2747.739639	-3.031500	2.599800	-7.879700	29.610966	1.552764E-5	20.717278
2748.747432	-3.036000	2.594000	-7.874400	29.626657	1.163336E-5	20.714605
2749.744178	-2.977500	2.589700	-7.710000	29.559948	1.239241E-5	20.716583
2750.742316	-3.006100	2.583200	-7.764300	29.572307	1.582466E-5	20.698220
2751.742106	-3.012800	2.578800	-7.768400	29.636963	1.453757E-5	20.694173
2752.750139	-3.016700	2.571900	-7.758200	29.707607	1.750779E-5	20.707549
2753.747280	-2.991400	2.567200	-7.678900	29.686970	1.417454E-5	20.702863
2754.745963	-2.984500	2.561600	-7.643700	29.640109	1.473558E-5	20.696397
2755.752224	-3.000500	2.555600	-7.667000	29.617290	1.420755E-5	20.719860
2756.746975	-3.007200	2.548900	-7.664300	29.593894	1.503261E-5	20.707180
2757.745434	-2.996100	2.544100	-7.621800	29.659919	1.509861E-5	20.719688
2758.744554	-3.012800	2.536100	-7.640000	29.697244	1.410854E-5	20.721283
2759.749425	-3.014000	2.530800	-7.626900	29.684936	1.367951E-5	20.703183
2760.744175	-2.979700	2.525900	-7.525400	29.621077	1.420755E-5	20.700917
2761.747935	-3.030800	2.518600	-7.632900	29.603779	1.671573E-5	20.700075
2762.747158	-3.010000	2.511800	-7.559900	29.673907	1.460357E-5	20.697279
2763.745125	-2.992600	2.506200	-7.499800	29.614475	1.341549E-5	20.705642
2764.745924	-2.989800	2.500500	-7.475100	29.581380	1.460357E-5	20.711635
2765.744709	-3.021200	2.492900	-7.531000	29.629128	1.605568E-5	20.696232
