LabVIEW Measurement	
Writer_Version	2
Reader_Version	2
Separator	Tab
Decimal_Separator	.
Multi_Headings	No
X_Columns	One
Time_Pref	Absolute
Operator	admin
Description	Clolumns are: time, Current, Voltage, Power, Battery Temp, and Chamber Temp
Date	2024/08/16
Time	13:07:17.8513970375061035156
***End_of_Header***	
	
Channels	6						
Samples	1	1	1	1	1	1	
Date	2024/09/19	2024/09/19	2024/09/19	2024/09/19	2024/09/19	2024/09/19	
Time	05:15:50.3308272361755371094	05:15:50.337467193603515625	05:15:50.3453688621520996094	05:15:50.3140072822570800781	05:15:50.3140072822570800781	05:15:50.3140072822570800781	
X_Dimension	Time	Time	Time	Time	Time	Time	
X0	0.0000000000000000E+0	0.0000000000000000E+0	0.0000000000000000E+0	0.0000000000000000E+0	0.0000000000000000E+0	0.0000000000000000E+0	
Delta_X	1.000000	1.000000	1.000000	1.000000	1.000000	1.000000	
***End_of_Header***							
X_Value	Untitled	Untitled 1	Untitled 2	Untitled 3	Untitled 4	Untitled 5	Comment
0.000000	-0.003273	4.086500	-0.013279	20.759874	0.000466	20.700601
0.997874	-2.993900	3.914900	-11.720000	20.767885	0.000466	20.687274
2.002269	-3.027600	3.907000	-11.828000	20.760049	0.000465	20.690344
3.004181	-3.018600	3.902400	-11.779000	20.784206	0.000464	20.705019
4.002729	-2.999500	3.899100	-11.695000	20.792167	0.000463	20.699229
5.002365	-2.991600	3.896800	-11.657000	20.796908	0.000461	20.702548
6.005230	-3.008200	3.893600	-11.712000	20.783308	0.000460	20.703646
7.009443	-3.002500	3.891800	-11.684000	20.796360	0.000459	20.720018
8.006564	-2.973300	3.890200	-11.566000	20.799903	0.000461	20.706017
9.008284	-3.005500	3.886200	-11.679000	20.820167	0.000459	20.704944
10.003446	-2.967300	3.886700	-11.532000	20.824210	0.000459	20.715152
11.002585	-2.980000	3.884100	-11.574000	20.816224	0.000458	20.700053
12.009188	-2.993200	3.883500	-11.623000	20.854430	0.000458	20.706017
13.012567	-3.000400	3.881200	-11.644000	20.833518	0.000457	20.694113
14.008158	-3.019700	3.880500	-11.717000	20.840380	0.000457	20.717098
15.028217	-2.999600	3.879700	-11.637000	20.853007	0.000457	20.692740
16.007284	-3.025800	3.878200	-11.733000	20.859196	0.000459	20.704620
17.007844	-3.012700	3.877400	-11.680000	20.849913	0.000456	20.719519
18.008081	-3.002700	3.876000	-11.637000	20.890538	0.000456	20.702773
19.011837	-2.973600	3.876400	-11.526000	20.901792	0.000455	20.706916
20.007147	-3.003900	3.875400	-11.640000	20.896726	0.000455	20.719869
21.010623	-2.989600	3.874200	-11.581000	20.900569	0.000455	20.715651
22.010662	-2.967800	3.875300	-11.500000	20.883875	0.000452	20.708913
23.018854	-2.998500	3.872900	-11.612000	20.912522	0.000453	20.727606
24.013051	-2.979200	3.874000	-11.540000	20.935379	0.000453	20.745724
25.019776	-3.011500	3.870400	-11.655000	20.933956	0.000451	20.710635
26.018530	-3.009800	3.872200	-11.652000	20.958609	0.000454	20.697358
27.012960	-3.005200	3.870000	-11.629000	20.954592	0.000453	20.697133
28.015591	-3.019600	3.869500	-11.683000	20.947506	0.000451	20.709961
29.010981	-3.006100	3.869100	-11.630000	20.973206	0.000452	20.719545
30.016790	-2.980000	3.869700	-11.530000	20.990697	0.000450	20.699579
31.013649	-3.003400	3.867900	-11.616000	21.002375	0.000453	20.703198
32.014908	-2.991000	3.868200	-11.569000	20.998856	0.000451	20.700153
33.014565	-2.976800	3.867600	-11.512000	21.011756	0.000452	20.705469
34.011227	-2.993400	3.867400	-11.576000	21.017196	0.000450	20.695736
35.023263	-2.980500	3.867200	-11.526000	21.031692	0.000449	20.704072
36.020698	-3.002300	3.866800	-11.609000	21.041473	0.000453	20.714330
37.014210	-3.006100	3.865000	-11.618000	21.068768	0.000452	20.718398
38.013972	-3.010500	3.864600	-11.633000	21.053698	0.000450	20.734146
39.019978	-2.986300	3.865300	-11.542000	21.066847	0.000449	20.694663
40.017688	-3.001000	3.865300	-11.599000	21.090200	0.000450	20.710437
41.020677	-2.964100	3.865600	-11.457000	21.090948	0.000450	20.734894
42.015448	-3.008900	3.863000	-11.623000	21.086333	0.000449	20.707991
43.017841	-3.023900	3.860700	-11.673000	21.107914	0.000448	20.725785
44.017782	-2.984800	3.863000	-11.529000	21.103223	0.000450	20.714929
45.013744	-2.999700	3.864100	-11.590000	21.126126	0.000451	20.715553
46.020182	-2.988600	3.863700	-11.546000	21.120338	0.000447	20.732998
47.014462	-2.995400	3.863400	-11.572000	21.138875	0.000449	20.712184
48.018737	-2.999000	3.862800	-11.584000	21.167490	0.000448	20.730852
49.020642	-3.002100	3.862500	-11.594000	21.173827	0.000448	20.735295
50.017937	-2.989300	3.861800	-11.543000	21.159856	0.000447	20.700929
51.017283	-3.021700	3.861500	-11.667000	21.173578	0.000446	20.720820
52.019490	-3.004400	3.861500	-11.600000	21.201319	0.000447	20.712060
53.020112	-3.016600	3.860400	-11.644000	21.193062	0.000449	20.726560
54.016720	-2.994600	3.861200	-11.561000	21.195307	0.000447	20.741135
55.022961	-3.016800	3.859300	-11.641000	21.221327	0.000448	20.718325
56.018201	-2.996900	3.861700	-11.572000	21.226815	0.000446	20.729980
57.022873	-2.981900	3.860300	-11.510000	21.216911	0.000446	20.712959
58.024045	-3.006900	3.859800	-11.605000	21.254305	0.000447	20.747050
59.024822	-2.990000	3.860200	-11.541000	21.235447	0.000445	20.733399
60.020834	-2.996700	3.859800	-11.566000	21.257598	0.000445	20.742758
61.024593	-3.004900	3.858600	-11.594000	21.280698	0.000446	20.714657
62.024658	-3.016500	3.858800	-11.638000	21.273938	0.000446	20.716429
63.022574	-3.005800	3.858800	-11.598000	21.287209	0.000449	20.742509
64.026385	-3.008500	3.857500	-11.604000	21.296613	0.000447	20.730105
65.024147	-3.000300	3.857800	-11.574000	21.325524	0.000446	20.739589
66.028780	-3.016200	3.858100	-11.636000	21.326147	0.000448	20.743532
67.025580	-3.012400	3.857400	-11.619000	21.335601	0.000449	20.743033
68.028131	-3.010800	3.858000	-11.614000	21.344731	0.000447	20.720872
69.023305	-3.005400	3.858100	-11.594000	21.345130	0.000447	20.727436
70.022483	-3.008800	3.857100	-11.604000	21.340441	0.000446	20.738866
71.027874	-3.002900	3.857500	-11.582000	21.350743	0.000448	20.743009
72.026898	-3.012200	3.857300	-11.618000	21.386162	0.000449	20.741462
73.028588	-2.982300	3.857700	-11.504000	21.395291	0.000447	20.737793
74.035366	-2.996300	3.856300	-11.554000	21.395990	0.000448	20.738492
75.031259	-2.981400	3.857100	-11.498000	21.391375	0.000447	20.740987
76.027338	-3.015700	3.854900	-11.624000	21.417016	0.000447	20.747676
77.029261	-3.003400	3.854500	-11.576000	21.411828	0.000449	20.726837
78.032349	-3.000700	3.855100	-11.566000	21.452084	0.000447	20.746728
79.032341	-2.998400	3.856300	-11.562000	21.431457	0.000448	20.746478
80.030147	-3.018100	3.855400	-11.635000	21.458668	0.000446	20.739565
81.026320	-3.008400	3.856300	-11.601000	21.483285	0.000449	20.750446
82.027982	-3.011200	3.853600	-11.603000	21.484358	0.000450	20.747252
83.028855	-3.031400	3.854900	-11.684000	21.482038	0.000450	20.755363
84.031190	-3.007200	3.855100	-11.592000	21.482861	0.000450	20.747177
85.027341	-3.000200	3.854500	-11.564000	21.485231	0.000451	20.756186
86.033679	-2.989000	3.855800	-11.524000	21.495282	0.000448	20.743958
87.034611	-3.013800	3.854300	-11.615000	21.506380	0.000450	20.755537
88.028637	-3.005300	3.854500	-11.583000	21.523265	0.000449	20.761527
89.029495	-3.033400	3.853100	-11.686000	21.547132	0.000450	20.750796
90.029516	-3.011400	3.853300	-11.603000	21.559527	0.000450	20.764622
91.031874	-3.015300	3.853500	-11.619000	21.554289	0.000450	20.777399
92.030489	-3.021200	3.852800	-11.639000	21.562893	0.000451	20.755188
93.031225	-3.019600	3.852500	-11.632000	21.569353	0.000450	20.758333
94.035353	-3.001200	3.852800	-11.562000	21.593019	0.000451	20.763998
95.031856	-3.000300	3.851600	-11.555000	21.599403	0.000452	20.760429
96.032723	-3.000600	3.853600	-11.563000	21.595164	0.000449	20.757609
97.034498	-3.026800	3.853100	-11.661000	21.600725	0.000453	20.757958
98.043814	-2.982000	3.851600	-11.485000	21.607583	0.000452	20.767192
99.031535	-2.990300	3.851200	-11.515000	21.610526	0.000451	20.758757
100.041496	-3.012100	3.851200	-11.599000	21.655413	0.000451	20.751994
101.035957	-2.997900	3.851900	-11.546000	21.644965	0.000452	20.774729
102.032024	-3.009400	3.852000	-11.591000	21.649628	0.000452	20.768016
103.040876	-3.001200	3.852200	-11.561000	21.665189	0.000453	20.779795
104.036098	-3.004200	3.852600	-11.573000	21.655513	0.000451	20.772009
105.037561	-2.998700	3.851100	-11.547000	21.680999	0.000454	20.755788
106.041798	-2.998500	3.850700	-11.545000	21.695611	0.000453	20.801706
107.040001	-3.008800	3.851500	-11.586000	21.709750	0.000452	20.779820
108.032196	-3.017000	3.849000	-11.611000	21.700274	0.000451	20.774130
109.037466	-3.001600	3.850200	-11.555000	21.731020	0.000452	20.775503
110.034538	-2.981900	3.851000	-11.482000	21.712817	0.000453	20.790002
111.033673	-3.005500	3.849200	-11.568000	21.741094	0.000455	20.773257
112.035562	-3.016600	3.848600	-11.608000	21.743837	0.000455	20.772209
113.037945	-2.999500	3.850500	-11.549000	21.772262	0.000453	20.774580
114.036729	-3.015000	3.849600	-11.606000	21.769320	0.000454	20.777325
115.031541	-2.998500	3.849100	-11.540000	21.781912	0.000455	20.791350
116.034067	-2.997400	3.849500	-11.537000	21.779094	0.000454	20.773831
117.035426	-3.015400	3.848700	-11.604000	21.785502	0.000456	20.785935
118.037685	-3.019200	3.849700	-11.622000	21.786400	0.000456	20.793471
119.035379	-3.014800	3.849600	-11.604000	21.803180	0.000455	20.791300
120.041883	-3.002300	3.850100	-11.559000	21.833175	0.000455	20.792872
121.037442	-3.011300	3.849500	-11.590000	21.826194	0.000456	20.778298
122.041893	-2.993500	3.848600	-11.520000	21.867482	0.000456	20.791175
123.043541	-2.986300	3.848700	-11.492000	21.850877	0.000456	20.775503
124.041214	-2.963200	3.849100	-11.404000	21.852249	0.000457	20.799161
125.039758	-2.968500	3.849000	-11.425000	21.882716	0.000454	20.794569
126.043557	-2.970800	3.849400	-11.434000	21.883763	0.000459	20.816006
127.039318	-2.946900	3.849200	-11.343000	21.890519	0.000457	20.796690
128.042124	-2.976500	3.847800	-11.451000	21.901016	0.000457	20.781592
129.045542	-3.015400	3.848000	-11.602000	21.904357	0.000457	20.807221
130.043203	-2.997300	3.848100	-11.533000	21.938562	0.000460	20.807795
131.046691	-3.028100	3.845600	-11.644000	21.918468	0.000457	20.805699
132.045925	-3.006400	3.847300	-11.565000	21.924077	0.000458	20.804202
133.046749	-3.005900	3.846700	-11.562000	21.927518	0.000457	20.803853
134.047050	-2.997800	3.847700	-11.533000	21.949656	0.000458	20.809892
135.046895	-2.989900	3.847400	-11.502000	21.933651	0.000458	20.808569
136.045667	-3.004600	3.845400	-11.553000	21.942103	0.000458	20.797115
137.045135	-2.998400	3.847700	-11.536000	21.959952	0.000460	20.801706
138.045369	-2.983000	3.847200	-11.475000	21.980744	0.000459	20.794544
139.045724	-2.956600	3.846400	-11.371000	21.996400	0.000461	20.789354
140.047894	-2.984800	3.846400	-11.480000	22.007369	0.000460	20.806024
141.048386	-2.998100	3.845300	-11.527000	22.013228	0.000458	20.793397
142.045510	-2.970000	3.845300	-11.419000	22.011782	0.000460	20.806648
143.051666	-2.996300	3.845000	-11.520000	22.038730	0.000461	20.839314
144.047410	-2.973000	3.845500	-11.432000	22.038655	0.000458	20.824541
145.051442	-2.995500	3.844600	-11.516000	22.037359	0.000461	20.824666
146.047203	-2.977100	3.844400	-11.443000	22.063983	0.000462	20.841361
147.048240	-2.994100	3.844400	-11.510000	22.067722	0.000462	20.807647
148.051260	-2.990700	3.844800	-11.498000	22.053413	0.000462	20.809444
149.048717	-3.014300	3.843300	-11.583000	22.074503	0.000461	20.811116
150.054721	-3.019900	3.843000	-11.604000	22.082554	0.000462	20.826288
151.053293	-2.997700	3.843500	-11.520000	22.106808	0.000464	20.805526
152.051447	-3.000800	3.844500	-11.536000	22.125927	0.000465	20.830356
153.052567	-2.992900	3.844000	-11.504000	22.146667	0.000463	20.821248
154.054878	-2.985900	3.842800	-11.473000	22.147888	0.000463	20.833850
155.051943	-2.973000	3.843400	-11.425000	22.137494	0.000464	20.821073
156.055875	-2.998000	3.843100	-11.520000	22.155266	0.000463	20.813263
157.049946	-3.003500	3.842900	-11.541000	22.168876	0.000465	20.823569
158.053656	-2.977800	3.842900	-11.443000	22.177575	0.000466	20.822322
159.064677	-3.008300	3.842800	-11.559000	22.191857	0.000465	20.819077
160.062502	-2.982400	3.842100	-11.457000	22.174111	0.000465	20.834500
161.054867	-2.989600	3.842700	-11.487000	22.179943	0.000463	20.834649
162.054299	-3.011100	3.841900	-11.567000	22.174584	0.000466	20.836396
163.051910	-3.017000	3.841600	-11.590000	22.201280	0.000466	20.825666
164.052267	-3.007500	3.840700	-11.551000	22.207710	0.000468	20.836371
165.055442	-3.009500	3.840200	-11.555000	22.203299	0.000465	20.835748
166.052529	-2.989500	3.841700	-11.484000	22.217805	0.000467	20.826091
167.063834	-3.014600	3.839700	-11.574000	22.242206	0.000469	20.841038
168.053979	-3.019300	3.840200	-11.593000	22.247216	0.000469	20.837520
169.057715	-2.984700	3.841400	-11.464000	22.251353	0.000469	20.842611
170.065961	-3.015800	3.840300	-11.581000	22.264912	0.000469	20.832005
171.055667	-3.009500	3.840100	-11.556000	22.290159	0.000471	20.842112
172.056493	-3.009000	3.839600	-11.552000	22.282159	0.000470	20.846903
173.059027	-2.994100	3.839300	-11.494000	22.291880	0.000470	20.825817
174.057593	-3.011200	3.839800	-11.561000	22.308104	0.000470	20.838743
175.057838	-2.993300	3.839400	-11.492000	22.299755	0.000474	20.837970
176.056004	-2.989900	3.839800	-11.480000	22.319867	0.000470	20.856211
177.056149	-2.999400	3.839000	-11.513000	22.351693	0.000470	20.844932
178.058884	-2.990800	3.839100	-11.481000	22.338983	0.000472	20.843111
179.060628	-2.993600	3.837900	-11.488000	22.343120	0.000472	20.851994
180.059305	-2.990200	3.838300	-11.476000	22.333051	0.000472	20.851395
181.055605	-2.991800	3.839800	-11.486000	22.336167	0.000472	20.840765
182.058021	-3.005300	3.838000	-11.533000	22.357874	0.000473	20.847802
183.072766	-3.005100	3.838700	-11.534000	22.334048	0.000473	20.848601
184.054853	-3.036400	3.837100	-11.650000	22.361413	0.000474	20.838544
185.058783	-3.005900	3.838600	-11.538000	22.367593	0.000473	20.840940
186.056353	-2.988000	3.838300	-11.469000	22.363805	0.000471	20.845681
187.060825	-3.021800	3.835700	-11.589000	22.371681	0.000475	20.838395
188.064970	-2.994500	3.836000	-11.486000	22.402159	0.000474	20.855164
189.063248	-3.002800	3.837200	-11.522000	22.419803	0.000473	20.833479
190.057167	-2.993800	3.837300	-11.487000	22.442953	0.000476	20.837696
191.060106	-2.999100	3.836500	-11.506000	22.439589	0.000477	20.857560
192.060617	-2.980200	3.837500	-11.435000	22.457282	0.000477	20.844459
193.061946	-3.004200	3.835500	-11.521000	22.450878	0.000477	20.842313
194.061354	-2.987800	3.836000	-11.459000	22.464783	0.000475	20.869987
195.068583	-3.008900	3.834400	-11.537000	22.486213	0.000477	20.848776
196.057054	-3.013000	3.835600	-11.556000	22.467898	0.000476	20.875951
197.061797	-3.002200	3.835000	-11.513000	22.470115	0.000478	20.858733
198.064306	-2.992800	3.835200	-11.477000	22.485191	0.000479	20.873830
199.061177	-2.990200	3.835500	-11.467000	22.495433	0.000479	20.862750
200.060397	-3.002100	3.835300	-11.512000	22.505451	0.000480	20.865197
201.058492	-2.996200	3.835000	-11.490000	22.511879	0.000476	20.874005
202.062840	-3.000000	3.834600	-11.503000	22.525335	0.000479	20.843387
203.058967	-3.009900	3.833900	-11.538000	22.523964	0.000478	20.855289
204.062378	-2.991800	3.834200	-11.470000	22.541481	0.000478	20.848652
205.062333	-3.005200	3.833900	-11.521000	22.526332	0.000479	20.849600
206.059752	-2.991300	3.833500	-11.466000	22.548583	0.000479	20.879470
207.059309	-2.982300	3.834900	-11.436000	22.549381	0.000480	20.861304
208.060845	-2.997100	3.833100	-11.487000	22.528650	0.000480	20.856189
209.061070	-3.007300	3.832800	-11.524000	22.570286	0.000480	20.850000
210.059672	-3.016500	3.831900	-11.558000	22.557878	0.000481	20.840892
211.057638	-2.988100	3.833100	-11.453000	22.579132	0.000479	20.826618
212.064122	-2.997900	3.832200	-11.487000	22.582147	0.000481	20.857612
213.065513	-3.011300	3.831100	-11.536000	22.604945	0.000481	20.827341
214.062739	-3.005900	3.832600	-11.518000	22.600486	0.000482	20.836151
215.068309	-3.012100	3.830900	-11.538000	22.613617	0.000482	20.833181
216.062201	-3.002800	3.832400	-11.507000	22.638208	0.000483	20.841691
217.061880	-3.007500	3.831300	-11.521000	22.649171	0.000482	20.854094
218.062913	-2.992500	3.831000	-11.464000	22.646880	0.000482	20.815764
219.059157	-3.011500	3.830500	-11.535000	22.660558	0.000484	20.816188
220.059123	-3.022700	3.830000	-11.575000	22.673165	0.000483	20.847781
221.064207	-3.016800	3.830800	-11.555000	22.677874	0.000484	20.829265
222.064602	-2.997200	3.831100	-11.482000	22.662053	0.000482	20.835229
223.063365	-3.010500	3.831400	-11.533000	22.686869	0.000484	20.823101
224.068021	-2.985600	3.830300	-11.434000	22.710038	0.000484	20.824973
225.064558	-2.999100	3.830000	-11.486000	22.682558	0.000486	20.848181
226.064671	-3.001200	3.829900	-11.494000	22.684676	0.000485	20.839871
227.071839	-2.994300	3.830400	-11.469000	22.692998	0.000484	20.836353
228.060957	-2.990400	3.828700	-11.448000	22.694244	0.000484	20.799195
229.065125	-3.010000	3.828600	-11.523000	22.722396	0.000485	20.812222
230.069755	-2.999100	3.829400	-11.484000	22.739661	0.000487	20.820507
231.065984	-3.004900	3.829100	-11.505000	22.740783	0.000483	20.813570
232.068254	-3.011800	3.828100	-11.528000	22.721151	0.000486	20.810500
233.062461	-2.990500	3.829200	-11.449000	22.745293	0.000486	20.820932
234.061970	-2.994500	3.829800	-11.467000	22.736922	0.000487	20.822030
235.065815	-2.996700	3.828700	-11.473000	22.736075	0.000484	20.812173
236.066296	-3.009300	3.827800	-11.518000	22.717589	0.000489	20.798872
237.062324	-2.997400	3.829000	-11.475000	22.746041	0.000487	20.796078
238.071654	-3.007100	3.828500	-11.511000	22.733385	0.000489	20.829392
239.072797	-3.011800	3.826700	-11.525000	22.745219	0.000489	20.807582
240.069140	-3.000300	3.827700	-11.483000	22.760565	0.000486	20.802092
241.066643	-2.997900	3.826500	-11.471000	22.756903	0.000490	20.818338
242.071372	-3.004100	3.825600	-11.491000	22.779699	0.000492	20.824103
243.063559	-2.986000	3.826200	-11.424000	22.795792	0.000488	20.803241
244.067277	-2.999600	3.825400	-11.474000	22.814078	0.000491	20.823455
245.071233	-2.991600	3.825200	-11.442000	22.821177	0.000489	20.821084
246.068617	-2.960200	3.826400	-11.325000	22.813879	0.000490	20.814247
247.067269	-2.992700	3.826700	-11.451000	22.856177	0.000489	20.820585
248.067855	-2.995300	3.825400	-11.458000	22.842477	0.000488	20.831516
249.070776	-3.022600	3.823700	-11.556000	22.870851	0.000489	20.805888
250.066951	-2.993100	3.824600	-11.446000	22.877701	0.000490	20.805638
251.069201	-3.011600	3.824700	-11.518000	22.885050	0.000491	20.797828
252.073568	-3.003700	3.824000	-11.485000	22.870403	0.000491	20.806388
253.069203	-2.980400	3.825800	-11.401000	22.861561	0.000493	20.809857
254.069627	-2.988600	3.823400	-11.425000	22.857974	0.000490	20.796307
255.068701	-2.992100	3.823400	-11.439000	22.868960	0.000492	20.785976
256.065631	-2.990300	3.823200	-11.432000	22.864626	0.000492	20.803919
257.070802	-2.994100	3.823300	-11.447000	22.881565	0.000494	20.799078
258.070253	-3.003300	3.822900	-11.480000	22.906226	0.000491	20.810982
259.070085	-2.989300	3.823000	-11.427000	22.899750	0.000492	20.796908
260.067247	-2.985300	3.823700	-11.414000	22.954251	0.000495	20.806466
261.067709	-2.974000	3.823500	-11.369000	22.937115	0.000495	20.783608
262.070246	-2.978500	3.822500	-11.384000	22.979708	0.000493	20.801152
263.073297	-2.998600	3.822300	-11.460000	22.947503	0.000493	20.789274
264.071705	-3.018000	3.820700	-11.530000	22.977393	0.000495	20.789349
265.070804	-3.013400	3.821200	-11.513000	22.941277	0.000496	20.808640
266.072247	-3.000100	3.821700	-11.464000	22.950468	0.000494	20.789874
267.071562	-3.018000	3.820400	-11.529000	22.952835	0.000494	20.799832
268.069922	-3.019900	3.820700	-11.537000	22.965115	0.000495	20.785582
269.080764	-2.999200	3.821200	-11.460000	22.966112	0.000495	20.772357
270.071318	-3.008300	3.820600	-11.493000	22.963174	0.000497	20.790750
271.074462	-3.004400	3.820700	-11.478000	22.976002	0.000499	20.785584
272.074260	-3.019900	3.820500	-11.536000	23.006913	0.000496	20.793322
273.074480	-3.033500	3.818100	-11.581000	23.009229	0.000498	20.783314
274.073987	-3.005100	3.819500	-11.477000	23.011397	0.000499	20.785486
275.073442	-3.032100	3.818300	-11.576000	23.011473	0.000499	20.771337
276.079604	-2.984800	3.818800	-11.397000	23.009729	0.000498	20.772436
277.072045	-3.016900	3.818100	-11.518000	23.025795	0.000499	20.780946
278.079011	-2.987900	3.818200	-11.407000	23.057999	0.000498	20.776704
279.079309	-2.994700	3.818300	-11.434000	23.032870	0.000501	20.753895
280.077301	-3.001600	3.817100	-11.456000	23.045000	0.000498	20.783594
281.079230	-2.988900	3.818600	-11.412000	23.067590	0.000499	20.787262
282.080485	-3.032300	3.815500	-11.569000	23.087366	0.000500	20.783845
283.076827	-2.999600	3.817800	-11.451000	23.096979	0.000499	20.765502
284.076696	-3.001700	3.816700	-11.455000	23.131523	0.000501	20.775461
285.082710	-3.015600	3.816800	-11.509000	23.134338	0.000501	20.773540
286.074181	-3.004700	3.816600	-11.466000	23.145147	0.000501	20.748808
287.078579	-2.963200	3.816900	-11.309000	23.146244	0.000501	20.783100
288.079981	-2.992900	3.817500	-11.424000	23.165520	0.000501	20.773966
289.079598	-3.012500	3.816300	-11.496000	23.171223	0.000503	20.782052
290.079928	-3.021800	3.816300	-11.531000	23.151626	0.000502	20.771897
291.079414	-2.992200	3.815800	-11.416000	23.179094	0.000502	20.777611
292.080084	-3.009100	3.815800	-11.482000	23.188085	0.000505	20.765758
293.078914	-3.025600	3.814000	-11.538000	23.177004	0.000506	20.775043
294.080302	-3.007400	3.814300	-11.470000	23.152375	0.000502	20.776441
295.080262	-3.023800	3.814900	-11.534000	23.163259	0.000504	20.781183
296.080621	-2.995700	3.814300	-11.425000	23.170557	0.000503	20.786126
297.083216	-2.994800	3.814700	-11.422000	23.163460	0.000502	20.766211
298.082034	-3.017000	3.813500	-11.503000	23.161743	0.000505	20.758801
299.083312	-3.009500	3.813400	-11.475000	23.167496	0.000506	20.780688
300.085019	-3.000400	3.813600	-11.441000	23.170235	0.000505	20.789597
301.088014	-2.988400	3.814500	-11.399000	23.169265	0.000504	20.769658
302.084336	-2.989100	3.812900	-11.396000	23.186101	0.000503	20.759977
303.083919	-3.000600	3.813100	-11.441000	23.199598	0.000506	20.764019
304.083382	-3.000000	3.812100	-11.435000	23.209959	0.000508	20.759228
305.086709	-3.000300	3.812300	-11.436000	23.181098	0.000507	20.775352
306.085408	-3.012200	3.812500	-11.482000	23.177587	0.000505	20.781317
307.086350	-3.001000	3.812600	-11.440000	23.202367	0.000507	20.752095
308.082807	-3.018800	3.811700	-11.506000	23.189344	0.000506	20.776029
309.086618	-3.011800	3.809700	-11.472000	23.211383	0.000507	20.762079
310.086365	-2.991900	3.811500	-11.403000	23.237656	0.000506	20.754268
311.085549	-3.015000	3.809700	-11.485000	23.251004	0.000508	20.759585
312.090408	-3.024500	3.811000	-11.526000	23.275931	0.000507	20.758014
313.086523	-3.024300	3.809800	-11.521000	23.285022	0.000509	20.776607
314.087422	-3.009100	3.809900	-11.464000	23.254917	0.000509	20.740746
315.093716	-3.021900	3.810300	-11.514000	23.268240	0.000506	20.759789
316.088714	-3.022800	3.809900	-11.516000	23.257658	0.000509	20.749658
317.087139	-2.991000	3.810600	-11.396000	23.258904	0.000509	20.760863
318.082896	-3.003400	3.808500	-11.437000	23.265504	0.000509	20.746615
319.086613	-2.994800	3.808500	-11.405000	23.289559	0.000509	20.768353
320.085999	-2.989100	3.809400	-11.386000	23.312320	0.000508	20.768878
321.088704	-2.981600	3.809300	-11.356000	23.317426	0.000508	20.760719
322.082416	-2.991100	3.808300	-11.390000	23.325968	0.000509	20.747943
323.086392	-3.002100	3.809400	-11.435000	23.342651	0.000509	20.749491
324.089943	-2.980900	3.809300	-11.354000	23.332569	0.000511	20.746498
325.088449	-3.017600	3.807700	-11.489000	23.315140	0.000509	20.740409
326.092985	-3.003700	3.806600	-11.433000	23.352392	0.000511	20.751666
327.088167	-3.033300	3.805400	-11.542000	23.383068	0.000512	20.740686
328.087319	-2.980200	3.808200	-11.348000	23.397585	0.000510	20.737219
329.089487	-2.978300	3.808100	-11.341000	23.407522	0.000511	20.732005
330.086660	-2.977200	3.806900	-11.333000	23.394103	0.000509	20.758385
331.085262	-2.992900	3.806300	-11.391000	23.392561	0.000510	20.740718
332.087296	-2.992200	3.806500	-11.389000	23.371523	0.000512	20.748555
333.090757	-3.005700	3.805000	-11.436000	23.358004	0.000512	20.755395
334.090613	-3.014200	3.806200	-11.471000	23.365351	0.000510	20.760388
335.090011	-2.999700	3.806100	-11.416000	23.377230	0.000514	20.736731
336.091530	-3.003700	3.806500	-11.432000	23.400511	0.000511	20.747738
337.093344	-3.013200	3.803700	-11.460000	23.370038	0.000511	20.729996
338.091049	-2.990000	3.805800	-11.378000	23.400665	0.000512	20.735090
339.097058	-2.997400	3.803900	-11.401000	23.389810	0.000513	20.731322
340.094544	-3.008800	3.804300	-11.445000	23.419940	0.000514	20.735443
341.094079	-2.997600	3.804300	-11.403000	23.432042	0.000513	20.752789
342.099315	-3.009000	3.802500	-11.441000	23.450842	0.000515	20.722794
343.093520	-3.012400	3.802600	-11.453000	23.463939	0.000513	20.712213
344.090477	-3.026500	3.802600	-11.508000	23.467102	0.000513	20.737197
345.096906	-2.983600	3.802900	-11.345000	23.479403	0.000514	20.739095
346.092463	-2.982600	3.801900	-11.339000	23.479107	0.000516	20.720780
347.093510	-2.982700	3.802800	-11.342000	23.459068	0.000515	20.739100
348.093678	-2.978400	3.803900	-11.328000	23.492978	0.000514	20.755548
349.093545	-2.998900	3.802200	-11.400000	23.476125	0.000515	20.718265
350.100408	-2.992600	3.801100	-11.374000	23.482576	0.000514	20.720938
351.093501	-2.997400	3.802900	-11.398000	23.462834	0.000514	20.709683
352.097043	-2.990500	3.800200	-11.364000	23.453749	0.000517	20.704843
353.095883	-2.997100	3.801400	-11.392000	23.476731	0.000517	20.728830
354.097023	-2.993300	3.799600	-11.373000	23.476957	0.000515	20.733324
355.094438	-3.000300	3.801200	-11.404000	23.507906	0.000517	20.722146
356.100908	-2.988700	3.800900	-11.359000	23.521351	0.000517	20.716657
357.099843	-2.979200	3.799700	-11.318000	23.508880	0.000514	20.715536
358.099866	-3.018800	3.799800	-11.469000	23.485828	0.000516	20.711869
359.097658	-3.012100	3.799100	-11.442000	23.517151	0.000517	20.716240
360.099391	-2.989900	3.798400	-11.356000	23.515384	0.000517	20.708778
361.100970	-2.989000	3.799000	-11.354000	23.537843	0.000516	20.712799
362.102410	-3.009500	3.797300	-11.427000	23.520244	0.000517	20.708909
363.098947	-2.995700	3.798600	-11.378000	23.541033	0.000519	20.725482
364.099329	-2.998400	3.798000	-11.387000	23.552437	0.000519	20.698031
365.103601	-2.994600	3.797800	-11.372000	23.547685	0.000517	20.710337
366.103080	-2.987200	3.799200	-11.348000	23.557121	0.000521	20.706046
367.104287	-2.975700	3.799000	-11.303000	23.571264	0.000519	20.708370
368.106227	-3.000600	3.798100	-11.395000	23.576246	0.000519	20.718106
369.104226	-3.002000	3.796300	-11.395000	23.590189	0.000518	20.709323
370.108045	-2.990100	3.798500	-11.357000	23.566216	0.000520	20.708051
371.102237	-3.012100	3.796900	-11.436000	23.587529	0.000519	20.686267
372.105333	-2.985100	3.797300	-11.333000	23.583721	0.000521	20.701416
373.103499	-3.000000	3.797000	-11.389000	23.618525	0.000519	20.720661
374.111934	-3.000300	3.796100	-11.389000	23.589626	0.000519	20.720614
375.110075	-3.006100	3.796500	-11.412000	23.580517	0.000518	20.709584
376.107324	-3.008900	3.795100	-11.418000	23.568695	0.000519	20.701052
377.107058	-3.001400	3.795100	-11.390000	23.592072	0.000520	20.688450
378.105497	-2.982400	3.795900	-11.319000	23.602580	0.000522	20.682862
379.109867	-2.995100	3.794700	-11.365000	23.601437	0.000521	20.698313
380.108693	-2.995700	3.794500	-11.366000	23.624741	0.000521	20.689431
381.105706	-3.010900	3.794100	-11.423000	23.603483	0.000522	20.701312
382.108136	-3.003200	3.794700	-11.394000	23.641050	0.000523	20.695351
383.104842	-3.009000	3.793500	-11.414000	23.633486	0.000522	20.699622
384.104396	-3.007600	3.793800	-11.410000	23.685241	0.000520	20.691289
385.107270	-3.004900	3.793000	-11.397000	23.667420	0.000522	20.692864
386.108785	-3.007500	3.793100	-11.406000	23.657989	0.000521	20.677243
387.112826	-2.989000	3.793800	-11.339000	23.661600	0.000522	20.707893
388.111304	-3.002200	3.792100	-11.384000	23.647639	0.000523	20.694370
389.105796	-3.019300	3.791900	-11.448000	23.661930	0.000523	20.683091
390.106798	-3.000300	3.792200	-11.377000	23.682071	0.000524	20.662504
391.107155	-3.001200	3.791200	-11.376000	23.732155	0.000521	20.676209
392.110924	-3.014000	3.791000	-11.425000	23.732879	0.000525	20.698274
393.108191	-2.999900	3.791200	-11.372000	23.696442	0.000523	20.697304
394.111344	-2.998100	3.791300	-11.366000	23.683028	0.000521	20.682907
395.112980	-3.013500	3.788800	-11.416000	23.692565	0.000519	20.673026
396.117096	-3.008200	3.790600	-11.402000	23.715818	0.000522	20.691125
397.113161	-3.003100	3.791500	-11.386000	23.721221	0.000523	20.678523
398.119485	-2.989000	3.788700	-11.323000	23.755848	0.000525	20.679102
399.114007	-2.976400	3.789800	-11.279000	23.767775	0.000525	20.665454
400.111310	-3.002500	3.789500	-11.377000	23.765562	0.000524	20.677461
401.114810	-3.002500	3.788100	-11.372000	23.782317	0.000525	20.667707
402.109244	-2.992600	3.790500	-11.342000	23.806314	0.000523	20.678018
403.116234	-2.983200	3.790100	-11.305000	23.802933	0.000524	20.651391
404.114827	-2.979600	3.789800	-11.291000	23.777202	0.000524	20.659732
405.123325	-2.989800	3.787800	-11.324000	23.772028	0.000525	20.667822
406.116239	-3.001700	3.788700	-11.372000	23.759511	0.000523	20.668548
407.116261	-2.993600	3.787900	-11.339000	23.777883	0.000525	20.668951
408.117517	-3.018400	3.786400	-11.428000	23.770421	0.000526	20.665262
409.115911	-2.996100	3.788400	-11.349000	23.792452	0.000525	20.664592
410.129881	-2.999400	3.786100	-11.356000	23.782624	0.000526	20.679395
411.114709	-3.006800	3.787500	-11.388000	23.755623	0.000524	20.657537
412.118979	-2.987100	3.787200	-11.312000	23.781389	0.000525	20.661559
413.119231	-3.015200	3.785900	-11.415000	23.753216	0.000527	20.662710
414.117750	-3.002100	3.786600	-11.367000	23.786448	0.000526	20.636758
415.116796	-2.983900	3.786100	-11.297000	23.819331	0.000526	20.662619
416.117527	-2.991900	3.785000	-11.324000	23.826701	0.000526	20.652463
417.120545	-2.993000	3.785400	-11.328000	23.841764	0.000528	20.638642
418.114708	-2.993300	3.786000	-11.331000	23.885048	0.000526	20.661658
419.121264	-3.001300	3.783700	-11.355000	23.875520	0.000528	20.639773
420.116896	-2.999000	3.784500	-11.349000	23.863679	0.000525	20.651609
421.121011	-2.992700	3.783400	-11.322000	23.846932	0.000525	20.649989
422.118574	-3.021100	3.783700	-11.430000	23.834642	0.000525	20.643829
423.117806	-2.992900	3.784500	-11.326000	23.845596	0.000527	20.653392
424.117465	-3.010400	3.782300	-11.386000	23.837340	0.000529	20.664080
425.117778	-2.989000	3.783000	-11.307000	23.841025	0.000528	20.661137
426.117937	-2.981400	3.783300	-11.278000	23.848772	0.000528	20.648041
427.126488	-2.998300	3.783500	-11.343000	23.842329	0.000529	20.651538
428.121578	-2.994900	3.783400	-11.330000	23.839770	0.000528	20.655611
429.118823	-2.982600	3.781400	-11.277000	23.868745	0.000529	20.628236
430.123031	-2.998900	3.781500	-11.339000	23.902371	0.000530	20.652000
431.117239	-3.011300	3.781700	-11.385000	23.910564	0.000529	20.623228
432.122447	-2.997000	3.781700	-11.333000	23.883467	0.000528	20.610753
433.118130	-3.006300	3.780700	-11.365000	23.875256	0.000527	20.631921
434.128003	-3.012500	3.781200	-11.390000	23.874614	0.000530	20.631276
435.117688	-3.001500	3.780600	-11.347000	23.888977	0.000527	20.626238
436.119932	-2.997100	3.780400	-11.330000	23.885173	0.000531	20.630011
437.125498	-3.017200	3.778600	-11.400000	23.924401	0.000530	20.636156
438.121773	-3.015400	3.780000	-11.397000	23.953746	0.000528	20.621010
439.119125	-3.010800	3.779300	-11.378000	23.920628	0.000530	20.625259
440.124870	-3.025400	3.777900	-11.428000	23.945915	0.000528	20.631652
441.119605	-3.002400	3.778300	-11.343000	23.931712	0.000529	20.638272
442.126400	-2.999600	3.778700	-11.334000	23.941048	0.000529	20.638626
443.120533	-3.018600	3.778400	-11.405000	23.929331	0.000531	20.624029
444.119656	-2.990000	3.777600	-11.294000	23.939041	0.000531	20.610056
445.128114	-2.980300	3.778100	-11.258000	23.961491	0.000531	20.613604
446.125764	-2.985400	3.778400	-11.279000	23.992006	0.000528	20.639941
447.126389	-3.004600	3.777700	-11.349000	23.973097	0.000529	20.630935
448.124996	-3.015600	3.777500	-11.390000	23.982983	0.000531	20.617613
449.126255	-2.994700	3.777100	-11.310000	23.993387	0.000529	20.616666
450.127625	-2.987400	3.776300	-11.280000	23.973386	0.000530	20.608936
451.125155	-2.969400	3.776600	-11.214000	23.969259	0.000529	20.622343
452.125060	-2.995600	3.775600	-11.309000	23.984866	0.000530	20.617605
453.126614	-2.985300	3.775400	-11.270000	23.976337	0.000531	20.628493
454.127238	-2.974800	3.776300	-11.232000	24.019268	0.000530	20.636934
455.128025	-3.009900	3.775700	-11.364000	23.990805	0.000532	20.607911
456.126479	-2.994000	3.775400	-11.303000	23.990312	0.000529	20.616427
457.138729	-3.002100	3.774200	-11.330000	24.023613	0.000528	20.610942
458.124095	-3.016300	3.774000	-11.382000	24.026080	0.000530	20.648983
459.126778	-3.008500	3.774800	-11.355000	24.037258	0.000530	20.614670
460.126761	-2.986200	3.773900	-11.269000	24.025742	0.000530	20.611655
461.127775	-2.983200	3.774100	-11.258000	24.027937	0.000531	20.625238
462.128115	-3.007800	3.772500	-11.346000	24.008334	0.000530	20.620276
463.128864	-2.991200	3.772200	-11.283000	23.988980	0.000530	20.643545
464.126994	-3.012800	3.771800	-11.363000	24.015063	0.000533	20.609006
465.130347	-3.013100	3.773300	-11.368000	24.014946	0.000532	20.600352
466.129673	-3.008200	3.771400	-11.344000	24.036499	0.000529	20.600156
467.127297	-3.007500	3.771600	-11.343000	24.067586	0.000530	20.597193
468.128490	-2.993000	3.772700	-11.291000	24.065450	0.000530	20.622555
469.129936	-3.008800	3.771600	-11.347000	24.064437	0.000531	20.610632
470.143496	-2.977100	3.772500	-11.230000	24.084273	0.000531	20.620096
471.140262	-2.990000	3.771400	-11.275000	24.097916	0.000532	20.603905
472.132864	-2.998400	3.770500	-11.304000	24.100884	0.000531	20.625850
473.128267	-3.011900	3.769300	-11.352000	24.081131	0.000531	20.635913
474.129299	-3.011800	3.771300	-11.358000	24.102512	0.000532	20.613731
475.129629	-2.999600	3.770500	-11.309000	24.080522	0.000531	20.616807
476.132605	-2.991100	3.769700	-11.274000	24.090479	0.000531	20.626321
477.129593	-3.009600	3.768200	-11.340000	24.147292	0.000531	20.597475
478.132128	-2.994200	3.768900	-11.284000	24.131102	0.000531	20.618698
479.134904	-3.005900	3.769900	-11.331000	24.159548	0.000532	20.614038
480.133955	-3.003100	3.768900	-11.318000	24.145547	0.000533	20.606157
481.130254	-2.996700	3.768700	-11.292000	24.136770	0.000530	20.629126
482.130482	-3.009300	3.768100	-11.338000	24.151160	0.000531	20.610840
483.137065	-2.992800	3.767600	-11.274000	24.165795	0.000533	20.616511
484.130414	-3.032200	3.766500	-11.420000	24.130347	0.000533	20.608930
485.133838	-2.983000	3.767800	-11.239000	24.082404	0.000531	20.616799
486.130074	-2.992800	3.766400	-11.270000	24.081766	0.000533	20.623746
487.135729	-2.996900	3.766200	-11.287000	24.076373	0.000533	20.602686
488.133773	-2.976500	3.768700	-11.216000	24.098499	0.000533	20.617293
489.137634	-3.007400	3.766500	-11.326000	24.112813	0.000533	20.606044
490.134612	-2.992100	3.766200	-11.268000	24.150839	0.000532	20.620951
491.139171	-3.018500	3.765700	-11.366000	24.155976	0.000531	20.606660
492.135884	-3.005200	3.765300	-11.314000	24.207957	0.000532	20.595733
493.134474	-2.994600	3.765200	-11.275000	24.202514	0.000531	20.603552
494.139083	-2.999600	3.765400	-11.294000	24.148606	0.000532	20.604009
495.135012	-3.022000	3.764000	-11.374000	24.168120	0.000533	20.614574
496.135642	-3.003100	3.764200	-11.303000	24.170241	0.000534	20.616703
497.136968	-3.006400	3.764400	-11.317000	24.173234	0.000531	20.634880
498.135184	-2.991600	3.765500	-11.264000	24.184439	0.000532	20.596801
499.136006	-2.978100	3.763900	-11.208000	24.231695	0.000532	20.620022
500.134402	-2.982700	3.763500	-11.225000	24.225533	0.000533	20.632809
501.129390	-3.012900	3.762400	-11.334000	24.257460	0.000534	20.612674
502.134007	-2.974000	3.763500	-11.192000	24.251870	0.000533	20.616550
503.132165	-2.986000	3.763700	-11.237000	24.276582	0.000534	20.625218
504.134109	-3.019400	3.761600	-11.357000	24.257259	0.000531	20.635235
505.131927	-3.019300	3.761900	-11.357000	24.233209	0.000534	20.605417
506.137785	-3.011100	3.761000	-11.324000	24.227421	0.000532	20.599136
507.132234	-3.000900	3.761800	-11.288000	24.186874	0.000530	20.608728
508.134344	-3.016200	3.762100	-11.345000	24.213333	0.000530	20.611560
509.134586	-3.027800	3.760200	-11.384000	24.172036	0.000534	20.592894
510.136072	-3.001800	3.760500	-11.287000	24.189788	0.000534	20.608332
511.141157	-3.011700	3.759600	-11.321000	24.194920	0.000533	20.620593
512.136037	-3.003500	3.759400	-11.290000	24.212172	0.000533	20.618457
513.141355	-3.026400	3.759500	-11.377000	24.212156	0.000532	20.594255
514.143075	-2.996600	3.760600	-11.268000	24.196889	0.000531	20.597435
515.138402	-3.035900	3.759000	-11.410000	24.203068	0.000535	20.631613
516.139043	-2.995300	3.760100	-11.262000	24.203027	0.000530	20.605964
517.142606	-2.992100	3.758100	-11.243000	24.213260	0.000534	20.603425
518.136270	-3.027000	3.756700	-11.371000	24.217004	0.000532	20.610975
519.137889	-2.997600	3.758200	-11.265000	24.255228	0.000532	20.626559
520.141478	-3.010800	3.757800	-11.313000	24.252973	0.000533	20.620502
521.140615	-3.006600	3.757400	-11.296000	24.252534	0.000533	20.630020
522.141233	-2.967500	3.758600	-11.152000	24.288594	0.000533	20.616878
523.145339	-2.994000	3.758300	-11.251000	24.314675	0.000535	20.624549
524.142254	-2.988800	3.758100	-11.232000	24.309037	0.000534	20.617470
525.139348	-3.002800	3.756400	-11.279000	24.304767	0.000533	20.609867
526.145453	-2.990900	3.757000	-11.236000	24.302663	0.000532	20.585941
527.147473	-3.008500	3.755400	-11.296000	24.281377	0.000533	20.605369
528.143507	-2.998700	3.756000	-11.261000	24.256927	0.000535	20.611190
529.144805	-3.005000	3.756400	-11.287000	24.268704	0.000532	20.608779
530.143690	-2.984300	3.756500	-11.209000	24.240351	0.000532	20.620170
531.146678	-2.998200	3.756300	-11.261000	24.278081	0.000531	20.624825
532.146343	-3.021900	3.754100	-11.343000	24.281720	0.000531	20.596229
533.147628	-3.016300	3.754100	-11.323000	24.265458	0.000533	20.613109
534.145461	-3.003900	3.755200	-11.280000	24.294827	0.000533	20.603687
535.148870	-3.003500	3.755500	-11.279000	24.271226	0.000534	20.607990
536.149078	-2.989600	3.755300	-11.226000	24.298328	0.000533	20.590127
537.141788	-3.011700	3.754600	-11.307000	24.265270	0.000533	20.606757
538.146023	-2.986200	3.755100	-11.212000	24.293469	0.000533	20.620820
539.144536	-3.005800	3.754200	-11.283000	24.339430	0.000535	20.615241
540.147518	-3.019700	3.752700	-11.331000	24.336325	0.000532	20.620188
541.148951	-3.005400	3.752700	-11.277000	24.336088	0.000535	20.618528
542.147454	-2.991700	3.753000	-11.226000	24.347763	0.000533	20.611747
543.147017	-3.006100	3.754500	-11.285000	24.344292	0.000532	20.603995
544.149477	-3.022300	3.751000	-11.335000	24.366115	0.000533	20.610241
545.151915	-2.994300	3.752000	-11.233000	24.375031	0.000533	20.613497
546.151522	-3.001100	3.751600	-11.258000	24.352777	0.000536	20.614406
547.149155	-2.970300	3.753300	-11.148000	24.365919	0.000533	20.623324
548.147777	-2.968700	3.752200	-11.138000	24.364913	0.000533	20.629902
549.152838	-3.002800	3.751900	-11.265000	24.343499	0.000533	20.618375
550.149549	-3.023400	3.750100	-11.338000	24.336119	0.000533	20.628518
551.152221	-2.994000	3.750300	-11.228000	24.326376	0.000532	20.608310
552.156318	-2.964500	3.750900	-11.119000	24.314591	0.000536	20.618300
553.150414	-2.975100	3.749600	-11.155000	24.333413	0.000533	20.606833
554.150809	-3.011400	3.748900	-11.288000	24.347748	0.000533	20.612680
555.150968	-2.995200	3.748900	-11.228000	24.341889	0.000534	20.610121
556.149434	-2.996800	3.749300	-11.235000	24.306893	0.000532	20.601567
557.149430	-2.985300	3.750400	-11.196000	24.334464	0.000532	20.603145
558.149640	-2.994300	3.749300	-11.226000	24.342880	0.000535	20.613012
559.149054	-3.004300	3.749300	-11.264000	24.372791	0.000533	20.612198
560.153529	-3.013700	3.747300	-11.292000	24.410758	0.000534	20.624683
561.150654	-3.001700	3.748700	-11.251000	24.431165	0.000535	20.625243
562.150852	-3.000100	3.746400	-11.238000	24.432693	0.000534	20.628672
563.151370	-3.001900	3.747700	-11.249000	24.416553	0.000534	20.636189
564.149776	-3.004600	3.747600	-11.259000	24.384272	0.000532	20.632253
565.154151	-3.003900	3.746000	-11.252000	24.396942	0.000532	20.634533
566.150757	-3.000200	3.746600	-11.239000	24.434389	0.000533	20.633220
567.150898	-3.018100	3.746000	-11.305000	24.392114	0.000533	20.621152
568.149362	-2.977100	3.748100	-11.157000	24.375152	0.000530	20.613143
569.149496	-2.987100	3.746400	-11.190000	24.395980	0.000535	20.611279
570.150122	-2.961700	3.746300	-11.094000	24.394767	0.000533	20.642308
571.152729	-2.989700	3.745600	-11.198000	24.381794	0.000534	20.618860
572.154002	-3.010900	3.746100	-11.279000	24.380531	0.000534	20.626603
573.150527	-3.007800	3.744100	-11.261000	24.391759	0.000533	20.622219
574.151082	-3.008700	3.744200	-11.264000	24.425327	0.000534	20.632663
575.154794	-3.023200	3.743500	-11.316000	24.424011	0.000532	20.629920
576.154242	-2.998600	3.745600	-11.231000	24.433147	0.000533	20.624859
577.151659	-3.002200	3.743800	-11.239000	24.455815	0.000533	20.637646
578.155261	-2.996100	3.743700	-11.215000	24.459476	0.000531	20.637526
579.158435	-2.996500	3.743100	-11.215000	24.486373	0.000532	20.610927
580.154110	-2.995400	3.743400	-11.212000	24.515484	0.000533	20.618324
581.159120	-2.982100	3.743300	-11.162000	24.515089	0.000533	20.635474
582.153920	-3.006800	3.743600	-11.255000	24.470175	0.000535	20.639251
583.151151	-2.997100	3.743500	-11.218000	24.501649	0.000532	20.631473
584.152704	-3.012600	3.742200	-11.273000	24.518296	0.000533	20.614982
585.155098	-3.009100	3.741300	-11.257000	24.544271	0.000532	20.651953
586.153143	-3.011000	3.741500	-11.265000	24.514231	0.000531	20.633190
587.158226	-3.008000	3.741200	-11.253000	24.516753	0.000531	20.641886
588.155327	-3.011300	3.741500	-11.266000	24.514789	0.000532	20.629482
589.158113	-3.025700	3.740200	-11.316000	24.513580	0.000534	20.664784
590.159200	-2.990300	3.740800	-11.186000	24.527765	0.000534	20.648194
591.156361	-2.973100	3.740700	-11.121000	24.507423	0.000531	20.631101
592.163509	-2.989700	3.741500	-11.184000	24.498730	0.000533	20.620482
593.157391	-2.996000	3.741000	-11.207000	24.488115	0.000533	20.637335
594.157485	-3.007800	3.740600	-11.250000	24.492002	0.000533	20.645977
595.159735	-3.009700	3.740000	-11.256000	24.520616	0.000532	20.655247
596.156301	-3.008100	3.739200	-11.247000	24.559996	0.000532	20.640228
597.157940	-2.984600	3.741100	-11.165000	24.586118	0.000533	20.643679
598.154075	-3.000200	3.738600	-11.216000	24.583039	0.000533	20.647229
599.155704	-3.006700	3.738900	-11.241000	24.566635	0.000531	20.641674
600.154597	-3.007000	3.737300	-11.237000	24.561370	0.000533	20.637340
601.158357	-3.025100	3.737600	-11.306000	24.517350	0.000533	20.660980
602.155218	-2.979500	3.737600	-11.135000	24.561489	0.000531	20.645046
603.159882	-2.997100	3.736800	-11.199000	24.567509	0.000531	20.652509
604.156032	-2.985800	3.737400	-11.158000	24.571248	0.000532	20.638241
605.163363	-2.992300	3.736900	-11.181000	24.570035	0.000532	20.662158
606.162998	-2.993600	3.735400	-11.181000	24.569496	0.000530	20.647391
607.160063	-2.997800	3.737200	-11.202000	24.558290	0.000530	20.650372
608.167302	-3.019900	3.736200	-11.282000	24.566948	0.000531	20.668070
609.160329	-3.010000	3.735900	-11.244000	24.580661	0.000532	20.651955
610.161154	-2.997700	3.735500	-11.197000	24.580245	0.000532	20.628776
611.161345	-3.029100	3.734500	-11.311000	24.553987	0.000533	20.654115
612.161510	-2.992900	3.735300	-11.178000	24.555010	0.000530	20.645184
613.165267	-3.022100	3.734900	-11.287000	24.590686	0.000530	20.688571
614.163633	-2.993500	3.735800	-11.182000	24.587933	0.000530	20.663047
615.166121	-2.985500	3.735000	-11.150000	24.572272	0.000529	20.661558
616.160730	-2.991100	3.734900	-11.171000	24.527608	0.000533	20.676489
617.168330	-2.989800	3.734400	-11.164000	24.567662	0.000531	20.675899
618.163703	-3.002800	3.734200	-11.212000	24.583412	0.000532	20.657087
619.173001	-2.980600	3.733700	-11.128000	24.608268	0.000531	20.658794
620.162825	-2.992900	3.734100	-11.175000	24.630112	0.000531	20.660798
621.163403	-2.993000	3.733600	-11.174000	24.633079	0.000526	20.688434
622.160510	-3.005100	3.732100	-11.215000	24.636021	0.000528	20.671944
623.160487	-2.982600	3.733000	-11.133000	24.640849	0.000530	20.685325
624.161785	-2.984900	3.732700	-11.140000	24.642603	0.000527	20.670489
625.161657	-2.991500	3.731300	-11.161000	24.621421	0.000527	20.669149
626.160250	-2.994900	3.731600	-11.175000	24.598349	0.000528	20.673025
627.160518	-2.980700	3.730800	-11.120000	24.604028	0.000528	20.683465
628.160382	-2.968400	3.731600	-11.076000	24.596972	0.000529	20.665953
629.161892	-3.004800	3.731900	-11.212000	24.648833	0.000528	20.658720
630.163306	-2.999700	3.731700	-11.193000	24.672994	0.000528	20.681070
631.162738	-3.011100	3.731100	-11.234000	24.648928	0.000529	20.674464
632.168029	-3.009000	3.729700	-11.222000	24.615287	0.000531	20.668683
633.168146	-2.994800	3.729800	-11.170000	24.624220	0.000527	20.683812
634.166756	-3.003800	3.729800	-11.202000	24.659048	0.000528	20.684621
635.171564	-2.994600	3.730400	-11.170000	24.694771	0.000528	20.686802
636.164482	-2.995500	3.730100	-11.172000	24.693637	0.000530	20.672387
637.167445	-3.000000	3.729100	-11.187000	24.707221	0.000526	20.673216
638.170326	-2.992300	3.728600	-11.156000	24.726951	0.000528	20.684482
639.167851	-3.008400	3.728700	-11.216000	24.739224	0.000527	20.690634
640.164915	-2.989700	3.727500	-11.143000	24.738387	0.000528	20.683155
641.175559	-3.005400	3.727200	-11.200000	24.754435	0.000526	20.679819
642.176268	-3.002500	3.728500	-11.194000	24.742607	0.000526	20.683122
643.168005	-2.995100	3.727700	-11.164000	24.687205	0.000528	20.681106
644.170203	-3.014700	3.726800	-11.234000	24.663740	0.000529	20.687906
645.167768	-3.006400	3.727100	-11.204000	24.643528	0.000527	20.694653
646.173990	-2.987600	3.726600	-11.133000	24.644162	0.000526	20.691969
647.168995	-3.005100	3.727200	-11.199000	24.647980	0.000526	20.680626
648.171981	-3.008800	3.726700	-11.212000	24.647314	0.000527	20.693710
649.170634	-3.027000	3.726200	-11.278000	24.620762	0.000525	20.690774
650.168906	-2.996700	3.724400	-11.160000	24.640716	0.000525	20.687563
651.171121	-3.017100	3.724700	-11.237000	24.625357	0.000527	20.685427
652.173419	-2.994100	3.724800	-11.152000	24.669562	0.000527	20.681420
653.173478	-3.009800	3.725600	-11.212000	24.643360	0.000526	20.674093
654.173367	-2.988600	3.724600	-11.130000	24.694254	0.000525	20.686757
655.173371	-2.996500	3.725000	-11.162000	24.709560	0.000529	20.692160
656.173013	-2.984000	3.725600	-11.116000	24.725728	0.000526	20.690366
657.175227	-2.998500	3.723400	-11.163000	24.742923	0.000527	20.705253
658.169908	-2.998200	3.723500	-11.163000	24.733458	0.000526	20.682950
659.174278	-3.002600	3.723600	-11.179000	24.706686	0.000527	20.692121
660.177744	-3.000900	3.724100	-11.175000	24.677005	0.000525	20.699796
661.172470	-3.016000	3.723400	-11.229000	24.677861	0.000526	20.698284
662.179832	-2.998400	3.723800	-11.165000	24.707067	0.000524	20.715265
663.170821	-3.003500	3.723700	-11.183000	24.737311	0.000525	20.690137
664.174030	-2.978300	3.723700	-11.088000	24.766541	0.000525	20.695762
665.172537	-2.995600	3.722000	-11.149000	24.795843	0.000525	20.719955
666.171888	-3.010500	3.722200	-11.206000	24.810055	0.000525	20.703871
667.179880	-3.018300	3.722100	-11.233000	24.791338	0.000524	20.699311
668.181332	-2.971300	3.722100	-11.059000	24.832008	0.000525	20.706462
669.179811	-3.012600	3.720500	-11.208000	24.772433	0.000523	20.701676
670.178595	-2.973300	3.723600	-11.069000	24.761575	0.000524	20.705004
671.176064	-3.003300	3.721800	-11.176000	24.769394	0.000525	20.712852
672.176892	-2.975900	3.722000	-11.075000	24.732003	0.000524	20.706623
673.178825	-2.989900	3.721600	-11.126000	24.764939	0.000524	20.730193
674.174843	-2.996400	3.720600	-11.147000	24.712354	0.000524	20.712983
675.178943	-3.002100	3.720600	-11.168000	24.691125	0.000524	20.703059
676.177478	-2.980000	3.720200	-11.085000	24.684494	0.000523	20.703992
677.178976	-2.984200	3.719900	-11.100000	24.719621	0.000525	20.716483
678.182989	-2.989100	3.720600	-11.120000	24.735893	0.000521	20.710526
679.181169	-2.999200	3.719000	-11.153000	24.747246	0.000522	20.715756
680.179770	-2.992300	3.719700	-11.129000	24.733927	0.000523	20.711873
681.185363	-3.017200	3.718100	-11.217000	24.763083	0.000524	20.717424
682.178086	-2.994700	3.719900	-11.139000	24.792086	0.000523	20.721400
683.180929	-3.003000	3.718700	-11.166000	24.826442	0.000522	20.699928
684.182794	-2.980200	3.718800	-11.082000	24.808498	0.000522	20.719853
685.178622	-3.013600	3.717500	-11.202000	24.832504	0.000524	20.715970
686.185280	-3.003600	3.718100	-11.166000	24.796361	0.000523	20.719526
687.179787	-2.989400	3.718400	-11.114000	24.775631	0.000524	20.722430
688.182460	-2.996900	3.717500	-11.139000	24.798841	0.000520	20.725808
689.180453	-2.992300	3.715900	-11.118000	24.788259	0.000521	20.720878
690.180750	-3.017000	3.715100	-11.208000	24.791802	0.000521	20.733918
691.180173	-2.987700	3.717400	-11.106000	24.809145	0.000520	20.711967
692.181772	-2.979100	3.718200	-11.076000	24.818505	0.000522	20.741751
693.183037	-2.990800	3.716900	-11.116000	24.832787	0.000520	20.724315
694.181642	-2.997600	3.715700	-11.138000	24.859254	0.000520	20.707728
695.185690	-2.973400	3.716100	-11.049000	24.859864	0.000520	20.724937
696.183653	-2.989500	3.715100	-11.105000	24.842737	0.000521	20.726715
697.188352	-3.001100	3.715000	-11.148000	24.852250	0.000521	20.722037
698.186181	-3.019000	3.714000	-11.211000	24.874740	0.000519	20.719953
699.185874	-2.989300	3.715400	-11.106000	24.878948	0.000519	20.741720
700.186406	-3.019500	3.714200	-11.214000	24.879110	0.000519	20.748522
701.187973	-3.004200	3.713500	-11.155000	24.863583	0.000519	20.730093
702.183419	-2.999900	3.714500	-11.143000	24.829995	0.000519	20.718668
703.188498	-3.027300	3.712900	-11.239000	24.834932	0.000521	20.717932
704.202863	-3.012200	3.713000	-11.183000	24.831462	0.000519	20.740056
705.190339	-3.027100	3.712500	-11.237000	24.863770	0.000520	20.720797
706.189016	-2.982800	3.713100	-11.074000	24.867712	0.000518	20.742772
707.189083	-3.006900	3.713300	-11.164000	24.849371	0.000517	20.731950
708.189666	-3.026300	3.712200	-11.234000	24.840798	0.000518	20.730933
709.191326	-3.004000	3.712200	-11.150000	24.849863	0.000519	20.734815
710.190775	-3.004600	3.712800	-11.155000	24.861034	0.000519	20.727535
711.188512	-3.013600	3.710800	-11.182000	24.878652	0.000516	20.727199
712.189065	-3.002400	3.712300	-11.144000	24.901462	0.000516	20.717849
713.186544	-3.012800	3.711200	-11.180000	24.893593	0.000521	20.734134
714.189442	-2.998200	3.710300	-11.124000	24.912623	0.000516	20.720516
715.192784	-2.983500	3.710700	-11.070000	24.963156	0.000516	20.703905
716.188898	-2.995400	3.710200	-11.113000	24.931988	0.000517	20.711977
717.191159	-2.988000	3.709600	-11.084000	24.876356	0.000517	20.729635
718.193962	-3.011900	3.709400	-11.172000	24.879353	0.000515	20.721738
719.194463	-3.020900	3.709800	-11.206000	24.883989	0.000516	20.723546
720.194394	-2.994400	3.708900	-11.105000	24.855205	0.000516	20.711726
721.195295	-3.008400	3.709300	-11.158000	24.856283	0.000514	20.728456
722.194747	-3.002900	3.708300	-11.135000	24.874866	0.000516	20.692576
723.195026	-2.982900	3.708900	-11.062000	24.825993	0.000516	20.710858
724.195296	-2.992200	3.708800	-11.097000	24.855325	0.000515	20.700466
725.194481	-2.990300	3.709400	-11.091000	24.856010	0.000515	20.685979
726.194053	-3.000200	3.707400	-11.122000	24.889582	0.000514	20.720150
727.193580	-2.985900	3.707100	-11.068000	24.896069	0.000514	20.692520
728.193550	-3.003300	3.707800	-11.135000	24.864279	0.000513	20.681475
729.196406	-2.998200	3.707400	-11.114000	24.865057	0.000515	20.696956
730.194313	-2.996500	3.708200	-11.110000	24.873202	0.000513	20.700390
731.195444	-3.006900	3.706800	-11.145000	24.852775	0.000515	20.699803
732.195825	-2.996500	3.705900	-11.104000	24.910929	0.000516	20.689416
733.193009	-3.013700	3.704900	-11.165000	24.916854	0.000513	20.698209
734.195141	-3.008500	3.705500	-11.146000	24.882427	0.000514	20.696372
735.195021	-2.988400	3.705900	-11.073000	24.863093	0.000513	20.705891
736.195313	-3.009200	3.705300	-11.149000	24.868674	0.000513	20.711967
737.196709	-2.980800	3.706000	-11.046000	24.924337	0.000514	20.701927
738.197953	-2.989500	3.704200	-11.072000	24.903655	0.000514	20.690650
739.196549	-2.985900	3.705000	-11.062000	24.933826	0.000513	20.684896
740.211960	-3.021000	3.704600	-11.190000	24.953879	0.000511	20.697439
741.201857	-2.996100	3.703700	-11.095000	24.960976	0.000512	20.703614
742.199060	-2.997200	3.704500	-11.102000	24.971084	0.000511	20.683886
743.197309	-2.995500	3.704900	-11.098000	24.972709	0.000512	20.677930
744.199018	-2.991500	3.704000	-11.080000	24.982615	0.000512	20.677916
745.200732	-2.998700	3.703700	-11.106000	24.953141	0.000512	20.666822
746.196187	-2.981400	3.704100	-11.043000	24.909512	0.000511	20.676139
747.200239	-2.982000	3.703500	-11.043000	24.897811	0.000510	20.678620
748.205173	-2.994200	3.703200	-11.087000	24.943542	0.000510	20.667620
749.199672	-3.032900	3.701600	-11.226000	24.932717	0.000510	20.670980
750.206403	-3.015100	3.701400	-11.159000	24.961618	0.000509	20.655890
751.199544	-3.004600	3.701300	-11.121000	24.943132	0.000510	20.683331
752.200913	-2.995000	3.702500	-11.089000	24.911387	0.000510	20.684186
753.199409	-2.975500	3.701700	-11.013000	24.874402	0.000509	20.648957
754.201018	-3.010700	3.701900	-11.145000	24.898752	0.000510	20.685255
755.199259	-3.006400	3.701100	-11.126000	24.934991	0.000509	20.682747
756.203328	-3.002100	3.700400	-11.108000	24.953199	0.000510	20.663088
757.202013	-2.999500	3.700100	-11.097000	24.973971	0.000513	20.654064
758.200843	-2.999500	3.700400	-11.099000	24.979503	0.000510	20.676689
759.204771	-3.010900	3.700500	-11.141000	25.008023	0.000509	20.665012
760.204110	-2.980100	3.701400	-11.030000	25.043186	0.000507	20.673756
761.203778	-3.012700	3.699800	-11.145000	25.053294	0.000508	20.679161
762.205682	-3.014600	3.699000	-11.150000	25.043877	0.000508	20.675872
763.206814	-2.979800	3.699500	-11.023000	25.075732	0.000508	20.661854
764.204177	-2.996100	3.699400	-11.083000	25.059137	0.000507	20.665585
765.210058	-3.001800	3.698600	-11.102000	25.028844	0.000507	20.667419
766.206899	-2.980800	3.698800	-11.024000	25.024377	0.000507	20.663409
767.207418	-2.996400	3.698900	-11.082000	25.027473	0.000506	20.650868
768.211693	-2.995100	3.698400	-11.076000	25.029890	0.000506	20.670366
769.204195	-3.019000	3.697700	-11.163000	25.027017	0.000505	20.667956
770.208756	-3.019800	3.698700	-11.169000	25.051487	0.000508	20.664544
771.205717	-2.997600	3.697100	-11.082000	25.036211	0.000507	20.653950
772.208559	-3.010900	3.698000	-11.133000	25.047406	0.000507	20.669456
773.205969	-3.001900	3.697200	-11.097000	24.982003	0.000505	20.664498
774.210705	-2.990000	3.697200	-11.053000	24.944897	0.000506	20.647166
775.209097	-3.015800	3.695300	-11.143000	24.910969	0.000506	20.679498
776.207554	-2.997300	3.697000	-11.080000	24.923606	0.000505	20.677957
777.206545	-3.020600	3.694700	-11.159000	24.944974	0.000505	20.677593
778.212735	-2.996200	3.695900	-11.073000	24.971544	0.000505	20.663482
779.211316	-2.963200	3.695100	-10.949000	24.986641	0.000504	20.667731
780.206552	-3.001900	3.696300	-11.095000	25.018351	0.000506	20.664472
781.210314	-2.990700	3.696000	-11.053000	25.030472	0.000506	20.641549
782.211001	-2.988800	3.694900	-11.043000	24.990700	0.000503	20.676073
783.211824	-2.981000	3.695100	-11.014000	24.954331	0.000503	20.652843
784.216803	-2.996400	3.695400	-11.072000	24.940048	0.000502	20.657947
785.209757	-2.977500	3.693900	-10.998000	24.967906	0.000502	20.636594
786.212842	-2.984600	3.694400	-11.025000	24.967267	0.000505	20.652077
787.215381	-2.982100	3.693800	-11.014000	24.998708	0.000504	20.652340
788.210442	-2.984700	3.693300	-11.022000	25.044091	0.000505	20.631037
789.216515	-3.027800	3.693100	-11.181000	25.075996	0.000503	20.655005
790.214603	-2.984100	3.694300	-11.022000	25.087411	0.000502	20.661250
791.211393	-3.007300	3.692800	-11.104000	25.047279	0.000502	20.650834
792.214328	-2.989300	3.693000	-11.037000	25.042015	0.000505	20.646498
793.215005	-3.010200	3.692100	-11.114000	25.048983	0.000502	20.657762
794.219654	-2.994900	3.691400	-11.054000	25.025824	0.000503	20.650636
795.214699	-2.985100	3.692100	-11.020000	25.036970	0.000501	20.642383
796.215109	-2.983100	3.691400	-11.011000	24.971248	0.000501	20.655598
797.217519	-3.000200	3.691500	-11.075000	24.987050	0.000502	20.627360
798.218117	-3.006200	3.691900	-11.098000	24.997602	0.000502	20.651230
799.221457	-2.999600	3.690900	-11.071000	25.010963	0.000500	20.630974
800.214575	-3.007200	3.692000	-11.102000	25.069989	0.000502	20.638068
801.218341	-3.029500	3.690100	-11.179000	25.095930	0.000500	20.656999
802.217778	-3.018000	3.690800	-11.138000	25.063724	0.000501	20.655015
803.215311	-3.018700	3.690300	-11.139000	25.055872	0.000498	20.658039
804.218225	-3.036200	3.689400	-11.200000	25.016500	0.000500	20.644594
805.216638	-2.988800	3.689700	-11.027000	25.063404	0.000499	20.636673
806.217566	-2.993600	3.691000	-11.049000	25.092665	0.000499	20.660359
807.216892	-3.002000	3.688600	-11.072000	25.112195	0.000499	20.642979
808.218007	-2.984900	3.689200	-11.011000	25.123310	0.000500	20.650345
809.219394	-3.014300	3.688800	-11.119000	25.105502	0.000499	20.645744
810.223501	-3.009000	3.689300	-11.101000	25.063574	0.000499	20.634947
811.221957	-3.011900	3.688100	-11.106000	25.077161	0.000499	20.640526
812.220291	-3.016700	3.687000	-11.121000	25.114702	0.000499	20.639805
813.225466	-2.983100	3.688900	-11.003000	25.140563	0.000500	20.635420
814.228673	-3.004800	3.685500	-11.072000	25.125086	0.000495	20.664458
815.227499	-3.005200	3.686400	-11.077000	25.132434	0.000497	20.642908
816.227361	-2.996400	3.686400	-11.044000	25.080533	0.000496	20.650077
817.224137	-3.027100	3.685700	-11.156000	25.045162	0.000496	20.642070
818.224628	-2.986900	3.685800	-11.007000	25.068650	0.000498	20.625817
819.225414	-2.991600	3.686300	-11.027000	25.085783	0.000496	20.628317
820.225621	-2.980000	3.686300	-10.985000	25.120772	0.000496	20.632622
821.226357	-3.000000	3.685700	-11.056000	25.116552	0.000496	20.626962
822.224964	-2.991100	3.685200	-11.021000	25.078501	0.000496	20.657046
823.227457	-2.998400	3.685300	-11.049000	25.082813	0.000496	20.637191
824.231353	-3.021400	3.685000	-11.132000	25.090100	0.000495	20.635023
825.228483	-3.008400	3.684400	-11.083000	25.102994	0.000494	20.639906
826.233993	-2.993900	3.685400	-11.033000	25.132033	0.000494	20.628278
827.232405	-3.012800	3.685000	-11.101000	25.154385	0.000495	20.660205
828.243289	-2.995800	3.684500	-11.037000	25.144080	0.000494	20.653177
829.230695	-2.976700	3.684400	-10.966000	25.127708	0.000493	20.632946
830.230301	-2.993500	3.683800	-11.027000	25.097515	0.000496	20.630612
831.232175	-3.003600	3.682400	-11.060000	25.086277	0.000495	20.630236
832.232183	-3.019000	3.682900	-11.118000	25.072512	0.000494	20.639178
833.229258	-2.993900	3.682900	-11.025000	25.056685	0.000493	20.658855
834.231992	-3.013300	3.682500	-11.096000	25.079216	0.000494	20.650652
835.236031	-2.991400	3.683500	-11.018000	25.117856	0.000492	20.647240
836.232818	-2.979900	3.682900	-10.974000	25.153010	0.000493	20.636536
837.233550	-2.974400	3.682500	-10.953000	25.162345	0.000492	20.653496
838.234607	-3.020400	3.679900	-11.114000	25.153384	0.000492	20.643550
839.233053	-2.990400	3.681000	-11.007000	25.124204	0.000492	20.642232
840.231433	-2.988600	3.680500	-10.998000	25.103280	0.000491	20.632606
841.235283	-3.030400	3.680600	-11.153000	25.112929	0.000494	20.646087
842.239225	-2.997500	3.681000	-11.033000	25.141152	0.000491	20.647867
843.235102	-2.981900	3.681100	-10.976000	25.107077	0.000492	20.626460
844.236074	-2.987600	3.679400	-10.991000	25.109598	0.000490	20.627094
845.236084	-2.987400	3.680200	-10.993000	25.107169	0.000491	20.623706
846.234086	-3.005400	3.679500	-11.057000	25.146581	0.000490	20.638617
847.237940	-2.968600	3.680400	-10.924000	25.174502	0.000489	20.629188
848.236750	-3.000400	3.678200	-11.035000	25.213144	0.000488	20.628627
849.237366	-2.994500	3.679600	-11.018000	25.211635	0.000489	20.630432
850.234966	-3.006300	3.679500	-11.061000	25.196749	0.000488	20.653422
851.235887	-2.999200	3.678700	-11.033000	25.177544	0.000488	20.617541
852.234454	-2.999700	3.678900	-11.034000	25.213770	0.000487	20.625936
853.238781	-2.998000	3.678100	-11.027000	25.226509	0.000488	20.636831
854.238329	-3.010100	3.677500	-11.068000	25.194400	0.000489	20.614548
855.238339	-3.010000	3.679100	-11.072000	25.150243	0.000488	20.615737
856.236803	-3.021600	3.676400	-11.108000	25.127571	0.000486	20.636129
857.236439	-3.033000	3.676200	-11.149000	25.129393	0.000488	20.622783
858.239047	-2.998700	3.676800	-11.024000	25.138410	0.000489	20.618558
859.234722	-3.024400	3.675700	-11.116000	25.141422	0.000487	20.622056
860.236177	-3.024500	3.675400	-11.115000	25.124026	0.000487	20.634940
861.234572	-3.014700	3.675600	-11.080000	25.115733	0.000486	20.616181
862.234950	-3.002600	3.675100	-11.034000	25.111513	0.000487	20.631387
863.236363	-2.992600	3.675300	-10.998000	25.129713	0.000488	20.623578
864.240585	-2.973300	3.676000	-10.930000	25.165296	0.000485	20.622789
865.239218	-2.988900	3.676400	-10.987000	25.201546	0.000486	20.628363
866.238626	-2.989700	3.675300	-10.986000	25.192861	0.000487	20.617272
867.240927	-2.969500	3.676600	-10.916000	25.159678	0.000484	20.627581
868.240412	-3.037400	3.671700	-11.152000	25.122402	0.000484	20.629990
869.241944	-3.010500	3.674000	-11.060000	25.104754	0.000485	20.611797
870.240572	-3.006500	3.674900	-11.048000	25.167284	0.000485	20.642806
871.239205	-3.013700	3.673700	-11.070000	25.145711	0.000485	20.611661
872.238383	-2.999800	3.672900	-11.017000	25.192605	0.000482	20.622230
873.239328	-3.013900	3.673200	-11.069000	25.209662	0.000484	20.623234
874.244751	-2.997800	3.673200	-11.010000	25.232019	0.000481	20.610116
875.239648	-2.995300	3.673600	-11.003000	25.203087	0.000482	20.634178
876.241055	-3.019300	3.672300	-11.087000	25.211601	0.000484	20.627078
877.240638	-2.984900	3.672700	-10.962000	25.229051	0.000483	20.623259
878.239177	-3.007100	3.671200	-11.039000	25.239405	0.000482	20.627017
879.240053	-2.993400	3.670800	-10.987000	25.221888	0.000482	20.612747
880.244596	-3.003200	3.670700	-11.023000	25.239914	0.000482	20.613776
881.241215	-3.021200	3.671300	-11.091000	25.277628	0.000481	20.636945
882.242601	-2.998500	3.670700	-11.005000	25.246839	0.000482	20.632111
883.241774	-3.000000	3.671200	-11.012000	25.187884	0.000480	20.613222
884.241248	-3.016000	3.668500	-11.063000	25.141904	0.000482	20.613530
885.249316	-2.970700	3.669800	-10.900000	25.181112	0.000479	20.621598
886.250616	-3.001300	3.670600	-11.016000	25.187829	0.000481	20.618384
887.246043	-3.008100	3.669200	-11.036000	25.140948	0.000479	20.632487
888.245334	-2.985900	3.669100	-10.954000	25.170238	0.000478	20.604040
889.245022	-2.995900	3.667000	-10.985000	25.163969	0.000480	20.624302
890.250808	-3.006700	3.667100	-11.024000	25.189062	0.000479	20.602550
891.255164	-2.992700	3.669000	-10.979000	25.156382	0.000478	20.595344
892.243787	-3.005500	3.667700	-11.022000	25.178298	0.000480	20.625885
893.245707	-2.997400	3.668600	-10.996000	25.200999	0.000479	20.616906
894.245910	-3.020600	3.666600	-11.075000	25.251140	0.000478	20.608450
895.247559	-3.016800	3.666900	-11.061000	25.264241	0.000478	20.620183
896.253521	-2.983900	3.667100	-10.941000	25.314380	0.000476	20.603665
897.251725	-3.006600	3.667200	-11.025000	25.318832	0.000478	20.602920
898.248401	-2.998400	3.666200	-10.992000	25.302322	0.000478	20.611949
899.252900	-2.995600	3.665900	-10.980000	25.248669	0.000476	20.622567
900.250875	-3.017800	3.665400	-11.061000	25.196773	0.000476	20.626416
901.253494	-3.007000	3.665500	-11.022000	25.190456	0.000475	20.607268
902.252191	-3.013700	3.665600	-11.046000	25.199638	0.000474	20.607952
903.250030	-3.027500	3.664400	-11.093000	25.232852	0.000476	20.616643
904.248656	-3.017700	3.664300	-11.056000	25.241493	0.000477	20.619629
905.251530	-2.992800	3.665000	-10.967000	25.261464	0.000476	20.613126
906.250617	-3.011500	3.665100	-11.037000	25.236360	0.000475	20.610681
907.249537	-3.006600	3.664800	-11.018000	25.230693	0.000474	20.603093
908.250266	-3.006000	3.663500	-11.011000	25.226400	0.000476	20.627236
909.250262	-3.006800	3.664000	-11.015000	25.236894	0.000474	20.593671
910.253174	-2.998000	3.663600	-10.982000	25.224762	0.000473	20.611365
911.257086	-3.014700	3.662000	-11.038000	25.166400	0.000473	20.599713
912.258425	-3.006900	3.662900	-11.013000	25.165756	0.000474	20.609973
913.253735	-3.031200	3.662000	-11.099000	25.172731	0.000473	20.610812
914.252901	-2.984400	3.663700	-10.934000	25.167315	0.000472	20.597786
915.254961	-3.004800	3.663200	-11.007000	25.161794	0.000472	20.599356
916.254253	-3.017800	3.661100	-11.048000	25.194929	0.000473	20.589471
917.252769	-2.993900	3.661700	-10.962000	25.177786	0.000473	20.624897
918.263839	-2.981900	3.661800	-10.918000	25.230063	0.000472	20.602935
919.260296	-3.015600	3.660800	-11.038000	25.260540	0.000471	20.613146
920.256095	-3.001500	3.660600	-10.986000	25.267336	0.000470	20.601002
921.259277	-2.983000	3.661500	-10.922000	25.275941	0.000470	20.623869
922.259982	-2.981800	3.660000	-10.912000	25.296720	0.000469	20.613437
923.262820	-2.997900	3.659600	-10.970000	25.286803	0.000472	20.600632
924.260381	-2.989600	3.660800	-10.943000	25.228721	0.000470	20.612020
925.257876	-2.992400	3.659500	-10.949000	25.254702	0.000470	20.603965
926.259414	-2.955500	3.660200	-10.817000	25.206358	0.000470	20.611380
927.260910	-3.001700	3.658300	-10.980000	25.230175	0.000469	20.613006
928.264395	-2.995600	3.659000	-10.960000	25.246508	0.000469	20.615655
929.263569	-2.989100	3.657900	-10.932000	25.260560	0.000470	20.620280
930.262691	-3.003800	3.659000	-10.988000	25.283934	0.000468	20.610556
931.262458	-3.013000	3.658100	-11.021000	25.298899	0.000466	20.622264
932.264186	-3.002200	3.657800	-10.980000	25.295023	0.000468	20.587072
933.267327	-3.015900	3.657600	-11.030000	25.303604	0.000467	20.615133
934.264760	-2.975600	3.658200	-10.884000	25.279820	0.000467	20.615909
935.264595	-2.989000	3.658600	-10.935000	25.243511	0.000469	20.595572
936.265813	-3.015000	3.655900	-11.021000	25.263254	0.000468	20.615398
937.262653	-2.995800	3.656000	-10.951000	25.296840	0.000466	20.616877
938.264666	-2.989900	3.657200	-10.934000	25.352098	0.000465	20.618780
939.262031	-2.994900	3.657000	-10.952000	25.387686	0.000466	20.599983
940.261818	-2.998900	3.654500	-10.958000	25.399424	0.000466	20.619359
941.261926	-2.985500	3.655700	-10.913000	25.406409	0.000464	20.595075
942.262018	-3.005700	3.654200	-10.982000	25.372067	0.000466	20.624607
943.263582	-2.987700	3.656000	-10.923000	25.365757	0.000465	20.601197
944.266499	-3.016100	3.652900	-11.016000	25.327433	0.000464	20.642855
945.262798	-3.001500	3.654000	-10.967000	25.309267	0.000463	20.623191
946.265196	-3.015900	3.654200	-11.019000	25.274830	0.000464	20.622280
947.265328	-2.994500	3.653900	-10.940000	25.250763	0.000464	20.623246
948.267726	-2.998200	3.653600	-10.953000	25.254541	0.000463	20.612813
949.266164	-3.001700	3.653000	-10.964000	25.275971	0.000464	20.638600
950.265799	-2.979200	3.653500	-10.883000	25.293616	0.000462	20.611742
951.266697	-3.014700	3.652100	-11.010000	25.304435	0.000462	20.612648
952.265642	-3.014900	3.651800	-11.009000	25.303263	0.000461	20.632337
953.271581	-3.015600	3.652500	-11.014000	25.345765	0.000461	20.631389
954.267212	-3.007600	3.651000	-10.980000	25.338356	0.000463	20.632959
955.268046	-2.992800	3.651300	-10.927000	25.317056	0.000463	20.638600
956.265639	-3.017800	3.650900	-11.017000	25.313506	0.000461	20.619385
957.265803	-3.000900	3.650200	-10.953000	25.307391	0.000459	20.624626
958.264841	-2.996500	3.651100	-10.940000	25.314793	0.000460	20.640121
959.270177	-3.003500	3.649400	-10.960000	25.389233	0.000461	20.635681
960.267673	-2.999600	3.649400	-10.946000	25.400811	0.000461	20.633556
961.268493	-3.008500	3.649900	-10.980000	25.401591	0.000459	20.627226
962.272878	-2.991700	3.649400	-10.917000	25.399873	0.000459	20.629769
963.267010	-2.995300	3.650400	-10.934000	25.402658	0.000459	20.640627
964.272390	-3.002800	3.648200	-10.954000	25.386823	0.000458	20.636580
965.271235	-3.014700	3.648900	-10.999000	25.435460	0.000459	20.635158
966.272783	-2.994800	3.649100	-10.927000	25.446841	0.000458	20.637104
967.269399	-3.011600	3.648100	-10.985000	25.359533	0.000458	20.634782
968.270919	-3.003600	3.649500	-10.960000	25.347881	0.000459	20.629720
969.273802	-3.015400	3.647700	-10.998000	25.360103	0.000458	20.633458
970.269654	-2.992000	3.647300	-10.912000	25.388460	0.000458	20.644389
971.272336	-2.986900	3.648200	-10.895000	25.409906	0.000458	20.641741
972.274030	-3.005200	3.646600	-10.958000	25.398009	0.000456	20.602763
973.274328	-2.981900	3.646500	-10.872000	25.416915	0.000455	20.655419
974.272858	-2.978300	3.646300	-10.858000	25.412064	0.000457	20.633002
975.274507	-2.992700	3.647000	-10.914000	25.427702	0.000453	20.631160
976.270040	-2.996200	3.646100	-10.923000	25.400486	0.000455	20.637498
977.272485	-3.007900	3.645400	-10.964000	25.375091	0.000453	20.648510
978.282150	-3.013900	3.645900	-10.987000	25.284097	0.000455	20.646760
979.273780	-3.000900	3.644100	-10.935000	25.265133	0.000453	20.637202
980.274317	-2.999700	3.644500	-10.932000	25.319540	0.000454	20.637775
981.269769	-2.994700	3.644300	-10.913000	25.368707	0.000454	20.660119
982.274168	-2.995200	3.645100	-10.917000	25.430965	0.000453	20.649138
983.277704	-3.004600	3.645500	-10.952000	25.384585	0.000454	20.632910
984.276470	-3.005200	3.644700	-10.952000	25.351560	0.000451	20.637683
985.278697	-2.977500	3.644000	-10.848000	25.353376	0.000450	20.649465
986.277391	-3.005400	3.643300	-10.948000	25.327826	0.000450	20.663167
987.270913	-3.013700	3.642300	-10.976000	25.360539	0.000451	20.628205
988.275445	-2.974300	3.643600	-10.836000	25.333493	0.000450	20.642302
989.278477	-3.018600	3.642500	-10.994000	25.320032	0.000453	20.643011
990.274140	-2.989000	3.641400	-10.883000	25.328777	0.000450	20.647525
991.281485	-3.009400	3.641300	-10.957000	25.316107	0.000452	20.652822
992.277483	-2.985800	3.643000	-10.876000	25.303639	0.000450	20.651209
993.278806	-3.026800	3.640800	-11.019000	25.350132	0.000451	20.654269
994.272531	-3.017700	3.640500	-10.985000	25.363564	0.000451	20.647840
995.277708	-3.038300	3.640700	-11.060000	25.375233	0.000448	20.660982
996.273095	-3.035400	3.638300	-11.043000	25.381907	0.000450	20.660570
997.275512	-2.976200	3.641500	-10.836000	25.405639	0.000447	20.633663
998.279277	-2.974800	3.639400	-10.826000	25.417175	0.000449	20.665638
999.275320	-2.981800	3.641400	-10.856000	25.435247	0.000448	20.639686
1000.275558	-3.007900	3.638400	-10.943000	25.445286	0.000446	20.663046
1001.276306	-2.976800	3.640400	-10.836000	25.425436	0.000447	20.678677
1002.276705	-3.008500	3.638000	-10.944000	25.426999	0.000446	20.656062
1003.279985	-3.008600	3.638200	-10.945000	25.369016	0.000447	20.652367
1004.279372	-2.990500	3.638500	-10.879000	25.363423	0.000448	20.649596
1005.278926	-2.993500	3.637700	-10.889000	25.373395	0.000444	20.651548
1006.282712	-2.995900	3.636700	-10.894000	25.391903	0.000447	20.684835
1007.281014	-3.002700	3.638700	-10.924000	25.393351	0.000446	20.643136
1008.278951	-2.993000	3.636900	-10.885000	25.417433	0.000445	20.662578
1009.275612	-3.009600	3.635500	-10.941000	25.422204	0.000444	20.669741
1010.279348	-3.004000	3.637000	-10.925000	25.457495	0.000443	20.659659
1011.279146	-3.006400	3.636300	-10.931000	25.483017	0.000445	20.668694
1012.287129	-2.992700	3.635400	-10.878000	25.518258	0.000445	20.677531
1013.281484	-2.988400	3.635900	-10.865000	25.502284	0.000443	20.665757
1014.281445	-2.986900	3.635500	-10.857000	25.478376	0.000443	20.669248
1015.282409	-2.997500	3.635800	-10.898000	25.466522	0.000442	20.665405
1016.283262	-3.008600	3.633300	-10.930000	25.445127	0.000442	20.682803
1017.282580	-3.016400	3.633300	-10.959000	25.413650	0.000442	20.680593
1018.280725	-2.992100	3.634300	-10.874000	25.453381	0.000443	20.659795
1019.286589	-3.004300	3.634200	-10.917000	25.445459	0.000442	20.663220
1020.295982	-2.984300	3.633900	-10.844000	25.425130	0.000441	20.680267
1021.285881	-3.004200	3.634500	-10.918000	25.388029	0.000439	20.702757
1022.284586	-2.996000	3.632200	-10.881000	25.393468	0.000441	20.662696
1023.283339	-3.014900	3.632300	-10.950000	25.402097	0.000440	20.680372
1024.282686	-3.007600	3.631900	-10.921000	25.444717	0.000439	20.687133
1025.285760	-2.991500	3.632600	-10.865000	25.454381	0.000438	20.662696
1026.290489	-2.997800	3.630300	-10.882000	25.442412	0.000440	20.674860
1027.290821	-2.996600	3.631400	-10.880000	25.384411	0.000440	20.689641
1028.286931	-3.004200	3.630800	-10.907000	25.379315	0.000438	20.679781
1029.283758	-3.006500	3.629300	-10.911000	25.368454	0.000438	20.684049
1030.288099	-3.005200	3.629800	-10.908000	25.366792	0.000437	20.698503
1031.287326	-3.003100	3.629800	-10.900000	25.382253	0.000436	20.675618
1032.285900	-3.002600	3.630000	-10.898000	25.402638	0.000438	20.708418
1033.289470	-3.007900	3.628400	-10.913000	25.463544	0.000435	20.690392
1034.287518	-3.002200	3.630400	-10.898000	25.437605	0.000436	20.665291
1035.295130	-3.010400	3.627100	-10.919000	25.450354	0.000438	20.670033
1036.290714	-3.020900	3.628400	-10.960000	25.452764	0.000435	20.700431
1037.300344	-3.002100	3.628700	-10.893000	25.451047	0.000434	20.684954
1038.289821	-2.998900	3.627700	-10.878000	25.484375	0.000439	20.683335
1039.291415	-2.966400	3.629600	-10.766000	25.511148	0.000436	20.692678
1040.290737	-3.017200	3.626900	-10.942000	25.539127	0.000435	20.697069
1041.292997	-3.016200	3.627400	-10.940000	25.540169	0.000435	20.705703
1042.289747	-3.017400	3.625100	-10.938000	25.527250	0.000435	20.685614
1043.292782	-2.996700	3.627000	-10.868000	25.497878	0.000435	20.682670
1044.292161	-2.998900	3.626200	-10.874000	25.497032	0.000433	20.708375
1045.296505	-2.993800	3.626000	-10.854000	25.484308	0.000435	20.686587
1046.299233	-3.005400	3.625600	-10.896000	25.448723	0.000433	20.688312
1047.289842	-2.999400	3.625500	-10.873000	25.427254	0.000434	20.696626
1048.296637	-3.001200	3.624800	-10.877000	25.442665	0.000434	20.708308
1049.293650	-3.010500	3.624600	-10.910000	25.477753	0.000431	20.715094
1050.294743	-2.990900	3.623500	-10.837000	25.450391	0.000432	20.680503
1051.294315	-2.986400	3.624900	-10.824000	25.445197	0.000431	20.698522
1052.293771	-2.992800	3.624800	-10.847000	25.443389	0.000429	20.707138
1053.293820	-2.996600	3.624600	-10.861000	25.513067	0.000430	20.687967
1054.293256	-2.980100	3.624200	-10.800000	25.536546	0.000429	20.714392
1055.296713	-3.033900	3.622700	-10.989000	25.556480	0.000428	20.686994
1056.298997	-3.005300	3.622500	-10.886000	25.506629	0.000429	20.705685
1057.298841	-2.996500	3.621800	-10.851000	25.484615	0.000428	20.703967
1058.296190	-2.989000	3.621900	-10.825000	25.483517	0.000430	20.696225
1059.298873	-3.015500	3.620600	-10.917000	25.462423	0.000427	20.718192
1060.296032	-3.014900	3.620700	-10.915000	25.419111	0.000427	20.725435
1061.305170	-2.993900	3.620300	-10.838000	25.425838	0.000428	20.729345
1062.301944	-3.010700	3.619200	-10.895000	25.460590	0.000427	20.701651
1063.299107	-2.986800	3.619800	-10.810000	25.436079	0.000426	20.732990
1064.308813	-2.972900	3.620600	-10.762000	25.464766	0.000425	20.716752
1065.309563	-3.012400	3.620500	-10.906000	25.531911	0.000426	20.723489
1066.303516	-2.991100	3.620300	-10.829000	25.558026	0.000424	20.708937
1067.305990	-2.998200	3.618100	-10.847000	25.519285	0.000425	20.705593
1068.305852	-3.009200	3.618400	-10.887000	25.544113	0.000426	20.701128
1069.307930	-2.997300	3.618700	-10.844000	25.516851	0.000427	20.723064
1070.311082	-2.989800	3.620400	-10.823000	25.527515	0.000425	20.718599
1071.311992	-3.007100	3.618200	-10.879000	25.553451	0.000424	20.710981
1072.306012	-3.002500	3.618400	-10.864000	25.603902	0.000425	20.727984
1073.313317	-3.000000	3.617500	-10.852000	25.605490	0.000423	20.717725
1074.303759	-3.014200	3.617400	-10.903000	25.626839	0.000424	20.734426
1075.312113	-2.986400	3.616500	-10.800000	25.652885	0.000424	20.720755
1076.305870	-2.976200	3.617900	-10.766000	25.673853	0.000422	20.727591
1077.308812	-2.983900	3.616500	-10.791000	25.676213	0.000424	20.735178
1078.308348	-3.002600	3.616100	-10.857000	25.626478	0.000424	20.728848
1079.311173	-2.995200	3.614900	-10.827000	25.584509	0.000421	20.726052
1080.309825	-2.993300	3.615100	-10.820000	25.565673	0.000421	20.715195
1081.308434	-3.016700	3.614900	-10.904000	25.575962	0.000419	20.734064
1082.306748	-3.026000	3.614300	-10.936000	25.545948	0.000422	20.720990
1083.306374	-2.991300	3.614200	-10.810000	25.530619	0.000419	20.743529
1084.310215	-2.996000	3.615000	-10.830000	25.569904	0.000421	20.746473
1085.308768	-3.003900	3.612800	-10.852000	25.577489	0.000419	20.727537
1086.315385	-2.984400	3.613600	-10.783000	25.566385	0.000420	20.730610
1087.313561	-2.973300	3.613700	-10.744000	25.585277	0.000418	20.735358
1088.311263	-3.014800	3.611300	-10.886000	25.549714	0.000418	20.741368
1089.313877	-3.018700	3.612500	-10.904000	25.565577	0.000416	20.742126
1090.311315	-3.000500	3.612800	-10.839000	25.566399	0.000417	20.727778
1091.313343	-2.990900	3.612500	-10.803000	25.534968	0.000420	20.727507
1092.312301	-2.973100	3.613100	-10.741000	25.518915	0.000417	20.733672
1093.308101	-3.017200	3.611500	-10.895000	25.537010	0.000417	20.755638
1094.314146	-3.017700	3.609900	-10.893000	25.577240	0.000415	20.743408
1095.311790	-2.984600	3.611100	-10.777000	25.595033	0.000416	20.737570
1096.314501	-2.988300	3.611000	-10.790000	25.636310	0.000414	20.752947
1097.314592	-2.996000	3.609600	-10.814000	25.624538	0.000417	20.744443
1098.313674	-2.980900	3.609600	-10.758000	25.617537	0.000415	20.749266
1099.314273	-2.984400	3.609400	-10.771000	25.595525	0.000412	20.748970
1100.314548	-2.984800	3.609900	-10.774000	25.576616	0.000413	20.751791
1101.317206	-2.991400	3.609100	-10.796000	25.538778	0.000414	20.769268
1102.310922	-2.989500	3.609700	-10.790000	25.588279	0.000414	20.731734
1103.315863	-2.973800	3.608400	-10.730000	25.585575	0.000413	20.761737
1104.313267	-3.004100	3.606800	-10.835000	25.570142	0.000413	20.719683
1105.314724	-2.988300	3.607700	-10.780000	25.599641	0.000415	20.745043
1106.313144	-3.000800	3.607400	-10.824000	25.643050	0.000413	20.760666
1107.313658	-2.991800	3.607200	-10.791000	25.601861	0.000412	20.745376
1108.315289	-2.974100	3.606900	-10.726000	25.579727	0.000411	20.757286
1109.311396	-3.015600	3.606100	-10.873000	25.536241	0.000410	20.738744
1110.319051	-2.995900	3.606200	-10.803000	25.555655	0.000411	20.766302
1111.311970	-2.986200	3.605300	-10.765000	25.600580	0.000411	20.751202
1112.315155	-2.993500	3.604900	-10.790000	25.571585	0.000410	20.759541
1113.311634	-3.006500	3.604400	-10.836000	25.557998	0.000411	20.748266
1114.316730	-2.988600	3.604000	-10.770000	25.537297	0.000406	20.763039
1115.315857	-3.013000	3.604700	-10.860000	25.572389	0.000408	20.764615
1116.313739	-2.984900	3.605600	-10.762000	25.614775	0.000410	20.774942
1117.319511	-3.015200	3.603400	-10.864000	25.627927	0.000409	20.759702
1118.320798	-3.000300	3.604400	-10.814000	25.621636	0.000409	20.769505
1119.320240	-2.992800	3.604600	-10.787000	25.589889	0.000407	20.763698
1120.318528	-2.998500	3.603000	-10.803000	25.593764	0.000409	20.760478
1121.314701	-2.975800	3.603400	-10.721000	25.595879	0.000408	20.756912
1122.317858	-3.025000	3.601800	-10.895000	25.603513	0.000406	20.759838
1123.323604	-2.978300	3.603400	-10.731000	25.584849	0.000405	20.752473
1124.315990	-2.994800	3.602100	-10.787000	25.608381	0.000406	20.768995
1125.320747	-3.011400	3.600100	-10.841000	25.632490	0.000405	20.774716
1126.320531	-3.000900	3.601800	-10.808000	25.678430	0.000405	20.758268
1127.316195	-2.999300	3.601300	-10.800000	25.655874	0.000404	20.778762
1128.321284	-2.968800	3.602000	-10.693000	25.677443	0.000404	20.762493
1129.319878	-3.034500	3.598800	-10.919000	25.697816	0.000404	20.782007
1130.319136	-2.989700	3.600800	-10.765000	25.651405	0.000405	20.767635
1131.320919	-3.006600	3.599300	-10.821000	25.694973	0.000402	20.768245
1132.321863	-3.006200	3.598800	-10.818000	25.683832	0.000401	20.767013
1133.317883	-2.989600	3.598400	-10.757000	25.664655	0.000402	20.793271
1134.322915	-2.965500	3.598600	-10.671000	25.655391	0.000401	20.768319
1135.319080	-2.994200	3.598300	-10.773000	25.604208	0.000402	20.776183
1136.318009	-2.991500	3.598900	-10.765000	25.604785	0.000403	20.781504
1137.325150	-2.994100	3.598200	-10.772000	25.599444	0.000402	20.800323
1138.319140	-2.980300	3.598200	-10.723000	25.596097	0.000400	20.771831
1139.326616	-2.990500	3.597400	-10.758000	25.553956	0.000399	20.772182
1140.322100	-2.987600	3.597200	-10.746000	25.589942	0.000401	20.789357
1141.323230	-3.014500	3.595500	-10.838000	25.660733	0.000401	20.773685
1142.319978	-2.974000	3.597800	-10.699000	25.650924	0.000398	20.779954
1143.324592	-3.006500	3.596700	-10.812000	25.629306	0.000401	20.793329
1144.319499	-3.009300	3.595700	-10.819000	25.640244	0.000399	20.785349
1145.328579	-3.015800	3.594600	-10.839000	25.670293	0.000398	20.785183
1146.321996	-3.006500	3.595000	-10.806000	25.669527	0.000398	20.800061
1147.319446	-3.020200	3.594000	-10.853000	25.663145	0.000397	20.779901
1148.328179	-2.988600	3.594700	-10.742000	25.660050	0.000397	20.776318
1149.319443	-2.981000	3.595900	-10.719000	25.639075	0.000398	20.771847
1150.321419	-3.002300	3.592900	-10.786000	25.618334	0.000395	20.786577
1151.323434	-3.015700	3.593400	-10.835000	25.605520	0.000397	20.776553
1152.323979	-3.010400	3.594200	-10.819000	25.644901	0.000398	20.780543
1153.325093	-3.022500	3.594200	-10.863000	25.667935	0.000395	20.801781
1154.324229	-3.016600	3.593000	-10.838000	25.659731	0.000396	20.779317
1155.325625	-3.005300	3.591200	-10.792000	25.660235	0.000394	20.785987
1156.325526	-2.989200	3.593400	-10.740000	25.698155	0.000393	20.793727
1157.324968	-2.988300	3.592200	-10.734000	25.663994	0.000394	20.789762
1158.324534	-2.977800	3.592100	-10.696000	25.672320	0.000394	20.804763
1159.328528	-2.980500	3.591300	-10.703000	25.667379	0.000394	20.792687
1160.328570	-2.986800	3.591200	-10.725000	25.642934	0.000395	20.787103
1161.330511	-3.007400	3.591600	-10.800000	25.659507	0.000391	20.808015
1162.327790	-2.990500	3.592200	-10.742000	25.660059	0.000393	20.783913
1163.326330	-3.010900	3.591800	-10.813000	25.649152	0.000392	20.792399
1164.336841	-3.016100	3.590500	-10.828000	25.662021	0.000391	20.791100
1165.328664	-3.017900	3.590000	-10.834000	25.684467	0.000392	20.803687
1166.327561	-2.989800	3.590500	-10.734000	25.675320	0.000391	20.789283
1167.326584	-2.996600	3.588900	-10.754000	25.698703	0.000391	20.802813
1168.329196	-3.002700	3.588100	-10.772000	25.690353	0.000392	20.780675
1169.327782	-2.993700	3.587200	-10.738000	25.671924	0.000391	20.804839
1170.337734	-2.983900	3.588600	-10.707000	25.720180	0.000387	20.796884
1171.334050	-2.974300	3.588800	-10.674000	25.739835	0.000389	20.800505
1172.332074	-2.976300	3.587900	-10.678000	25.753752	0.000389	20.780818
1173.327178	-2.986700	3.586500	-10.711000	25.753850	0.000387	20.772856
1174.328485	-3.010800	3.587800	-10.801000	25.714644	0.000387	20.793220
1175.329023	-2.991400	3.587300	-10.730000	25.701164	0.000387	20.793430
1176.329863	-3.004500	3.585500	-10.771000	25.682973	0.000389	20.775634
1177.332179	-2.988600	3.585900	-10.716000	25.693384	0.000387	20.794151
1178.328954	-2.999900	3.585000	-10.754000	25.699398	0.000385	20.802088
1179.330202	-3.005500	3.584200	-10.771000	25.704101	0.000385	20.794484
1180.336131	-2.978500	3.585200	-10.677000	25.731610	0.000384	20.769009
1181.333226	-3.018800	3.583900	-10.818000	25.692135	0.000385	20.776775
1182.337662	-2.991900	3.584200	-10.723000	25.703838	0.000386	20.782366
1183.334457	-2.987500	3.584100	-10.706000	25.687861	0.000386	20.761103
1184.333094	-2.979600	3.584700	-10.680000	25.651965	0.000385	20.771517
1185.336236	-3.016400	3.584000	-10.810000	25.691963	0.000384	20.767119
1186.329813	-3.018700	3.582100	-10.813000	25.699425	0.000385	20.784098
1187.333970	-3.019500	3.582100	-10.815000	25.738509	0.000385	20.778309
1188.335360	-2.997500	3.582400	-10.737000	25.718584	0.000383	20.759244
1189.331948	-3.023300	3.583300	-10.831000	25.722084	0.000382	20.763234
1190.330558	-3.018400	3.583500	-10.816000	25.725102	0.000384	20.763894
1191.340077	-3.008400	3.582500	-10.777000	25.749796	0.000382	20.772577
1192.341376	-2.996300	3.581800	-10.731000	25.776426	0.000382	20.766610
1193.335021	-2.971300	3.582600	-10.644000	25.770370	0.000380	20.788976
1194.336249	-2.994200	3.582500	-10.725000	25.741998	0.000380	20.747200
1195.336572	-3.005700	3.579700	-10.758000	25.726126	0.000382	20.774881
1196.332990	-2.984400	3.580500	-10.684000	25.654143	0.000381	20.779394
1197.335458	-2.994800	3.579900	-10.720000	25.645352	0.000378	20.773409
1198.335905	-3.001000	3.579100	-10.741000	25.668117	0.000378	20.774463
1199.336176	-3.008500	3.579300	-10.768000	25.723692	0.000380	20.761530
1200.332682	-2.998800	3.579400	-10.733000	25.754701	0.000379	20.747632
1201.336077	-3.012500	3.577200	-10.775000	25.774509	0.000379	20.767529
1202.336341	-3.019200	3.577500	-10.801000	25.791926	0.000378	20.751832
1203.336080	-3.003900	3.577900	-10.747000	25.817569	0.000376	20.763841
1204.335956	-3.022700	3.576400	-10.810000	25.837051	0.000379	20.769187
1205.338466	-2.976200	3.579000	-10.650000	25.854980	0.000377	20.746894
1206.336493	-2.994200	3.576500	-10.708000	25.810072	0.000377	20.742085
1207.337309	-2.979600	3.576800	-10.657000	25.786023	0.000376	20.764396
1208.341047	-2.984100	3.576400	-10.672000	25.758418	0.000377	20.751365
1209.336471	-2.986000	3.576500	-10.678000	25.731150	0.000374	20.775660
1210.340714	-3.004300	3.576400	-10.743000	25.714817	0.000374	20.741235
1211.336318	-3.010800	3.575800	-10.765000	25.686916	0.000374	20.752092
1212.345264	-2.993300	3.575400	-10.701000	25.680957	0.000375	20.739468
1213.340301	-3.001400	3.574400	-10.727000	25.698700	0.000375	20.738323
1214.346364	-2.989700	3.574800	-10.687000	25.722083	0.000374	20.760388
1215.342170	-2.991700	3.574600	-10.693000	25.762435	0.000374	20.744969
1216.343626	-2.999700	3.573500	-10.719000	25.741112	0.000371	20.741569
1217.343649	-3.010500	3.572800	-10.755000	25.747630	0.000371	20.746693
1218.345179	-3.010500	3.573300	-10.757000	25.756998	0.000371	20.753732
1219.347977	-3.015400	3.572300	-10.771000	25.748182	0.000373	20.722116
1220.348157	-3.007400	3.573300	-10.745000	25.718338	0.000370	20.756152
1221.345376	-3.008300	3.571700	-10.744000	25.697053	0.000372	20.740462
1222.345539	-3.008100	3.572700	-10.747000	25.697458	0.000371	20.742766
1223.345335	-2.992400	3.572200	-10.688000	25.751732	0.000371	20.736114
1224.348299	-2.977600	3.573100	-10.637000	25.774397	0.000369	20.729956
1225.346879	-2.981900	3.571400	-10.649000	25.773753	0.000371	20.753967
1226.343705	-2.984800	3.571200	-10.658000	25.734384	0.000370	20.747613
1227.346304	-2.985600	3.569300	-10.656000	25.711197	0.000370	20.733806
1228.349746	-2.971700	3.572100	-10.614000	25.686576	0.000366	20.741319
1229.346242	-2.988100	3.570300	-10.668000	25.697280	0.000367	20.731681
1230.349218	-2.986100	3.568900	-10.656000	25.718456	0.000369	20.743468
1231.345884	-2.976700	3.569800	-10.625000	25.722527	0.000367	20.733806
1232.343952	-2.985900	3.569200	-10.656000	25.722527	0.000368	20.729064
1233.344618	-2.999300	3.567800	-10.700000	25.738895	0.000365	20.738867
1234.344165	-3.003400	3.568200	-10.716000	25.776194	0.000364	20.736977
1235.348803	-2.992100	3.566400	-10.669000	25.741912	0.000366	20.740476
1236.346736	-3.012100	3.566500	-10.742000	25.740748	0.000366	20.720339
1237.344639	-3.004500	3.565800	-10.713000	25.735923	0.000366	20.723553
1238.348524	-2.978100	3.566600	-10.621000	25.709543	0.000364	20.730247
1239.344241	-2.999100	3.567500	-10.698000	25.711375	0.000364	20.736830
1240.349942	-2.978300	3.565800	-10.618000	25.719586	0.000364	20.746025
1241.352487	-2.995000	3.566400	-10.681000	25.765864	0.000364	20.745569
1242.344857	-3.011500	3.565400	-10.737000	25.748748	0.000362	20.721737
1243.349394	-2.986700	3.565200	-10.647000	25.782141	0.000363	20.717346
1244.348972	-3.011500	3.565400	-10.736000	25.842162	0.000361	20.726903
1245.348029	-2.997700	3.563700	-10.682000	25.802886	0.000362	20.733918
1246.351047	-2.981700	3.564900	-10.629000	25.797131	0.000362	20.717704
1247.347538	-3.014700	3.563900	-10.743000	25.801592	0.000362	20.731670
1248.349830	-2.999100	3.563500	-10.686000	25.742398	0.000360	20.737644
1249.348150	-3.006300	3.564700	-10.715000	25.668927	0.000362	20.727385
1250.348012	-2.963300	3.563900	-10.560000	25.641741	0.000361	20.730426
1251.349966	-3.018500	3.562400	-10.752000	25.656334	0.000360	20.725642
1252.350035	-3.020600	3.562900	-10.761000	25.696559	0.000362	20.725266
1253.346222	-3.015100	3.562900	-10.742000	25.757283	0.000360	20.722249
1254.350225	-3.019600	3.561700	-10.755000	25.755322	0.000361	20.731659
1255.347344	-2.996400	3.563300	-10.677000	25.791540	0.000357	20.730107
1256.350122	-2.987800	3.561800	-10.641000	25.837903	0.000360	20.724048
1257.352213	-3.009500	3.561700	-10.719000	25.862625	0.000358	20.720907
1258.348004	-2.989300	3.561500	-10.645000	25.840784	0.000358	20.717458
1259.349085	-2.995300	3.560400	-10.663000	25.850899	0.000360	20.726671
1260.356054	-2.987500	3.559200	-10.632000	25.835396	0.000358	20.721529
1261.353442	-2.974600	3.561000	-10.592000	25.802875	0.000356	20.709724
1262.355626	-2.981600	3.560100	-10.614000	25.789739	0.000357	20.718340
1263.353632	-2.977800	3.560500	-10.601000	25.775578	0.000357	20.726401
1264.350707	-2.984800	3.558700	-10.621000	25.775791	0.000358	20.721873
1265.355371	-2.998700	3.558000	-10.668000	25.784025	0.000356	20.718290
1266.355079	-2.982900	3.558900	-10.615000	25.769392	0.000355	20.714497
1267.356287	-3.015000	3.557800	-10.726000	25.785637	0.000355	20.722281
1268.355842	-3.012000	3.557800	-10.715000	25.779721	0.000355	20.704957
1269.350232	-3.002200	3.557500	-10.679000	25.824294	0.000353	20.751156
1270.350588	-2.999900	3.557500	-10.671000	25.846602	0.000353	20.718087
1271.355685	-3.005000	3.556600	-10.687000	25.874946	0.000352	20.708153
1272.351880	-3.019900	3.554900	-10.735000	25.881554	0.000353	20.710524
1273.353402	-2.997000	3.556100	-10.657000	25.901213	0.000350	20.720791
1274.354754	-2.994000	3.555700	-10.644000	25.889364	0.000355	20.718371
1275.355741	-3.004300	3.555800	-10.682000	25.854461	0.000354	20.722189
1276.357899	-2.991000	3.555900	-10.635000	25.854118	0.000352	20.720896
1277.356781	-3.022300	3.554900	-10.743000	25.820997	0.000351	20.715126
1278.362134	-3.003600	3.554800	-10.676000	25.807235	0.000351	20.702723
1279.356620	-3.003400	3.553500	-10.672000	25.811735	0.000350	20.715779
1280.356462	-3.015400	3.554000	-10.716000	25.813403	0.000350	20.735473
1281.357934	-2.991000	3.553100	-10.627000	25.800732	0.000351	20.727960
1282.353077	-2.988700	3.554700	-10.623000	25.791126	0.000348	20.714518
1283.356322	-2.997400	3.552500	-10.648000	25.794301	0.000349	20.720552
1284.357667	-3.014300	3.552300	-10.706000	25.777535	0.000348	20.732161
1285.356319	-2.993000	3.552600	-10.632000	25.793910	0.000348	20.717788
1286.355159	-2.982900	3.551800	-10.594000	25.798084	0.000348	20.707282
1287.357261	-2.993800	3.551400	-10.632000	25.803952	0.000348	20.713176
1288.353305	-2.981700	3.550900	-10.588000	25.786339	0.000348	20.718718
1289.355162	-3.007200	3.550400	-10.676000	25.828455	0.000349	20.709340
1290.354095	-2.998500	3.550700	-10.646000	25.803860	0.000345	20.718300
1291.354029	-2.968700	3.551000	-10.541000	25.798098	0.000346	20.706347
1292.354667	-3.011400	3.550300	-10.691000	25.808710	0.000347	20.713214
1293.353502	-3.007100	3.548900	-10.672000	25.804420	0.000346	20.691359
1294.358063	-3.004300	3.548800	-10.660000	25.795923	0.000346	20.701791
1295.360590	-3.013000	3.548000	-10.689000	25.785937	0.000344	20.693182
1296.356262	-2.993600	3.548500	-10.621000	25.742834	0.000343	20.696828
1297.358809	-3.010900	3.547800	-10.681000	25.765027	0.000344	20.716751
1298.359015	-3.009000	3.547200	-10.672000	25.798542	0.000344	20.698732
1299.358793	-3.004200	3.547300	-10.656000	25.786196	0.000343	20.685855
1300.361143	-2.990400	3.548200	-10.610000	25.794650	0.000341	20.702883
1301.354587	-3.002300	3.546400	-10.647000	25.801926	0.000345	20.696442
1302.359755	-3.007200	3.546600	-10.665000	25.797856	0.000342	20.710372
1303.362565	-3.001100	3.545600	-10.640000	25.776541	0.000342	20.701289
1304.358274	-3.010100	3.544400	-10.669000	25.768370	0.000340	20.697822
1305.365021	-2.991800	3.546200	-10.609000	25.774985	0.000342	20.683129
1306.360817	-3.000400	3.545500	-10.637000	25.710786	0.000341	20.715374
1307.365173	-2.995700	3.544400	-10.617000	25.680947	0.000342	20.675443
1308.359613	-2.998200	3.544300	-10.625000	25.676552	0.000338	20.678615
1309.361943	-2.990500	3.545200	-10.600000	25.673450	0.000339	20.701106
1310.367138	-3.013000	3.543400	-10.676000	25.716237	0.000342	20.712788
1311.367173	-2.986900	3.545000	-10.588000	25.732085	0.000340	20.700256
1312.362699	-3.012600	3.543600	-10.674000	25.748239	0.000340	20.687558
1313.365085	-2.991400	3.543100	-10.598000	25.765772	0.000337	20.700902
1314.369983	-2.989000	3.542500	-10.587000	25.740043	0.000338	20.696870
1315.361308	-3.012000	3.541900	-10.667000	25.770758	0.000340	20.683624
1316.368698	-3.001800	3.542000	-10.632000	25.758380	0.000338	20.683993
1317.362809	-2.961400	3.542000	-10.488000	25.782031	0.000340	20.680248
1318.366691	-2.989700	3.542600	-10.591000	25.851621	0.000339	20.677132
1319.366544	-2.999400	3.540100	-10.618000	25.874913	0.000336	20.697214
1320.367655	-3.021000	3.541000	-10.696000	25.804395	0.000338	20.710776
1321.363750	-3.030900	3.540000	-10.729000	25.803475	0.000337	20.721707
1322.366631	-3.000300	3.540600	-10.622000	25.806828	0.000335	20.701840
1323.363927	-3.019400	3.539400	-10.686000	25.824618	0.000338	20.716392
1324.363777	-3.001100	3.540300	-10.624000	25.829590	0.000336	20.705265
1325.366856	-2.985300	3.539100	-10.564000	25.849935	0.000335	20.697252
1326.363487	-2.991300	3.539400	-10.586000	25.856243	0.000335	20.694105
1327.370106	-3.000200	3.539200	-10.617000	25.846712	0.000336	20.695911
1328.370684	-2.990200	3.539000	-10.581000	25.847201	0.000337	20.683125
1329.368998	-3.023300	3.537000	-10.692000	25.866438	0.000335	20.676844
1330.373421	-2.984500	3.539000	-10.561000	25.846607	0.000332	20.692960
1331.367423	-2.992000	3.536700	-10.581000	25.826709	0.000333	20.678660
1332.369432	-2.990400	3.537900	-10.578000	25.821052	0.000336	20.685780
1333.365429	-3.004300	3.537000	-10.625000	25.837093	0.000332	20.688619
1334.367971	-2.985600	3.535900	-10.556000	25.862484	0.000332	20.693736
1335.367677	-3.001200	3.535400	-10.610000	25.852872	0.000331	20.682183
1336.372612	-3.004600	3.536600	-10.626000	25.839607	0.000332	20.671702
1337.389066	-3.015300	3.535000	-10.657000	25.888346	0.000333	20.676567
1338.374458	-2.995500	3.535500	-10.590000	25.889297	0.000330	20.678945
1339.372401	-2.998200	3.533900	-10.594000	25.897369	0.000330	20.688478
1340.373112	-2.979600	3.534900	-10.531000	25.948073	0.000330	20.702908
1341.373230	-3.011600	3.532900	-10.639000	25.942784	0.000331	20.708025
1342.373362	-3.004400	3.535000	-10.620000	25.911357	0.000330	20.684512
1343.370570	-2.962800	3.533600	-10.468000	25.895642	0.000329	20.683423
1344.374837	-3.013400	3.531600	-10.642000	25.858617	0.000328	20.684161
1345.373533	-2.991700	3.532900	-10.568000	25.797800	0.000327	20.694667
1346.369560	-2.995000	3.533500	-10.581000	25.801632	0.000330	20.680972
1347.372858	-3.025800	3.532000	-10.686000	25.829953	0.000329	20.674807
1348.373146	-2.982700	3.531000	-10.531000	25.849729	0.000328	20.695148
1349.374441	-2.987500	3.532000	-10.551000	25.911445	0.000328	20.677961
1350.371733	-3.008000	3.529700	-10.616000	25.849184	0.000327	20.674210
1351.370453	-2.988100	3.530200	-10.547000	25.853033	0.000327	20.674284
1352.369619	-2.980300	3.530800	-10.521000	25.883940	0.000327	20.690160
1353.372455	-3.003400	3.529300	-10.599000	25.884510	0.000326	20.685991
1354.371477	-2.990000	3.528900	-10.551000	25.893006	0.000327	20.700217
1355.373905	-3.025800	3.528600	-10.675000	25.889678	0.000326	20.683595
1356.376207	-3.023100	3.528600	-10.666000	25.895887	0.000324	20.661382
1357.372641	-2.975200	3.529000	-10.498000	25.842575	0.000323	20.691755
1358.381111	-3.018100	3.528200	-10.648000	25.867130	0.000326	20.689869
1359.375182	-2.992700	3.526300	-10.552000	25.869700	0.000324	20.691028
1360.381227	-3.005600	3.526400	-10.597000	25.951947	0.000325	20.679770
1361.377419	-3.011000	3.526400	-10.616000	25.941913	0.000325	20.685338
1362.378312	-3.002000	3.528300	-10.591000	25.914036	0.000324	20.662070
1363.375458	-3.013100	3.526800	-10.626000	25.932694	0.000323	20.656633
1364.381847	-2.995300	3.525400	-10.559000	25.924443	0.000323	20.652611
1365.379025	-2.986900	3.525800	-10.531000	25.928667	0.000322	20.689574
1366.378133	-3.001800	3.524400	-10.579000	25.846338	0.000321	20.659970
1367.383193	-3.001300	3.525700	-10.581000	25.806786	0.000322	20.671923
1368.383628	-3.005900	3.525200	-10.596000	25.833471	0.000322	20.668857
1369.383398	-3.010600	3.524000	-10.608000	25.868302	0.000321	20.676346
1370.382582	-3.008300	3.524000	-10.600000	25.910197	0.000320	20.688088
1371.379850	-3.047100	3.521900	-10.729000	25.868018	0.000321	20.659938
1372.384484	-3.021500	3.522700	-10.642000	25.817489	0.000320	20.695479
1373.381855	-3.000100	3.522800	-10.568000	25.811524	0.000321	20.676209
1374.384429	-3.012100	3.524100	-10.614000	25.811272	0.000318	20.662204
1375.384779	-2.989400	3.522200	-10.528000	25.862152	0.000319	20.688187
1376.397930	-2.981200	3.522700	-10.501000	25.840464	0.000319	20.673511
1377.387484	-2.981500	3.521600	-10.498000	25.826076	0.000319	20.670437
1378.384566	-3.003100	3.521200	-10.574000	25.813349	0.000320	20.674723
1379.389136	-3.012000	3.521800	-10.606000	25.792863	0.000318	20.665523
1380.387568	-3.011100	3.520300	-10.600000	25.803989	0.000319	20.671484
1381.385757	-3.000900	3.519700	-10.561000	25.801849	0.000317	20.659376
1382.387512	-3.014500	3.521000	-10.613000	25.839488	0.000315	20.676325
1383.387842	-2.997400	3.521200	-10.554000	25.860330	0.000320	20.661224
1384.387070	-3.007200	3.518100	-10.579000	25.873074	0.000316	20.671182
1385.385010	-3.009600	3.519400	-10.591000	25.893737	0.000316	20.684829
1386.385562	-2.995500	3.519600	-10.542000	25.857970	0.000315	20.669285
1387.387442	-3.005100	3.518000	-10.571000	25.827908	0.000316	20.658526
1388.387340	-2.999100	3.518100	-10.550000	25.859232	0.000314	20.682883
1389.385012	-2.998600	3.518300	-10.549000	25.855652	0.000315	20.690667
1390.389102	-2.990100	3.518300	-10.519000	25.813447	0.000313	20.671028
1391.389147	-3.011400	3.516600	-10.589000	25.824825	0.000314	20.695261
1392.387072	-2.998500	3.515900	-10.540000	25.831758	0.000315	20.691320
1393.388608	-3.004800	3.515800	-10.563000	25.797919	0.000313	20.667283
1394.384076	-2.982700	3.515900	-10.485000	25.808556	0.000312	20.684607
1395.386932	-3.001400	3.515400	-10.550000	25.835705	0.000311	20.674421
1396.387999	-3.005400	3.516400	-10.566000	25.835656	0.000311	20.667259
1397.386034	-3.000800	3.516000	-10.550000	25.908393	0.000312	20.684379
1398.390980	-3.001500	3.514800	-10.548000	25.928345	0.000313	20.679767
1399.396789	-2.998400	3.515400	-10.539000	25.909085	0.000311	20.682229
1400.390134	-2.999200	3.514100	-10.539000	25.925881	0.000311	20.645045
1401.392457	-3.023000	3.513800	-10.621000	25.884696	0.000309	20.669106
1402.390689	-3.014500	3.512700	-10.588000	25.922608	0.000310	20.684435
1403.396022	-2.986000	3.513000	-10.489000	25.866956	0.000308	20.662664
1404.394337	-2.995300	3.513400	-10.523000	25.881074	0.000309	20.660725
1405.390362	-2.999400	3.512200	-10.534000	25.849572	0.000308	20.678394
1406.390748	-3.023100	3.512500	-10.617000	25.849156	0.000307	20.692202
1407.391822	-2.997600	3.513000	-10.529000	25.854795	0.000309	20.684116
1408.401771	-2.987900	3.511000	-10.490000	25.835695	0.000308	20.669194
1409.393048	-3.010800	3.511500	-10.571000	25.812933	0.000307	20.695170
1410.399563	-2.987800	3.511200	-10.490000	25.806283	0.000306	20.671417
1411.394326	-3.010600	3.509100	-10.564000	25.821038	0.000307	20.669644
1412.392690	-2.985300	3.510800	-10.480000	25.809660	0.000306	20.680975
1413.395165	-3.006800	3.509900	-10.552000	25.799332	0.000304	20.660166
1414.400123	-2.989300	3.510000	-10.491000	25.790216	0.000305	20.670451
1415.392166	-2.979700	3.509900	-10.457000	25.808178	0.000305	20.671424
1416.390641	-3.026500	3.509600	-10.621000	25.803587	0.000306	20.697161
1417.392948	-3.010800	3.509100	-10.565000	25.845824	0.000306	20.677473
1418.391369	-3.001600	3.508300	-10.530000	25.870018	0.000304	20.686606
1419.391627	-3.014600	3.509600	-10.579000	25.874322	0.000306	20.674333
1420.395828	-3.005500	3.507000	-10.540000	25.874371	0.000306	20.663949
1421.394351	-3.013500	3.507600	-10.570000	25.889531	0.000307	20.676809
1422.393179	-3.007700	3.507000	-10.548000	25.899841	0.000304	20.662509
1423.397536	-3.017300	3.506400	-10.579000	25.915067	0.000303	20.676384
1424.393422	-3.019400	3.505600	-10.584000	25.905260	0.000303	20.683602
1425.396196	-3.025900	3.505700	-10.606000	25.894705	0.000304	20.672049
1426.402897	-2.960500	3.505700	-10.378000	25.935774	0.000303	20.672056
1427.394348	-3.006900	3.505500	-10.539000	25.976737	0.000304	20.692823
1428.403976	-3.001600	3.504300	-10.518000	25.992140	0.000303	20.661828
1429.399822	-3.003600	3.504100	-10.524000	25.968444	0.000302	20.683543
1430.396174	-3.005700	3.504300	-10.532000	25.935463	0.000302	20.686918
1431.398794	-3.005100	3.505200	-10.532000	25.961225	0.000301	20.672495
1432.401018	-3.017800	3.504100	-10.573000	25.943707	0.000301	20.672439
1433.400478	-3.006400	3.504300	-10.535000	25.931393	0.000299	20.673345
1434.404300	-3.014300	3.502600	-10.557000	25.986669	0.000300	20.699482
1435.399509	-2.988700	3.503200	-10.469000	26.031754	0.000299	20.708271
1436.400569	-3.007300	3.501000	-10.528000	26.004578	0.000299	20.691871
1437.399163	-2.974200	3.501600	-10.413000	25.998173	0.000299	20.673581
1438.398854	-2.994100	3.501900	-10.484000	26.003739	0.000300	20.684389
1439.407106	-2.986300	3.500800	-10.453000	25.974828	0.000296	20.682369
1440.403147	-3.025800	3.500100	-10.590000	25.968734	0.000298	20.697112
1441.400813	-2.994300	3.501000	-10.482000	25.951733	0.000297	20.685720
1442.405008	-3.007200	3.500700	-10.526000	25.894509	0.000298	20.677543
1443.402920	-3.004400	3.500200	-10.515000	25.845568	0.000297	20.680061
1444.407920	-2.999200	3.499300	-10.494000	25.822813	0.000297	20.689921
1445.404600	-3.006000	3.499500	-10.519000	25.833572	0.000296	20.686504
1446.400662	-2.977100	3.499800	-10.419000	25.883433	0.000296	20.682538
1447.402910	-3.004500	3.499400	-10.512000	25.895313	0.000295	20.677877
1448.401894	-3.003500	3.497900	-10.504000	25.892369	0.000296	20.684403
1449.403986	-3.003900	3.497700	-10.504000	25.919580	0.000293	20.693248
1450.403468	-3.003300	3.497200	-10.502000	25.968192	0.000294	20.690402
1451.402169	-3.012300	3.496600	-10.532000	25.961218	0.000294	20.690508
1452.406058	-2.983400	3.497600	-10.434000	25.976467	0.000292	20.705355
1453.404692	-3.003800	3.496200	-10.501000	25.975156	0.000295	20.690761
1454.409103	-3.016100	3.495100	-10.541000	25.959068	0.000292	20.674596
1455.403988	-3.020600	3.495100	-10.557000	25.886101	0.000293	20.679053
1456.403939	-3.019800	3.495600	-10.555000	25.879639	0.000292	20.706230
1457.406336	-2.994900	3.495500	-10.468000	25.869116	0.000291	20.694709
1458.407243	-3.008000	3.494600	-10.511000	25.897729	0.000293	20.689314
1459.408072	-3.007200	3.493900	-10.506000	25.883447	0.000292	20.678758
1460.405370	-3.015400	3.492300	-10.530000	25.909910	0.000290	20.682583
1461.411983	-3.003900	3.493800	-10.494000	25.967815	0.000291	20.698559
1462.413444	-3.004700	3.494100	-10.496000	25.993520	0.000291	20.700202
1463.408755	-3.022300	3.492200	-10.554000	26.012975	0.000292	20.685608
1464.411861	-3.010700	3.492600	-10.514000	26.023438	0.000289	20.689008
1465.410269	-3.011500	3.493800	-10.520000	26.030915	0.000291	20.697470
1466.411638	-2.999800	3.492200	-10.475000	25.970353	0.000289	20.694470
1467.413077	-3.023600	3.491700	-10.557000	25.946437	0.000291	20.702686
1468.406226	-2.973700	3.491900	-10.382000	25.889523	0.000289	20.691028
1469.407311	-3.011700	3.490600	-10.511000	25.869577	0.000289	20.721253
1470.410181	-3.006200	3.492200	-10.497000	25.889181	0.000289	20.696848
1471.411035	-3.009800	3.490200	-10.503000	25.919744	0.000287	20.697680
1472.411141	-2.984600	3.490800	-10.418000	25.903641	0.000286	20.701418
1473.412756	-2.999800	3.489600	-10.468000	25.943986	0.000287	20.711604
1474.414222	-3.015700	3.488700	-10.520000	25.942864	0.000286	20.709528
1475.406608	-2.983400	3.489500	-10.410000	25.986536	0.000288	20.688917
1476.412403	-3.009000	3.489100	-10.498000	25.968853	0.000289	20.691066
1477.412029	-2.985000	3.487500	-10.409000	25.961124	0.000286	20.700845
1478.413704	-3.020600	3.487900	-10.535000	25.945378	0.000287	20.707786
1479.414455	-3.003700	3.488300	-10.477000	25.897341	0.000286	20.711685
1480.413029	-3.010800	3.486800	-10.498000	25.921283	0.000285	20.707761
1481.412519	-3.012100	3.487300	-10.503000	25.965151	0.000286	20.711056
1482.414458	-2.987600	3.487100	-10.416000	25.957274	0.000286	20.709781
1483.414179	-2.992700	3.485300	-10.429000	25.980806	0.000284	20.713034
1484.413053	-3.014700	3.485800	-10.507000	25.913934	0.000285	20.714130
1485.414577	-2.996500	3.484400	-10.439000	25.881293	0.000285	20.697459
1486.413468	-2.992700	3.487200	-10.436000	25.904592	0.000283	20.701899
1487.413878	-2.992100	3.486600	-10.431000	25.905683	0.000284	20.708211
1488.410853	-3.002200	3.484600	-10.460000	25.909605	0.000285	20.701720
1489.412814	-3.001400	3.483400	-10.454000	25.906578	0.000283	20.720965
1490.416857	-2.983100	3.483600	-10.391000	25.945426	0.000282	20.701197
1491.411386	-3.006400	3.483500	-10.471000	25.939731	0.000282	20.693578
1492.415805	-3.016800	3.483300	-10.507000	25.908280	0.000281	20.733107
1493.417371	-2.983300	3.483700	-10.392000	25.896254	0.000282	20.718179
1494.418001	-2.998200	3.482500	-10.440000	25.904456	0.000280	20.709349
1495.414735	-2.983400	3.481900	-10.386000	25.901354	0.000280	20.715243
1496.416494	-2.988000	3.482700	-10.405000	25.882370	0.000280	20.704231
1497.413650	-2.992800	3.483000	-10.422000	25.915906	0.000280	20.718007
1498.415415	-2.996500	3.481400	-10.431000	25.917933	0.000280	20.720045
1499.419046	-3.006300	3.480200	-10.462000	25.894806	0.000278	20.706767
1500.413994	-2.995600	3.481400	-10.428000	25.898012	0.000279	20.722791
1501.417948	-3.009900	3.480600	-10.475000	25.904718	0.000279	20.718622
1502.420287	-3.011700	3.479700	-10.480000	25.899599	0.000275	20.722489
1503.423374	-2.987100	3.479300	-10.391000	25.911871	0.000278	20.733395
1504.419014	-3.010500	3.479400	-10.474000	25.893635	0.000278	20.734990
1505.423518	-3.001300	3.478800	-10.440000	25.921230	0.000276	20.709131
1506.424991	-3.002700	3.477800	-10.442000	25.904595	0.000277	20.737941
1507.418552	-2.998800	3.479500	-10.433000	25.891600	0.000277	20.720617
1508.417675	-3.009000	3.479100	-10.468000	25.915940	0.000275	20.722310
1509.421123	-3.017600	3.477300	-10.493000	25.956131	0.000275	20.734238
1510.421587	-2.962500	3.479800	-10.308000	25.972073	0.000276	20.745039
1511.418442	-3.015400	3.475700	-10.480000	26.012115	0.000277	20.729318
1512.420717	-3.011800	3.476000	-10.468000	26.011489	0.000276	20.743863
1513.422726	-2.990300	3.477000	-10.396000	26.053050	0.000274	20.735833
1514.421745	-2.994700	3.476200	-10.410000	26.075223	0.000273	20.738197
1515.421801	-2.967900	3.476300	-10.316000	26.067795	0.000274	20.725517
1516.421000	-2.990500	3.475200	-10.392000	26.061954	0.000275	20.747150
1517.419266	-2.971100	3.477000	-10.329000	26.072157	0.000274	20.738436
1518.425452	-2.997400	3.475400	-10.417000	26.103058	0.000272	20.724439
1519.423639	-3.007900	3.474500	-10.450000	26.087283	0.000271	20.734193
1520.425049	-2.992100	3.474200	-10.395000	26.045552	0.000272	20.713125
1521.427497	-3.010600	3.472600	-10.454000	26.054690	0.000271	20.718513
1522.426383	-2.992100	3.474600	-10.396000	26.076017	0.000272	20.748004
1523.426534	-3.009900	3.473300	-10.454000	26.043290	0.000270	20.727449
1524.426419	-2.998500	3.473600	-10.414000	26.044797	0.000270	20.736076
1525.427932	-3.026100	3.472000	-10.505000	26.050338	0.000271	20.745910
1526.426729	-3.016300	3.471600	-10.470000	26.002746	0.000269	20.736975
1527.424114	-3.007600	3.471700	-10.440000	26.009794	0.000270	20.740262
1528.424060	-2.981500	3.471500	-10.348000	26.038435	0.000269	20.766668
1529.428933	-2.991700	3.471900	-10.386000	25.989850	0.000270	20.747726
1530.427301	-2.979700	3.470900	-10.342000	25.973503	0.000270	20.741260
1531.425457	-2.993900	3.469000	-10.385000	25.968409	0.000269	20.763170
1532.431466	-3.000400	3.469600	-10.410000	25.932816	0.000269	20.750171
1533.426925	-2.995700	3.469600	-10.393000	25.992356	0.000270	20.734597
1534.430461	-3.036100	3.468700	-10.529000	26.033041	0.000267	20.737540
1535.434607	-2.970300	3.469800	-10.305000	26.034831	0.000267	20.737916
1536.428019	-3.008600	3.468700	-10.435000	26.026231	0.000270	20.753933
1537.427573	-3.013900	3.468800	-10.454000	26.080169	0.000266	20.759763
1538.430756	-3.012800	3.468400	-10.448000	26.031789	0.000268	20.768052
1539.440187	-2.995900	3.468000	-10.388000	26.038942	0.000266	20.764333
1540.433509	-2.989900	3.467800	-10.367000	26.054686	0.000265	20.755970
1541.433717	-2.987400	3.467400	-10.357000	26.019561	0.000266	20.757189
1542.430863	-2.976500	3.467200	-10.319000	26.061961	0.000265	20.755692
1543.432258	-2.988500	3.466800	-10.359000	26.087835	0.000264	20.747551
1544.431877	-2.997500	3.465700	-10.387000	26.121787	0.000265	20.757484
1545.432791	-3.012100	3.465400	-10.437000	26.128492	0.000264	20.746676
1546.435937	-2.987600	3.466400	-10.355000	26.065135	0.000264	20.767417
1547.431878	-3.005700	3.464800	-10.413000	26.000173	0.000265	20.768530
1548.431106	-3.015700	3.464500	-10.447000	25.947021	0.000262	20.764916
1549.434937	-3.004900	3.463200	-10.405000	25.965232	0.000263	20.766616
1550.436034	-2.991300	3.463600	-10.360000	26.021043	0.000262	20.746350
1551.437726	-3.022000	3.463500	-10.464000	26.035722	0.000262	20.760624
1552.434448	-3.043500	3.464000	-10.542000	26.037365	0.000263	20.794992
1553.437115	-3.006500	3.464400	-10.415000	26.043885	0.000262	20.762187
1554.434396	-2.998400	3.462900	-10.383000	26.055064	0.000261	20.783377
1555.433414	-2.994700	3.463700	-10.372000	26.013020	0.000264	20.774325
1556.435161	-3.005500	3.462600	-10.406000	25.974052	0.000260	20.773107
1557.432746	-3.015200	3.462400	-10.438000	26.007161	0.000259	20.749946
1558.437123	-3.020400	3.462100	-10.456000	26.015705	0.000260	20.777023
1559.434977	-3.013300	3.461500	-10.429000	26.034338	0.000260	20.782467
1560.434683	-3.006400	3.461300	-10.405000	25.935320	0.000258	20.764540
1561.435541	-3.017200	3.460500	-10.440000	25.956338	0.000257	20.771905
1562.438044	-3.005600	3.460400	-10.400000	25.963466	0.000258	20.789499
1563.434451	-3.018800	3.460500	-10.446000	25.997723	0.000258	20.787879
1564.436001	-3.001600	3.460700	-10.387000	26.031531	0.000259	20.758783
1565.438349	-2.988400	3.460000	-10.339000	25.967525	0.000259	20.772239
1566.437930	-3.007500	3.459600	-10.403000	25.972213	0.000257	20.757983
1567.441286	-2.997300	3.459900	-10.369000	25.981855	0.000258	20.751074
1568.444290	-2.981100	3.458100	-10.309000	25.976142	0.000256	20.793225
1569.443254	-2.970400	3.458000	-10.270000	26.048030	0.000255	20.762559
1570.441803	-3.027700	3.456500	-10.464000	26.102024	0.000258	20.782671
1571.444681	-2.986100	3.458600	-10.326000	26.101926	0.000256	20.796323
1572.443081	-2.987100	3.458500	-10.330000	26.071626	0.000258	20.772517
1573.440329	-2.997900	3.457500	-10.364000	26.020138	0.000255	20.761562
1574.443034	-3.007400	3.456600	-10.394000	26.041130	0.000257	20.777911
1575.442323	-2.966600	3.457500	-10.256000	26.080128	0.000254	20.778688
1576.445051	-2.992800	3.456800	-10.344000	26.122242	0.000255	20.773588
1577.440948	-3.010800	3.456200	-10.405000	26.075188	0.000253	20.782734
1578.443902	-3.016100	3.453800	-10.416000	26.058713	0.000255	20.765706
1579.445313	-3.018500	3.453700	-10.424000	26.019519	0.000254	20.795554
1580.440529	-2.980900	3.455500	-10.298000	26.010105	0.000254	20.791785
1581.447612	-2.989600	3.453400	-10.322000	26.023840	0.000254	20.771445
1582.446756	-3.009400	3.454000	-10.393000	25.974587	0.000254	20.778386
1583.444770	-3.001500	3.454800	-10.369000	25.979208	0.000252	20.789667
1584.442493	-3.006200	3.453500	-10.380000	26.030398	0.000251	20.804587
1585.446155	-3.001600	3.453300	-10.365000	26.030178	0.000253	20.776391
1586.457302	-2.993500	3.453600	-10.338000	26.063855	0.000253	20.790313
1587.443763	-2.999100	3.452300	-10.353000	26.098102	0.000253	20.801015
1588.441853	-3.019500	3.452100	-10.422000	26.105212	0.000252	20.797728
1589.447974	-2.988700	3.450800	-10.312000	26.045248	0.000251	20.788213
1590.459659	-2.993700	3.451900	-10.333000	26.033051	0.000252	20.802037
1591.448804	-2.987500	3.450700	-10.308000	26.089013	0.000249	20.798996
1592.454493	-2.999300	3.451200	-10.350000	26.127261	0.000247	20.801865
1593.446023	-2.996200	3.451400	-10.340000	26.084018	0.000252	20.804882
1594.450015	-2.992800	3.450500	-10.325000	26.082651	0.000249	20.794500
1595.444731	-3.031700	3.449100	-10.456000	26.128156	0.000249	20.809876
1596.448552	-2.994300	3.450500	-10.331000	26.104789	0.000249	20.812001
1597.453477	-2.987700	3.447900	-10.301000	26.035981	0.000247	20.805929
1598.452502	-3.015000	3.447700	-10.394000	26.003540	0.000248	20.815535
1599.450105	-3.010600	3.447400	-10.378000	26.009706	0.000247	20.788065
1600.446371	-2.986700	3.448300	-10.298000	25.987249	0.000247	20.788262
1601.455720	-3.025800	3.448000	-10.431000	26.031139	0.000246	20.819082
1602.448233	-2.979000	3.449200	-10.273000	26.061894	0.000249	20.791662
1603.451896	-2.983400	3.446700	-10.283000	26.093781	0.000245	20.798571
1604.452271	-3.020900	3.445600	-10.408000	26.125870	0.000248	20.799993
1605.448725	-3.007000	3.445900	-10.361000	26.129271	0.000247	20.824273
1606.444061	-2.987600	3.446000	-10.295000	26.147325	0.000245	20.814913
1607.454633	-2.998600	3.445600	-10.331000	26.169422	0.000246	20.816729
1608.451403	-2.974200	3.446000	-10.248000	26.179706	0.000247	20.819475
1609.448965	-2.997000	3.445500	-10.325000	26.203022	0.000244	20.798810
1610.446065	-3.014500	3.444000	-10.382000	26.164623	0.000245	20.820915
1611.446927	-2.987600	3.444400	-10.290000	26.192624	0.000243	20.801637
1612.449271	-2.997500	3.445200	-10.326000	26.099283	0.000246	20.803151
1613.446351	-2.980900	3.443600	-10.264000	26.101797	0.000244	20.795719
1614.450022	-2.971000	3.444300	-10.232000	26.105897	0.000243	20.802683
1615.448706	-3.035700	3.443400	-10.452000	26.125660	0.000244	20.824438
1616.450381	-2.992100	3.442900	-10.301000	26.105191	0.000242	20.810983
1617.453106	-2.989300	3.442300	-10.289000	26.110284	0.000241	20.827006
1618.449550	-3.000500	3.442500	-10.328000	26.052533	0.000241	20.812602
1619.450622	-3.043300	3.441700	-10.473000	26.096819	0.000240	20.827227
1620.447296	-3.011900	3.442400	-10.367000	26.150932	0.000241	20.807632
1621.451568	-3.001200	3.441900	-10.329000	26.127045	0.000242	20.805915
1622.448637	-3.023500	3.439600	-10.398000	26.159622	0.000240	20.818734
1623.455954	-2.974700	3.442100	-10.238000	26.149877	0.000240	20.839288
1624.450201	-2.992200	3.440100	-10.292000	26.166245	0.000237	20.821597
1625.453619	-3.001800	3.439500	-10.323000	26.190261	0.000239	20.800211
1626.456444	-2.980700	3.439700	-10.252000	26.170345	0.000240	20.800113
1627.456610	-2.985500	3.439000	-10.266000	26.137136	0.000240	20.795666
1628.452612	-2.966800	3.440000	-10.204000	26.100004	0.000238	20.801029
1629.457708	-2.988800	3.438300	-10.276000	26.112591	0.000238	20.803720
1630.458230	-2.989700	3.438700	-10.280000	26.110459	0.000240	20.804422
1631.452754	-2.992600	3.437600	-10.287000	26.115723	0.000238	20.826307
1632.455577	-2.995400	3.438200	-10.297000	26.056850	0.000236	20.813621
1633.451370	-2.993000	3.437300	-10.287000	26.093635	0.000239	20.786095
1634.455138	-2.977700	3.437700	-10.235000	26.123812	0.000236	20.805985
1635.458869	-2.995300	3.436900	-10.294000	26.079429	0.000235	20.796952
1636.456009	-2.996500	3.436300	-10.296000	26.083571	0.000236	20.794476
1637.455662	-3.004900	3.435300	-10.321000	26.068697	0.000236	20.803239
1638.457286	-3.001400	3.435800	-10.311000	26.077265	0.000234	20.793355
1639.453204	-2.987900	3.436400	-10.266000	26.114416	0.000236	20.793700
1640.453769	-2.969600	3.436600	-10.205000	26.127457	0.000237	20.784519
1641.453806	-3.000700	3.435100	-10.307000	26.129866	0.000234	20.795473
1642.457339	-2.978200	3.435500	-10.231000	26.179486	0.000236	20.797444
1643.453943	-3.006100	3.433400	-10.321000	26.153288	0.000233	20.789137
1644.453347	-2.986800	3.435000	-10.258000	26.161946	0.000233	20.802104
1645.459475	-3.013100	3.434100	-10.346000	26.144267	0.000231	20.799987
1646.457067	-2.997200	3.433500	-10.290000	26.165176	0.000231	20.785435
1647.457537	-2.998200	3.432500	-10.291000	26.179853	0.000232	20.779320
1648.460641	-2.985100	3.433400	-10.248000	26.189737	0.000231	20.767916
1649.458575	-2.998100	3.431100	-10.286000	26.153281	0.000231	20.780595
1650.458987	-2.992500	3.431200	-10.267000	26.138174	0.000231	20.777743
1651.459291	-3.007600	3.431100	-10.319000	26.143568	0.000231	20.782215
1652.458353	-3.021000	3.431200	-10.366000	26.164900	0.000231	20.785632
1653.456564	-3.017400	3.430600	-10.351000	26.148458	0.000230	20.768162
1654.459346	-3.018900	3.429600	-10.353000	26.085606	0.000229	20.768545
1655.459298	-2.988700	3.431000	-10.253000	26.086469	0.000231	20.785059
1656.458340	-3.013500	3.429400	-10.334000	26.072986	0.000230	20.769616
1657.461111	-3.007600	3.429900	-10.315000	26.113993	0.000228	20.771463
1658.458559	-3.003600	3.429600	-10.300000	26.132274	0.000229	20.759486
1659.458927	-3.022600	3.428300	-10.361000	26.143274	0.000228	20.765324
1660.461404	-3.001700	3.427800	-10.288000	26.191184	0.000227	20.782172
1661.459842	-2.985900	3.428300	-10.235000	26.176054	0.000228	20.777399
1662.458770	-3.010500	3.427400	-10.317000	26.177410	0.000229	20.772598
1663.461639	-3.015000	3.427700	-10.334000	26.156910	0.000226	20.776655
1664.461669	-2.997200	3.427400	-10.271000	26.186441	0.000227	20.759388
1665.460857	-2.991800	3.427300	-10.253000	26.212166	0.000226	20.761056
1666.456354	-2.983200	3.426100	-10.219000	26.229981	0.000229	20.742448
1667.459211	-2.990300	3.426500	-10.245000	26.210310	0.000226	20.773416
1668.457182	-2.988400	3.425500	-10.235000	26.186539	0.000226	20.765176
1669.459126	-3.003100	3.426400	-10.289000	26.134259	0.000225	20.756740
1670.460725	-2.996300	3.424900	-10.261000	26.144145	0.000226	20.741541
1671.460675	-3.013200	3.425600	-10.320000	26.176403	0.000225	20.776328
1672.460603	-3.008400	3.424400	-10.301000	26.195326	0.000226	20.775903
1673.460812	-2.985600	3.423800	-10.222000	26.158871	0.000225	20.761555
1674.460076	-3.008800	3.423400	-10.299000	26.132788	0.000224	20.762373
1675.462518	-3.004800	3.424000	-10.288000	26.128468	0.000224	20.770835
1676.468667	-3.008900	3.424200	-10.302000	26.172009	0.000222	20.749627
1677.461855	-2.982400	3.422900	-10.207000	26.189070	0.000223	20.769616
1678.459293	-2.987900	3.422400	-10.224000	26.165428	0.000221	20.744436
1679.464654	-3.009300	3.421800	-10.296000	26.179933	0.000222	20.754745
1680.462197	-2.987400	3.421700	-10.221000	26.176899	0.000221	20.756438
1681.464236	-2.983900	3.421700	-10.209000	26.165924	0.000221	20.760108
1682.467674	-2.990600	3.421200	-10.231000	26.198151	0.000219	20.759300
1683.464026	-2.979800	3.422000	-10.196000	26.226444	0.000221	20.751696
1684.468918	-2.992200	3.419600	-10.232000	26.231903	0.000220	20.764295
1685.465555	-2.971200	3.422000	-10.165000	26.223190	0.000220	20.747477
1686.461752	-3.039000	3.419400	-10.390000	26.187721	0.000219	20.754983
1687.462297	-3.002900	3.418700	-10.266000	26.129974	0.000218	20.751959
1688.461966	-2.988500	3.419200	-10.217000	26.121162	0.000217	20.755433
1689.462398	-2.999500	3.417600	-10.251000	26.170188	0.000218	20.747797
1690.462302	-3.015000	3.418300	-10.305000	26.140363	0.000221	20.752915
1691.466351	-3.006500	3.417800	-10.275000	26.167340	0.000216	20.751573
1692.464866	-2.990400	3.417600	-10.219000	26.182726	0.000216	20.746171
1693.465063	-2.997700	3.418500	-10.247000	26.150394	0.000215	20.735967
1694.465193	-3.027600	3.416200	-10.341000	26.135043	0.000218	20.748991
1695.467068	-2.998900	3.416900	-10.246000	26.141275	0.000216	20.739606
1696.468216	-2.972800	3.417400	-10.159000	26.093639	0.000215	20.756227
1697.464834	-2.998500	3.417300	-10.246000	26.120065	0.000215	20.733467
1698.468271	-3.001400	3.415900	-10.252000	26.100165	0.000214	20.748559
1699.466214	-3.001000	3.415300	-10.248000	26.100986	0.000217	20.747488
1700.471214	-3.039700	3.415100	-10.380000	26.117055	0.000214	20.741823
1701.469302	-3.006200	3.415600	-10.267000	26.180751	0.000214	20.740393
1702.469522	-2.991800	3.414800	-10.216000	26.208713	0.000215	20.754741
1703.476027	-3.017600	3.414500	-10.302000	26.202156	0.000213	20.742936
1704.474458	-3.017100	3.412600	-10.294000	26.166589	0.000213	20.740860
1705.473271	-2.979500	3.415500	-10.176000	26.194624	0.000214	20.741057
1706.475573	-3.006800	3.413000	-10.262000	26.180965	0.000215	20.743453
1707.470991	-3.013100	3.413100	-10.283000	26.171293	0.000213	20.726147
1708.470481	-2.984400	3.412600	-10.184000	26.221611	0.000214	20.727872
1709.481590	-3.000300	3.411800	-10.236000	26.162052	0.000210	20.732508
1710.474217	-2.993600	3.413300	-10.217000	26.153583	0.000212	20.731584
1711.477743	-3.012100	3.412400	-10.278000	26.197165	0.000213	20.742663
1712.472756	-3.021000	3.411100	-10.304000	26.154575	0.000211	20.734479
1713.479742	-3.001300	3.411800	-10.239000	26.118534	0.000210	20.747576
1714.472954	-2.990300	3.412300	-10.204000	26.146473	0.000210	20.750994
1715.472680	-2.985300	3.412200	-10.185000	26.185736	0.000210	20.728332
1716.476290	-2.983000	3.410800	-10.174000	26.177089	0.000210	20.718694
1717.472420	-2.996800	3.409200	-10.216000	26.172370	0.000208	20.731023
1718.475694	-3.004100	3.408900	-10.239000	26.210088	0.000210	20.719611
1719.475672	-3.001900	3.409600	-10.234000	26.226357	0.000211	20.745919
1720.475021	-3.022500	3.408700	-10.301000	26.202716	0.000209	20.742550
1721.477856	-3.017800	3.407000	-10.281000	26.206411	0.000209	20.747211
1722.475553	-2.988500	3.408300	-10.184000	26.163367	0.000208	20.747106
1723.473428	-2.980300	3.408400	-10.157000	26.175188	0.000209	20.728164
1724.477604	-2.994900	3.407400	-10.204000	26.215222	0.000209	20.732358
1725.477041	-3.013600	3.407600	-10.268000	26.187823	0.000210	20.728533
1726.474558	-3.018200	3.406800	-10.281000	26.141377	0.000207	20.731648
1727.478730	-3.025500	3.405500	-10.302000	26.195104	0.000207	20.751971
1728.473896	-2.995700	3.407000	-10.205000	26.234253	0.000206	20.750535
1729.477598	-3.006700	3.406700	-10.242000	26.240136	0.000207	20.743169
1730.477077	-3.017700	3.405000	-10.275000	26.211273	0.000205	20.736924
1731.476822	-3.026500	3.404000	-10.301000	26.249719	0.000207	20.741420
1732.475465	-2.994800	3.405600	-10.199000	26.240104	0.000205	20.741715
1733.475733	-3.002200	3.404500	-10.220000	26.241072	0.000203	20.731308
1734.477386	-2.982000	3.404300	-10.151000	26.238853	0.000204	20.729078
1735.476629	-2.962400	3.404100	-10.083000	26.244043	0.000204	20.734768
1736.475546	-2.978600	3.404600	-10.139000	26.286207	0.000204	20.728301
1737.477293	-3.000200	3.402900	-10.209000	26.340409	0.000202	20.727771
1738.479810	-2.998000	3.403200	-10.201000	26.318388	0.000204	20.735987
1739.476747	-3.008200	3.401300	-10.231000	26.285452	0.000204	20.739397
1740.480865	-2.996700	3.401400	-10.192000	26.287584	0.000202	20.742963
1741.479017	-2.970300	3.403400	-10.108000	26.241517	0.000203	20.744083
1742.480785	-2.981400	3.402600	-10.143000	26.283981	0.000203	20.716581
1743.481274	-3.011600	3.401700	-10.244000	26.288682	0.000201	20.713244
1744.486681	-2.996000	3.401900	-10.191000	26.270298	0.000202	20.735074
1745.485290	-3.009200	3.399900	-10.230000	26.242209	0.000200	20.740985
1746.486087	-2.990800	3.400700	-10.169000	26.302253	0.000201	20.727357
1747.484325	-2.986900	3.401000	-10.158000	26.290269	0.000199	20.726693
1748.480038	-3.004000	3.398400	-10.208000	26.273968	0.000200	20.734494
1749.484226	-2.996400	3.399200	-10.184000	26.279207	0.000197	20.715576
1750.481522	-2.996200	3.398300	-10.181000	26.341583	0.000200	20.709510
1751.480686	-2.990700	3.399000	-10.165000	26.377488	0.000199	20.719043
1752.483194	-2.967800	3.397700	-10.082000	26.400856	0.000197	20.724038
1753.481213	-3.003300	3.399300	-10.208000	26.388664	0.000199	20.742605
1754.479856	-2.987600	3.398600	-10.152000	26.397117	0.000198	20.724073
1755.481396	-3.041700	3.397600	-10.333000	26.388332	0.000196	20.707656
1756.483474	-2.995300	3.397800	-10.177000	26.354940	0.000197	20.707761
1757.482918	-2.995800	3.397800	-10.179000	26.323250	0.000198	20.736606
1758.484117	-2.994800	3.396400	-10.171000	26.342195	0.000197	20.715815
1759.483966	-3.023000	3.396100	-10.266000	26.349866	0.000196	20.701713
1760.486074	-3.002400	3.396500	-10.197000	26.330149	0.000198	20.722201
1761.483481	-3.008500	3.394700	-10.213000	26.359106	0.000194	20.730441
1762.483128	-3.005800	3.394800	-10.203000	26.363321	0.000195	20.715710
1763.484149	-2.993600	3.395400	-10.162000	26.325627	0.000194	20.719553
1764.484100	-2.999300	3.394900	-10.182000	26.293586	0.000196	20.733346
1765.488221	-3.025200	3.394100	-10.266000	26.274720	0.000194	20.710592
1766.486170	-3.006600	3.394700	-10.206000	26.310749	0.000192	20.719300
1767.488030	-2.987500	3.395400	-10.143000	26.285320	0.000192	20.717452
1768.481753	-2.980300	3.393400	-10.112000	26.255774	0.000193	20.715261
1769.485390	-2.974000	3.393200	-10.091000	26.265228	0.000193	20.711011
1770.486088	-2.972600	3.393200	-10.086000	26.232102	0.000190	20.722293
1771.484938	-2.973500	3.392500	-10.086000	26.234982	0.000191	20.705745
1772.485723	-2.991600	3.394100	-10.153000	26.267514	0.000191	20.708566
1773.489588	-3.027200	3.391700	-10.266000	26.292740	0.000195	20.705942
1774.484191	-3.009100	3.391700	-10.205000	26.253897	0.000192	20.734713
1775.484334	-3.011600	3.391400	-10.213000	26.227101	0.000189	20.713473
1776.483162	-3.007000	3.391700	-10.198000	26.239798	0.000190	20.705370
1777.484541	-2.989000	3.391300	-10.136000	26.276447	0.000190	20.714699
1778.487046	-2.995300	3.392200	-10.159000	26.274308	0.000189	20.722033
1779.485868	-2.978100	3.391200	-10.099000	26.245373	0.000191	20.721879
1780.488069	-2.993900	3.390400	-10.149000	26.240018	0.000189	20.703694
1781.489581	-2.978100	3.389200	-10.092000	26.310460	0.000193	20.715215
1782.485710	-2.995700	3.389000	-10.152000	26.342818	0.000189	20.723554
1783.482367	-3.011200	3.388100	-10.201000	26.319277	0.000189	20.689461
1784.487878	-3.010200	3.388000	-10.197000	26.338449	0.000189	20.701144
1785.484467	-2.999500	3.388700	-10.164000	26.362528	0.000188	20.714439
1786.488264	-2.987900	3.388900	-10.125000	26.373239	0.000188	20.698650
1787.489566	-2.980900	3.388300	-10.099000	26.322800	0.000188	20.707228
1788.490268	-3.013500	3.387600	-10.208000	26.342713	0.000186	20.724871
1789.490314	-3.004000	3.386700	-10.172000	26.316820	0.000187	20.728247
1790.492366	-3.000800	3.387100	-10.163000	26.272917	0.000186	20.692658
1791.491392	-2.998200	3.385600	-10.149000	26.281477	0.000185	20.705054
1792.491849	-3.026600	3.385400	-10.246000	26.300429	0.000185	20.721731
1793.491744	-3.013500	3.385200	-10.200000	26.322377	0.000186	20.700639
1794.485426	-2.982700	3.386800	-10.102000	26.375867	0.000188	20.704611
1795.492713	-2.999000	3.385000	-10.150000	26.398040	0.000185	20.697972
1796.496097	-3.029900	3.383700	-10.251000	26.384108	0.000186	20.675432
1797.487589	-2.990300	3.384600	-10.119000	26.374298	0.000184	20.703982
1798.490726	-3.005500	3.384800	-10.172000	26.406459	0.000184	20.699321
1799.495662	-2.998400	3.385100	-10.150000	26.414944	0.000182	20.699789
1800.493159	-3.006200	3.382500	-10.168000	26.443770	0.000182	20.691302
1801.497159	-3.011600	3.383700	-10.190000	26.406721	0.000184	20.695791
1802.500242	-3.012400	3.382700	-10.189000	26.402745	0.000183	20.690846
1803.493446	-3.004000	3.382400	-10.160000	26.420255	0.000182	20.691376
1804.499068	-3.019700	3.381400	-10.210000	26.346260	0.000180	20.714211
1805.496041	-2.996300	3.382100	-10.133000	26.331205	0.000182	20.682482
1806.490739	-3.014200	3.381700	-10.192000	26.314074	0.000183	20.703674
1807.497597	-2.993800	3.382300	-10.124000	26.328105	0.000181	20.695964
1808.493579	-2.992800	3.381400	-10.119000	26.311169	0.000180	20.696487
1809.500682	-3.005700	3.380400	-10.160000	26.314717	0.000178	20.692465
1810.496684	-3.015200	3.381000	-10.193000	26.303204	0.000180	20.682317
1811.496933	-3.010700	3.379200	-10.173000	26.335273	0.000180	20.695107
1812.495100	-3.015300	3.379100	-10.188000	26.323992	0.000180	20.683294
1813.495602	-3.007600	3.379300	-10.163000	26.397199	0.000178	20.699023
1814.492903	-3.024600	3.379000	-10.219000	26.443302	0.000181	20.683719
1815.499161	-3.021800	3.378700	-10.209000	26.456909	0.000176	20.697871
1816.494049	-2.981000	3.379300	-10.073000	26.435918	0.000178	20.693369
1817.492646	-2.985300	3.377800	-10.082000	26.408336	0.000179	20.688405
1818.509679	-2.994800	3.377300	-10.114000	26.389710	0.000177	20.677270
1819.495585	-2.994800	3.378100	-10.116000	26.446996	0.000180	20.686010
1820.492844	-2.985300	3.378000	-10.084000	26.448569	0.000176	20.686168
1821.502448	-3.012700	3.375600	-10.169000	26.452178	0.000178	20.698806
1822.495118	-3.002400	3.375700	-10.135000	26.412146	0.000174	20.695554
1823.496836	-2.986000	3.376000	-10.080000	26.388110	0.000173	20.678033
1824.496366	-3.018000	3.375300	-10.186000	26.366028	0.000176	20.681444
1825.498393	-3.002600	3.374400	-10.131000	26.341324	0.000173	20.663252
1826.495736	-2.996100	3.376400	-10.115000	26.338591	0.000174	20.684215
1827.496665	-3.029500	3.373500	-10.219000	26.315571	0.000173	20.667242
1828.496192	-2.981500	3.375500	-10.063000	26.337592	0.000174	20.677995
1829.495400	-3.002700	3.374400	-10.132000	26.313499	0.000173	20.685551
1830.500219	-3.010600	3.373700	-10.156000	26.348062	0.000175	20.683777
1831.503854	-2.970900	3.374400	-10.024000	26.364005	0.000172	20.692688
1832.495447	-3.014900	3.373600	-10.170000	26.406954	0.000173	20.678480
1833.500681	-3.011100	3.372900	-10.154000	26.396600	0.000172	20.658588
1834.498125	-3.022700	3.372200	-10.192000	26.379438	0.000172	20.674532
1835.498865	-3.007800	3.371100	-10.139000	26.406353	0.000173	20.663176
1836.502367	-3.015800	3.371900	-10.168000	26.386183	0.000170	20.664240
1837.500921	-2.985700	3.371200	-10.065000	26.315617	0.000170	20.689577
1838.500209	-2.991500	3.371000	-10.084000	26.330114	0.000169	20.672376
1839.495604	-2.997100	3.371000	-10.102000	26.341584	0.000170	20.687223
1840.500396	-3.010900	3.370600	-10.147000	26.311064	0.000169	20.671248
1841.503328	-2.999900	3.370300	-10.109000	26.288116	0.000168	20.671420
1842.501569	-3.020600	3.370900	-10.181000	26.310634	0.000169	20.667023
1843.501330	-2.982000	3.370100	-10.048000	26.362158	0.000166	20.680399
1844.508766	-3.008900	3.368700	-10.136000	26.421300	0.000169	20.692426
1845.502516	-3.013500	3.368000	-10.148000	26.396541	0.000172	20.686508
1846.502509	-3.002900	3.367500	-10.112000	26.421936	0.000169	20.655129
1847.500471	-3.005900	3.368000	-10.123000	26.384747	0.000169	20.677972
1848.500377	-2.999100	3.368000	-10.100000	26.356011	0.000166	20.681334
1849.502707	-2.995400	3.368300	-10.089000	26.366439	0.000166	20.671899
1850.503906	-3.002800	3.367100	-10.109000	26.358761	0.000167	20.687418
1851.501482	-2.993700	3.367000	-10.079000	26.353229	0.000165	20.675693
1852.503275	-3.025100	3.365500	-10.179000	26.359031	0.000164	20.675359
1853.500992	-2.981800	3.365900	-10.036000	26.319701	0.000166	20.668548
1854.503284	-3.021000	3.365800	-10.167000	26.395106	0.000165	20.689332
1855.506865	-3.018200	3.366500	-10.160000	26.469293	0.000165	20.668116
1856.505683	-3.007800	3.365200	-10.121000	26.497314	0.000165	20.691068
1857.507099	-2.987200	3.365300	-10.052000	26.555837	0.000164	20.665493
1858.505606	-2.998400	3.363600	-10.084000	26.532252	0.000163	20.682090
1859.508354	-2.979800	3.364700	-10.025000	26.537882	0.000164	20.661668
1860.512534	-2.995900	3.364500	-10.079000	26.564119	0.000162	20.685673
1861.510022	-2.986500	3.363700	-10.045000	26.553742	0.000162	20.683776
1862.510866	-3.003900	3.363900	-10.103000	26.613229	0.000161	20.675771
1863.508311	-3.001400	3.362900	-10.093000	26.618037	0.000163	20.672543
1864.507071	-3.017600	3.361800	-10.144000	26.601431	0.000162	20.661538
1865.507933	-2.992300	3.361200	-10.057000	26.551848	0.000162	20.685666
1866.508987	-3.003500	3.361400	-10.095000	26.560161	0.000161	20.687858
1867.506281	-2.985700	3.362700	-10.039000	26.553459	0.000160	20.671163
1868.507608	-2.982900	3.362600	-10.030000	26.545244	0.000160	20.692779
1869.510561	-2.972000	3.361400	-9.989100	26.495757	0.000160	20.698512
1870.509701	-2.996900	3.360100	-10.069000	26.481102	0.000159	20.692790
1871.511599	-2.980300	3.360100	-10.013000	26.515960	0.000161	20.679464
1872.514078	-2.968600	3.361000	-9.976400	26.538676	0.000160	20.662466
1873.511484	-3.009700	3.359700	-10.111000	26.539539	0.000156	20.680879
1874.511171	-2.999600	3.359200	-10.076000	26.488294	0.000157	20.678681
1875.513202	-3.036700	3.358200	-10.196000	26.514679	0.000157	20.679124
1876.512897	-3.001900	3.357900	-10.079000	26.537328	0.000157	20.674388
1877.506363	-3.003200	3.358300	-10.085000	26.514256	0.000156	20.688183
1878.507494	-3.005100	3.358600	-10.092000	26.492526	0.000157	20.680564
1879.511545	-3.000300	3.357000	-10.070000	26.432462	0.000157	20.684203
1880.508800	-3.002400	3.357700	-10.080000	26.439636	0.000156	20.693312
1881.508314	-3.007200	3.356600	-10.093000	26.441596	0.000154	20.683427
1882.511201	-3.018800	3.356400	-10.131000	26.410460	0.000157	20.697653
1883.513445	-2.961800	3.357700	-9.943200	26.391038	0.000154	20.666750
1884.510194	-2.997500	3.356100	-10.059000	26.463241	0.000155	20.682423
1885.510860	-3.019700	3.355400	-10.131000	26.460226	0.000156	20.699783
1886.510358	-2.986600	3.355300	-10.020000	26.428846	0.000154	20.688630
1887.511737	-3.010700	3.355400	-10.101000	26.479738	0.000154	20.717974
1888.512135	-2.994700	3.354900	-10.046000	26.463245	0.000154	20.710405
1889.510840	-3.031500	3.354100	-10.167000	26.452070	0.000152	20.689688
1890.514657	-2.985500	3.355800	-10.018000	26.437471	0.000153	20.693980
1891.515272	-3.000300	3.353600	-10.061000	26.442825	0.000154	20.715485
1892.516522	-3.012400	3.354300	-10.103000	26.416302	0.000154	20.677918
1893.520991	-3.008400	3.353700	-10.088000	26.437978	0.000151	20.695439
1894.517738	-2.993200	3.352700	-10.034000	26.447008	0.000154	20.676064
1895.520725	-2.999800	3.353300	-10.059000	26.520818	0.000154	20.689089
1896.520248	-3.011400	3.352500	-10.094000	26.522380	0.000152	20.696823
1897.514375	-3.008000	3.351400	-10.080000	26.528659	0.000153	20.705507
1898.517455	-3.010700	3.351500	-10.089000	26.544464	0.000153	20.723765
1899.530731	-3.014700	3.351900	-10.104000	26.559275	0.000150	20.720636
1900.514532	-2.992000	3.351500	-10.026000	26.506738	0.000149	20.711448
1901.521726	-3.000200	3.350900	-10.053000	26.500655	0.000148	20.684942
1902.522603	-2.996800	3.348600	-10.034000	26.497450	0.000149	20.711121
1903.517950	-3.010600	3.349800	-10.084000	26.522169	0.000149	20.711785
1904.519732	-3.005600	3.349400	-10.066000	26.570331	0.000149	20.685754
1905.516483	-3.005300	3.350400	-10.068000	26.586338	0.000149	20.693784
1906.522612	-2.997000	3.349300	-10.037000	26.612193	0.000151	20.710294
1907.521739	-3.006000	3.348200	-10.064000	26.640891	0.000147	20.707849
1908.516004	-2.982300	3.348400	-9.984900	26.590447	0.000150	20.716883
1909.519653	-2.985000	3.349200	-9.996300	26.543663	0.000146	20.687870
1910.519274	-3.007000	3.348200	-10.067000	26.548111	0.000146	20.692342
1911.520272	-2.973800	3.348800	-9.957800	26.528268	0.000147	20.711752
1912.520228	-2.989100	3.346500	-10.002000	26.577171	0.000145	20.692630
1913.520240	-3.004600	3.345500	-10.051000	26.615794	0.000145	20.696842
1914.520619	-2.962000	3.347400	-9.913900	26.680232	0.000144	20.701405
1915.523539	-3.009200	3.346400	-10.069000	26.687496	0.000144	20.721037
1916.526627	-3.006700	3.346200	-10.060000	26.642812	0.000143	20.718315
1917.517343	-2.989700	3.345600	-10.002000	26.639413	0.000145	20.713949
1918.523026	-3.027200	3.345100	-10.126000	26.659834	0.000142	20.716935
1919.528738	-3.010400	3.344400	-10.068000	26.642855	0.000144	20.706503
1920.518887	-3.009900	3.344100	-10.065000	26.631130	0.000141	20.701354
1921.517992	-2.983800	3.344300	-9.977400	26.542925	0.000142	20.695190
1922.520567	-2.989100	3.345400	-9.998500	26.538624	0.000140	20.717895
1923.520530	-3.003400	3.342800	-10.039000	26.577873	0.000142	20.692862
1924.524436	-2.977200	3.344200	-9.954700	26.622480	0.000140	20.699771
1925.522866	-2.976000	3.343000	-9.948300	26.660580	0.000140	20.722427
1926.524435	-3.011300	3.342000	-10.063000	26.661321	0.000143	20.712740
1927.527595	-3.015600	3.342400	-10.078000	26.663330	0.000142	20.723769
1928.524394	-3.005200	3.341500	-10.040000	26.674024	0.000140	20.725037
1929.522701	-3.006400	3.341300	-10.044000	26.601039	0.000142	20.716151
1930.523373	-2.986100	3.342300	-9.979400	26.591948	0.000141	20.714125
1931.523486	-2.989100	3.341800	-9.988100	26.614607	0.000139	20.718410
1932.524432	-2.992500	3.340900	-9.996400	26.582582	0.000139	20.733633
1933.525373	-2.999700	3.341900	-10.024000	26.589675	0.000138	20.717055
1934.530571	-2.964800	3.339700	-9.899700	26.637583	0.000137	20.709265
1935.524698	-3.024600	3.339100	-10.098000	26.665949	0.000137	20.727825
1936.527216	-2.974800	3.340400	-9.936600	26.631794	0.000139	20.711032
1937.527487	-2.981300	3.342100	-9.961200	26.645165	0.000136	20.715939
1938.527063	-2.983900	3.339500	-9.963900	26.646256	0.000135	20.726519
1939.523942	-2.979700	3.339100	-9.948300	26.655406	0.000136	20.705371
1940.527711	-3.004100	3.338400	-10.028000	26.674671	0.000135	20.728058
1941.532613	-2.994300	3.338800	-9.996600	26.664245	0.000137	20.730854
1942.525397	-2.986000	3.339100	-9.969600	26.698718	0.000136	20.719991
1943.525764	-2.985000	3.337800	-9.962300	26.697254	0.000136	20.725157
1944.528380	-2.994300	3.337200	-9.992000	26.703703	0.000134	20.719787
1945.529322	-3.009200	3.336200	-10.039000	26.698313	0.000134	20.726696
1946.528894	-2.985400	3.337400	-9.961800	26.661623	0.000136	20.734856
1947.526169	-2.984100	3.337200	-9.956600	26.659283	0.000132	20.726813
1948.524847	-2.978200	3.336300	-9.934300	26.620380	0.000133	20.721843
1949.529821	-2.987200	3.335800	-9.964000	26.608612	0.000134	20.724239
1950.530210	-2.983200	3.335400	-9.948600	26.591160	0.000132	20.723764
1951.527745	-2.986400	3.334200	-9.955800	26.622511	0.000130	20.744850
1952.528409	-3.018800	3.334300	-10.064000	26.637298	0.000131	20.745016
1953.529137	-2.987400	3.334800	-9.960600	26.686025	0.000131	20.745163
1954.542549	-3.017400	3.333500	-10.058000	26.741358	0.000131	20.729670
1955.528979	-2.999600	3.333900	-9.999500	26.751280	0.000130	20.750552
1956.536632	-2.977300	3.334100	-9.925900	26.744855	0.000131	20.708528
1957.531260	-3.028700	3.331300	-10.089000	26.741272	0.000129	20.753292
1958.530046	-2.995100	3.332500	-9.980300	26.739287	0.000128	20.747977
1959.534142	-3.012300	3.331800	-10.034000	26.727246	0.000130	20.738241
1960.535186	-3.009300	3.331300	-10.023000	26.739697	0.000128	20.745544
1961.532287	-2.989800	3.332400	-9.961600	26.730492	0.000128	20.737237
1962.535355	-3.005800	3.331300	-10.013000	26.756675	0.000128	20.744122
1963.534868	-3.019600	3.331400	-10.058000	26.736763	0.000129	20.721256
1964.533065	-3.017500	3.329800	-10.047000	26.728948	0.000128	20.733788
1965.538195	-3.009800	3.329900	-10.021000	26.762646	0.000127	20.746806
1966.540431	-3.000900	3.330800	-9.994200	26.794341	0.000127	20.749750
1967.537666	-2.986200	3.330100	-9.943500	26.774185	0.000126	20.748450
1968.531610	-2.980100	3.330000	-9.922800	26.759216	0.000127	20.738141
1969.537799	-3.022400	3.329000	-10.061000	26.738759	0.000127	20.744601
1970.540774	-2.986000	3.329800	-9.942100	26.741068	0.000127	20.730326
1971.538411	-2.992700	3.327400	-9.957200	26.742654	0.000123	20.748992
1972.538659	-3.008500	3.327400	-10.010000	26.748577	0.000125	20.763481
1973.535656	-2.997500	3.328000	-9.974400	26.713897	0.000125	20.743313
1974.537995	-3.014300	3.326300	-10.025000	26.689446	0.000122	20.749077
1975.538063	-2.977500	3.327900	-9.907000	26.683045	0.000123	20.754496
1976.543351	-3.011100	3.326600	-10.016000	26.694879	0.000123	20.735098
1977.538889	-2.990800	3.326400	-9.947600	26.729056	0.000122	20.750967
1978.544032	-3.000800	3.326000	-9.979900	26.772144	0.000125	20.743079
1979.540957	-3.007100	3.325800	-10.000000	26.842012	0.000124	20.755481
1980.547917	-3.005300	3.324900	-9.991800	26.865241	0.000122	20.733792
1981.537430	-3.030000	3.324700	-10.072000	26.849600	0.000122	20.747463
1982.539379	-3.017000	3.325000	-10.030000	26.882211	0.000122	20.745640
1983.541230	-3.037100	3.323900	-10.094000	26.907154	0.000119	20.742746
1984.537365	-3.018800	3.323000	-10.031000	26.926512	0.000120	20.765531
1985.540917	-3.010600	3.323000	-10.003000	26.921325	0.000121	20.744193
1986.539395	-2.997400	3.322800	-9.958800	26.921472	0.000119	20.745763
1987.543255	-2.974500	3.323900	-9.886300	26.947742	0.000120	20.752740
1988.539063	-2.995400	3.321300	-9.948200	26.987594	0.000118	20.757728
1989.545352	-3.006900	3.321900	-9.987900	26.982205	0.000121	20.745670
1990.541588	-3.008900	3.320700	-9.990900	26.976418	0.000119	20.741273
1991.554831	-3.018600	3.322000	-10.027000	26.996240	0.000118	20.753145
1992.545552	-3.009900	3.321800	-9.997400	26.985493	0.000119	20.747554
1993.543782	-3.009900	3.321000	-9.995100	26.994501	0.000117	20.765622
1994.547866	-2.982600	3.321300	-9.905300	26.952603	0.000116	20.765215
1995.554302	-2.994900	3.321000	-9.945200	26.938873	0.000114	20.770849
1996.544851	-3.005900	3.318800	-9.975000	26.943956	0.000116	20.755097
1997.544333	-3.003300	3.320400	-9.970400	26.993391	0.000117	20.753126
1998.546964	-3.005400	3.318100	-9.970500	26.973857	0.000116	20.763355
1999.542447	-3.012900	3.319600	-10.001000	26.976680	0.000115	20.766193
2000.546154	-3.010900	3.318500	-9.990500	26.971414	0.000118	20.756155
2001.550067	-3.017200	3.317900	-10.010000	26.997745	0.000114	20.773626
2002.552979	-2.996200	3.317200	-9.938500	27.006127	0.000115	20.777788
2003.543082	-3.006500	3.317100	-9.971400	26.980831	0.000114	20.744288
2004.544619	-3.011300	3.316300	-9.985400	26.984254	0.000116	20.767646
2005.547294	-3.038200	3.315900	-10.073000	27.032916	0.000115	20.746881
2006.548699	-3.007000	3.317200	-9.973400	27.012458	0.000110	20.783681
2007.551278	-2.997000	3.315400	-9.934800	26.954144	0.000113	20.780516
2008.555912	-3.023900	3.315100	-10.023000	26.945350	0.000112	20.780681
2009.556714	-3.004000	3.316000	-9.960700	26.922711	0.000112	20.758864
2010.549665	-3.003800	3.315100	-9.957700	26.934548	0.000112	20.782621
2011.554374	-2.991200	3.315400	-9.916300	26.947218	0.000111	20.756954
2012.554339	-3.014800	3.313200	-9.988300	26.961443	0.000111	20.768414
2013.551639	-3.004500	3.314600	-9.957100	27.022058	0.000111	20.763463
2014.553721	-3.010400	3.313400	-9.973500	27.053795	0.000111	20.774042
2015.550328	-2.999400	3.314200	-9.939900	27.014214	0.000111	20.781654
2016.554368	-3.001000	3.312600	-9.939800	27.006713	0.000109	20.775532
2017.554454	-3.011500	3.312800	-9.975500	26.987547	0.000109	20.790871
2018.554796	-3.010000	3.310800	-9.964600	26.984222	0.000107	20.788950
2019.556565	-2.997800	3.312600	-9.929900	26.972697	0.000108	20.805810
2020.556135	-2.983400	3.313200	-9.883800	26.964001	0.000106	20.772409
2021.550501	-3.009800	3.310600	-9.963400	26.985048	0.000104	20.774608
2022.559522	-2.971600	3.311400	-9.839200	26.995317	0.000106	20.789676
2023.555068	-2.981000	3.310100	-9.866200	26.976848	0.000105	20.794812
2024.560274	-3.012500	3.310200	-9.971600	26.938281	0.000105	20.798703
2025.556205	-3.003100	3.309300	-9.937500	26.901624	0.000106	20.796456
2026.553933	-2.986000	3.310000	-9.882200	26.948306	0.000107	20.797878
2027.555727	-2.979800	3.308500	-9.857700	26.997092	0.000105	20.774392
2028.556778	-3.009800	3.309000	-9.957200	26.957626	0.000104	20.779749
2029.556808	-2.996900	3.309300	-9.916200	26.914570	0.000103	20.797619
2030.557440	-2.988300	3.308700	-9.886700	26.888708	0.000104	20.813340
2031.559213	-2.992700	3.308300	-9.899500	26.910663	0.000104	20.766663
2032.556645	-2.998300	3.308200	-9.917700	26.938734	0.000102	20.787779
2033.558801	-2.979200	3.308200	-9.855200	26.912377	0.000104	20.778819
2034.555349	-2.989100	3.308000	-9.887000	26.922077	0.000103	20.797108
2035.559777	-2.971700	3.307100	-9.826800	26.951453	0.000103	20.800094
2036.558775	-2.987600	3.307200	-9.879900	27.038785	9.984882E-5	20.818691
2037.556179	-2.970200	3.307500	-9.823300	27.023789	0.000102	20.799817
2038.561207	-3.019500	3.305000	-9.978700	27.025718	0.000101	20.787058
2039.558669	-2.999100	3.306100	-9.914400	26.976884	9.978282E-5	20.798641
2040.562527	-3.010600	3.304100	-9.946200	26.984526	9.998083E-5	20.796369
2041.562010	-3.005400	3.304500	-9.931100	26.997526	9.786868E-5	20.811338
2042.562085	-2.996800	3.304900	-9.903600	26.999094	0.000100	20.814337
2043.564998	-3.004100	3.304100	-9.924800	27.066828	0.000101	20.796633
2044.563915	-3.004400	3.305100	-9.929500	27.037823	9.974981E-5	20.808241
2045.561174	-3.006000	3.302900	-9.927300	27.044216	9.780267E-5	20.809454
2046.557976	-3.008700	3.302300	-9.934000	27.048575	9.529449E-5	20.789656
2047.560307	-3.003200	3.302200	-9.915900	27.070361	9.740664E-5	20.809669
2048.564467	-2.987100	3.301900	-9.861600	27.033194	9.371037E-5	20.805482
2049.559711	-2.994000	3.301800	-9.884200	26.974103	9.780267E-5	20.835673
2050.564610	-3.007300	3.300900	-9.925700	26.964991	9.536049E-5	20.806596
2051.565252	-3.023700	3.301000	-9.980900	27.032232	9.661458E-5	20.800247
2052.560816	-2.970800	3.302100	-9.809500	27.035159	9.453543E-5	20.827372
2053.565896	-2.985000	3.301900	-9.854400	27.107594	9.549250E-5	20.812975
2054.568434	-2.984700	3.301900	-9.854800	27.161950	9.430442E-5	20.822126
2055.567001	-2.990800	3.299200	-9.866900	27.122245	9.371037E-5	20.807796
2056.568536	-2.986000	3.299900	-9.852500	27.062670	9.387538E-5	20.801460
2057.573389	-2.997000	3.298000	-9.883100	27.033456	9.338035E-5	20.828505
2058.569962	-3.023000	3.297700	-9.968700	27.004126	9.404040E-5	20.824139
2059.567138	-3.009500	3.298700	-9.926600	26.990691	9.522848E-5	20.826750
2060.568852	-3.005700	3.297400	-9.909800	27.013599	9.272030E-5	20.842673
2061.567486	-2.986600	3.297600	-9.847600	26.991236	9.206025E-5	20.822082
2062.567070	-3.009700	3.297100	-9.923200	27.013813	9.126819E-5	20.829139
2063.574658	-3.016600	3.296800	-9.943800	26.969687	9.196124E-5	20.820327
2064.565931	-3.020900	3.295100	-9.953200	26.986484	9.097117E-5	20.822993
2065.568329	-3.052400	3.293500	-10.053000	27.070776	8.928805E-5	20.808190
2066.566505	-3.004000	3.296900	-9.903200	27.083873	9.080616E-5	20.825155
2067.568326	-3.027300	3.295600	-9.975800	27.089182	8.998110E-5	20.821959
2068.571774	-2.988600	3.295700	-9.849200	27.115755	8.984909E-5	20.828769
2069.565712	-3.021200	3.294400	-9.952100	27.102376	8.895803E-5	20.840918
2070.568577	-3.017000	3.293700	-9.936600	27.166168	9.004711E-5	20.821626
2071.569817	-2.994600	3.295500	-9.867700	27.159758	8.948606E-5	20.827981
2072.567707	-3.008600	3.294400	-9.910000	27.174641	8.816597E-5	20.824459
2073.570364	-3.019800	3.293400	-9.944200	27.189255	8.862800E-5	20.816872
2074.570422	-2.991900	3.293600	-9.853400	27.188312	8.852899E-5	20.821614
2075.568720	-3.005200	3.294200	-9.899000	27.173814	8.578979E-5	20.846386
2076.569874	-3.005900	3.292000	-9.894200	27.193339	8.816597E-5	20.835204
2077.570706	-2.985200	3.292300	-9.826900	27.210156	8.377665E-5	20.843584
2078.573661	-3.007000	3.293300	-9.902100	27.259800	8.819897E-5	20.840887
2079.571297	-2.997900	3.291700	-9.867800	27.290335	8.602081E-5	20.827032
2080.570331	-2.987400	3.290600	-9.829100	27.316830	8.644984E-5	20.847045
2081.569513	-2.991300	3.290800	-9.843300	27.304850	8.526176E-5	20.829304
2082.570117	-2.980000	3.289500	-9.802100	27.271946	8.427168E-5	20.848362
2083.570767	-2.974200	3.289900	-9.783900	27.247654	8.628483E-5	20.819661
2084.572615	-2.980500	3.289800	-9.804500	27.206862	8.569079E-5	20.835530
2085.576387	-3.012800	3.288900	-9.909000	27.271070	8.321561E-5	20.823301
2086.573969	-3.001400	3.288300	-9.869000	27.250647	8.182950E-5	20.855388
2087.576469	-2.995100	3.288900	-9.850000	27.275625	8.397466E-5	20.829778
2088.576238	-2.999600	3.288800	-9.863800	27.271756	8.100444E-5	20.846749
2089.579121	-2.987300	3.287800	-9.820100	27.288597	8.235754E-5	20.858947
2090.577023	-2.994300	3.288200	-9.845300	27.286332	8.083943E-5	20.844341
2091.578315	-2.988500	3.287300	-9.822900	27.247305	8.192851E-5	20.851078
2092.580088	-2.991500	3.286200	-9.829900	27.253182	8.130147E-5	20.838972
2093.580490	-3.000100	3.286100	-9.857800	27.235593	7.998137E-5	20.848781
2094.575046	-2.991000	3.285800	-9.827000	27.285793	8.031139E-5	20.825782
2095.582695	-2.999100	3.285800	-9.854200	27.310898	7.978335E-5	20.844397
2096.576611	-2.991100	3.285700	-9.827200	27.327763	7.869428E-5	20.821059
2097.584410	-2.994800	3.285700	-9.839600	27.294841	7.922231E-5	20.842943
2098.576650	-3.002800	3.284700	-9.862700	27.291192	8.074042E-5	20.853972
2099.576604	-3.010800	3.283500	-9.885100	27.344254	8.044340E-5	20.816786
2100.579971	-3.013500	3.284100	-9.895700	27.341420	7.730817E-5	20.847599
2101.581349	-3.010900	3.283400	-9.885300	27.337520	7.965135E-5	20.836564
2102.582395	-3.005700	3.282200	-9.864600	27.324022	7.621909E-5	20.822986
2103.579562	-3.005800	3.282500	-9.865200	27.371500	7.598808E-5	20.829021
2104.579962	-3.011500	3.281600	-9.882100	27.291468	7.697815E-5	20.831490
2105.588784	-3.004800	3.281900	-9.860700	27.276824	7.483299E-5	20.817709
2106.581117	-2.996200	3.280300	-9.827600	27.287887	7.654912E-5	20.804655
2107.583185	-3.000300	3.281800	-9.845700	27.316064	7.437096E-5	20.819249
2108.588095	-3.009500	3.281000	-9.873400	27.315918	7.374391E-5	20.824791
2109.582906	-3.001600	3.280600	-9.845900	27.309729	7.324888E-5	20.819988
2110.580417	-2.971400	3.281100	-9.748600	27.291970	7.460198E-5	20.815400
2111.583700	-3.009800	3.278300	-9.866200	27.304544	7.093871E-5	20.842746
2112.579798	-3.019000	3.279100	-9.898200	27.258018	7.532803E-5	20.820129
2113.583082	-2.976600	3.278600	-9.757400	27.198451	7.143374E-5	20.821379
2114.580178	-3.007600	3.279400	-9.861800	27.185692	7.509701E-5	20.836995
2115.583845	-3.000500	3.278300	-9.835800	27.214521	7.331488E-5	20.799138
2116.581798	-3.009300	3.277400	-9.861300	27.256151	7.153275E-5	20.793596
2117.584952	-2.991700	3.278100	-9.806000	27.317075	7.169776E-5	20.828325
2118.583400	-3.002600	3.278100	-9.841400	27.347309	7.275384E-5	20.808005
2119.581738	-3.019600	3.275100	-9.887800	27.380180	7.057568E-5	20.825899
2120.584003	-3.009900	3.275900	-9.859300	27.364901	6.955261E-5	20.811004
2121.583233	-3.004800	3.276500	-9.844700	27.334086	7.064169E-5	20.817463
2122.585333	-3.013900	3.275400	-9.871000	27.265634	7.113672E-5	20.811669
2123.582101	-2.961400	3.277800	-9.706400	27.310090	6.932159E-5	20.805653
2124.586558	-2.975200	3.275800	-9.745200	27.364393	7.060868E-5	20.805277
2125.580714	-2.982400	3.274100	-9.763300	27.396169	6.770447E-5	20.809742
2126.582271	-3.008800	3.273800	-9.849100	27.445761	6.839752E-5	20.808424
2127.587898	-3.000700	3.274400	-9.825000	27.429528	6.918958E-5	20.801576
2128.585829	-3.023700	3.271800	-9.892000	27.505033	6.816650E-5	20.817322
2129.584286	-3.007300	3.273500	-9.842900	27.496477	6.707742E-5	20.821041
2130.582873	-2.991500	3.273200	-9.790700	27.511331	6.605435E-5	20.817020
2131.587504	-2.992000	3.272000	-9.788700	27.517550	6.681341E-5	20.794353
2132.591476	-2.962700	3.272600	-9.694100	27.564039	6.711043E-5	20.786601
2133.589238	-2.965500	3.273100	-9.704800	27.560165	6.704442E-5	20.793134
2134.586253	-3.002200	3.272500	-9.824600	27.517721	6.522929E-5	20.794526
2135.591866	-3.004800	3.270100	-9.824600	27.485527	6.239108E-5	20.805284
2136.591075	-2.982700	3.270000	-9.752400	27.470244	6.509728E-5	20.791330
2137.587264	-2.976600	3.272100	-9.737900	27.441072	6.638437E-5	20.813664
2138.586382	-2.986700	3.270100	-9.765900	27.493056	6.453624E-5	20.790573
2139.590417	-2.990700	3.268600	-9.774100	27.506980	6.516328E-5	20.798892
2140.588833	-3.011000	3.268700	-9.841200	27.490650	6.450324E-5	20.805222
2141.590028	-3.005500	3.267800	-9.820800	27.440840	6.315014E-5	20.791145
2142.588763	-3.014400	3.266400	-9.845200	27.414073	6.245709E-5	20.800727
2143.586970	-3.018900	3.266800	-9.860700	27.435705	6.173103E-5	20.798781
2144.587833	-2.966300	3.268400	-9.694100	27.483330	6.120299E-5	20.793590
2145.588854	-2.978400	3.268100	-9.732400	27.534772	6.321614E-5	20.790345
2146.591625	-2.997300	3.265700	-9.787300	27.529332	6.423922E-5	20.788664
2147.588265	-2.987000	3.265700	-9.753600	27.549847	6.255609E-5	20.783701
2148.591742	-2.997900	3.265700	-9.788900	27.474443	5.816677E-5	20.788442
2149.591239	-3.007500	3.265600	-9.820100	27.481684	6.136801E-5	20.784347
2150.587207	-3.011500	3.264600	-9.829600	27.446312	6.100498E-5	20.794754
2151.589019	-2.973300	3.264500	-9.704700	27.459753	6.239108E-5	20.808751
2152.593038	-2.999600	3.264200	-9.790400	27.500082	6.083997E-5	20.799065
2153.594655	-3.000400	3.264200	-9.793000	27.503253	6.169803E-5	20.780443
2154.587286	-3.007900	3.264200	-9.817900	27.535275	5.796876E-5	20.778048
2155.592581	-2.991600	3.263400	-9.762200	27.575380	5.915684E-5	20.775726
2156.591208	-3.008100	3.261600	-9.810400	27.590790	6.100498E-5	20.775585
2157.592058	-2.989100	3.263300	-9.753000	27.508259	5.958588E-5	20.789274
2158.593808	-2.994000	3.262200	-9.765900	27.487749	5.833178E-5	20.774803
2159.599598	-2.994400	3.262200	-9.767900	27.504936	5.691268E-5	20.797784
2160.589619	-3.007900	3.260100	-9.804500	27.532992	5.724270E-5	20.775277
2161.592110	-3.013900	3.260100	-9.824700	27.544345	5.625263E-5	20.778165
2162.595176	-3.021100	3.259700	-9.847000	27.520158	5.516355E-5	20.788443
2163.592244	-2.987500	3.260200	-9.739000	27.498479	5.823278E-5	20.775640
2164.594029	-2.974400	3.260300	-9.696300	27.424908	5.513055E-5	20.779859
2165.597319	-2.985200	3.259900	-9.730100	27.437003	5.687968E-5	20.778276
2166.593178	-3.024900	3.258400	-9.854000	27.458591	5.483353E-5	20.792408
2167.593747	-3.006000	3.257900	-9.792300	27.471861	5.443750E-5	20.781577
2168.594133	-2.999700	3.257600	-9.770700	27.490926	5.463551E-5	20.762826
2169.592848	-2.994700	3.256900	-9.752400	27.489861	5.453651E-5	20.781195
2170.591363	-3.002600	3.256800	-9.777700	27.509876	5.483353E-5	20.782365
2171.595475	-2.996400	3.257200	-9.759300	27.536517	5.298539E-5	20.768393
2172.599638	-2.981900	3.256200	-9.709000	27.528035	5.334842E-5	20.777402
2173.595193	-2.994800	3.256500	-9.751200	27.479585	5.315040E-5	20.764218
2174.592185	-2.977800	3.255600	-9.693100	27.493081	5.176430E-5	20.772580
2175.598731	-3.000800	3.254200	-9.764100	27.543678	5.235835E-5	20.780339
2176.601884	-3.003500	3.254900	-9.775400	27.536359	5.159929E-5	20.768707
2177.599013	-3.007500	3.252500	-9.780000	27.520776	5.196232E-5	20.749709
2178.599861	-3.010500	3.253300	-9.793300	27.547565	5.186331E-5	20.768128
2179.600905	-3.014700	3.254200	-9.808900	27.591440	5.328241E-5	20.763910
2180.599686	-3.000900	3.254000	-9.764000	27.630778	4.925612E-5	20.767931
2181.604049	-2.974900	3.253900	-9.679000	27.602352	5.123626E-5	20.778209
2182.597948	-2.971200	3.253000	-9.664600	27.603117	5.084024E-5	20.761909
2183.597352	-2.996500	3.251800	-9.743000	27.617082	4.882709E-5	20.760788
2184.598328	-2.971300	3.250600	-9.657400	27.632651	4.687994E-5	20.772661
2185.598279	-3.003100	3.251100	-9.762400	27.635154	4.856307E-5	20.767593
2186.601714	-3.011600	3.250700	-9.789400	27.626103	4.790302E-5	20.777452
2187.598078	-3.000400	3.249300	-9.748600	27.584959	4.856307E-5	20.774459
2188.601054	-2.996100	3.249200	-9.734000	27.574665	4.862907E-5	20.769791
2189.602450	-2.985600	3.249300	-9.700900	27.636513	4.998217E-5	20.757106
2190.603671	-3.011700	3.248300	-9.781900	27.690334	4.757300E-5	20.740614
2191.599182	-2.989400	3.248300	-9.709700	27.651047	4.968515E-5	20.757980
2192.600331	-2.993300	3.246900	-9.717800	27.642939	4.724297E-5	20.741286
2193.600577	-2.972900	3.247000	-9.651300	27.600479	4.572486E-5	20.757832
2194.599946	-3.000500	3.247200	-9.742200	27.606826	4.658292E-5	20.748096
2195.599267	-3.012700	3.246300	-9.778900	27.599500	4.453677E-5	20.759692
2196.603280	-3.001000	3.247600	-9.745300	27.619745	4.542784E-5	20.753509
2197.601453	-2.997800	3.244700	-9.726200	27.688634	4.592287E-5	20.745067
2198.606503	-3.019100	3.245200	-9.796900	27.732858	4.588987E-5	20.762543
2199.608015	-3.007700	3.245500	-9.760000	27.737196	4.542784E-5	20.755529
2200.604342	-3.009200	3.244200	-9.761500	27.770814	4.552685E-5	20.755222
2201.603078	-3.015300	3.243200	-9.778400	27.714500	4.460278E-5	20.757346
2202.610344	-2.988800	3.243900	-9.693400	27.673127	4.338169E-5	20.755542
2203.604987	-3.009100	3.244200	-9.761200	27.660980	4.338169E-5	20.745215
2204.606571	-2.979900	3.241900	-9.659500	27.724346	4.404174E-5	20.744020
2205.605919	-3.008900	3.243000	-9.756400	27.781559	4.348070E-5	20.750862
2206.609913	-3.029500	3.240700	-9.816900	27.792163	4.278764E-5	20.761534
2207.605816	-3.012000	3.241800	-9.762600	27.773641	4.371171E-5	20.783197
2208.609749	-3.022700	3.242400	-9.799600	27.762181	4.262263E-5	20.771189
2209.607956	-3.000300	3.242100	-9.727000	27.781504	4.110452E-5	20.755548
2210.603510	-2.983600	3.239900	-9.665900	27.786387	4.225961E-5	20.749556
2211.608238	-3.015500	3.238500	-9.764500	27.802229	4.423975E-5	20.749852
2212.611908	-2.995700	3.239000	-9.702300	27.760718	4.153355E-5	20.737000
2213.607338	-3.029300	3.239500	-9.812500	27.739442	4.206159E-5	20.746409
2214.609087	-2.993900	3.238700	-9.695500	27.742857	4.239162E-5	20.729456
2215.614285	-3.016900	3.237400	-9.766100	27.792732	4.163256E-5	20.756891
2216.611932	-3.007500	3.238200	-9.737500	27.780256	4.097251E-5	20.729161
2217.605367	-3.002700	3.237300	-9.719000	27.795480	3.882735E-5	20.760130
2218.610226	-2.996700	3.236200	-9.697500	27.774229	3.958641E-5	20.736846
2219.612772	-2.980800	3.238200	-9.651700	27.785286	4.080750E-5	20.759354
2220.607536	-3.007500	3.235400	-9.729200	27.795651	3.988343E-5	20.734697
2221.608294	-3.000000	3.234400	-9.702400	27.720583	3.869534E-5	20.748768
2222.608015	-3.006000	3.234700	-9.722600	27.723563	3.800229E-5	20.759828
2223.608943	-2.975200	3.234800	-9.623500	27.697177	4.001544E-5	20.756035
2224.609199	-2.997200	3.232700	-9.688300	27.754018	3.872835E-5	20.720299
2225.610610	-2.994800	3.234200	-9.685300	27.754764	3.763927E-5	20.746656
2226.606885	-2.997500	3.234200	-9.693700	27.762646	3.862934E-5	20.740837
2227.610381	-2.971900	3.234500	-9.612100	27.805717	3.856333E-5	20.765691
2228.608479	-3.007400	3.232000	-9.719400	27.862595	3.826631E-5	20.748965
2229.610387	-3.012800	3.232700	-9.738800	27.862197	3.975142E-5	20.746669
2230.608662	-3.029300	3.233000	-9.793100	27.842459	3.661619E-5	20.729647
2231.609864	-2.999900	3.230600	-9.691000	27.796190	3.536210E-5	20.739032
2232.607116	-3.030000	3.229500	-9.784500	27.742967	3.730924E-5	20.732887
2233.608000	-3.031100	3.230600	-9.791100	27.754600	3.658319E-5	20.744119
2234.612793	-2.979200	3.229000	-9.618400	27.759085	3.856333E-5	20.738201
2235.607490	-3.009800	3.229200	-9.718500	27.816682	3.625317E-5	20.737844
2236.609470	-3.006600	3.229900	-9.710200	27.840342	3.856333E-5	20.721827
2237.605233	-3.018400	3.229200	-9.746000	27.869870	3.526309E-5	20.734002
2238.612990	-2.987200	3.229100	-9.645100	27.881128	3.886036E-5	20.746755
2239.606297	-2.998100	3.228700	-9.679400	27.896571	3.671520E-5	20.732425
2240.606942	-3.006200	3.229100	-9.707100	27.850230	3.470205E-5	20.749323
2241.607502	-3.006200	3.226900	-9.699200	27.823425	3.460304E-5	20.723767
2242.610317	-3.016700	3.226900	-9.733500	27.830388	3.556011E-5	20.731249
2243.606572	-3.013600	3.227100	-9.725000	27.785874	3.381099E-5	20.736237
2244.615245	-2.968200	3.225800	-9.573700	27.706320	3.450404E-5	20.727776
2245.612717	-2.977400	3.225400	-9.602700	27.661777	3.404200E-5	20.732740
2246.606328	-2.997000	3.226700	-9.669600	27.680404	3.377798E-5	20.714499
2247.609801	-2.982800	3.224600	-9.617000	27.696248	3.410801E-5	20.717640
2248.615583	-2.974100	3.224600	-9.589400	27.746266	3.407501E-5	20.717714
2249.610087	-3.000800	3.223100	-9.670500	27.752636	3.381099E-5	20.707054
2250.610972	-3.008400	3.222500	-9.693700	27.782142	3.361297E-5	20.729636
2251.613308	-2.991600	3.222800	-9.641400	27.773937	3.136881E-5	20.711894
2252.610406	-3.014400	3.221500	-9.710100	27.740282	3.159982E-5	20.747255
2253.613940	-3.001300	3.220900	-9.665600	27.769195	3.272191E-5	20.735573
2254.610643	-2.992700	3.220400	-9.637300	27.761032	3.338195E-5	20.742057
2255.611594	-2.973600	3.220200	-9.574400	27.727353	3.285392E-5	20.719543
2256.615633	-3.006900	3.220600	-9.683100	27.732113	3.229287E-5	20.724334
2257.615029	-3.009000	3.219400	-9.685000	27.793169	3.235888E-5	20.746424
2258.614969	-3.021200	3.218600	-9.723100	27.792496	3.037873E-5	20.719192
2259.616794	-3.003200	3.218900	-9.666500	27.791351	3.027973E-5	20.723731
2260.616253	-3.007900	3.218200	-9.679300	27.793261	3.060975E-5	20.723282
2261.618387	-2.977500	3.218900	-9.583800	27.863435	3.212786E-5	20.698599
2262.615137	-2.997000	3.217600	-9.642400	27.894449	3.120379E-5	20.727919
2263.615170	-2.995100	3.216900	-9.633900	27.931886	3.123680E-5	20.729089
2264.621070	-3.002600	3.217600	-9.660700	27.924966	3.064275E-5	20.733979
2265.617572	-3.002900	3.217600	-9.661800	27.907291	2.952067E-5	20.738474
2266.611226	-2.981500	3.216000	-9.587700	27.867614	2.899263E-5	20.703754
2267.614605	-2.997200	3.214900	-9.634800	27.872962	3.130280E-5	20.694911
2268.616901	-3.010200	3.214500	-9.675200	27.906539	2.965268E-5	20.723491
2269.612657	-3.008500	3.213600	-9.667100	27.869640	2.724350E-5	20.708638
2270.620173	-2.994900	3.214700	-9.627100	27.858009	2.862961E-5	20.723960
2271.617777	-3.019500	3.215100	-9.707000	27.865075	2.889362E-5	20.715424
2272.616031	-3.019200	3.212700	-9.698700	27.946674	2.882762E-5	20.706513
2273.617723	-2.992100	3.212300	-9.610100	28.014899	2.866261E-5	20.719237
2274.618530	-2.978100	3.213800	-9.570000	28.031606	3.080777E-5	20.718036
2275.614084	-3.009900	3.212500	-9.668300	28.008995	3.041174E-5	20.704759
2276.617522	-3.004400	3.209800	-9.642500	27.974908	2.895963E-5	20.725924
2277.624347	-2.990000	3.210900	-9.599500	27.971727	2.981769E-5	20.699013
2278.620286	-2.991500	3.210700	-9.603800	27.995152	2.810157E-5	20.703152
2279.616824	-3.013900	3.209200	-9.671300	27.999807	2.823358E-5	20.723961
2280.622983	-2.972800	3.209800	-9.541300	27.985896	2.651745E-5	20.714699
2281.617496	-3.016900	3.208000	-9.676900	27.977190	2.592341E-5	20.700720
2282.617363	-2.998800	3.207700	-9.618700	28.002873	2.678147E-5	20.692905
2283.621147	-3.009300	3.206900	-9.649500	27.979662	2.503234E-5	20.705105
2284.617508	-3.007300	3.206200	-9.641300	27.938850	2.483433E-5	20.711916
2285.625238	-3.004500	3.206800	-9.633800	27.882808	2.443830E-5	20.708615
2286.616923	-3.002000	3.207800	-9.629500	27.912733	2.437229E-5	20.704120
2287.623150	-2.967500	3.205800	-9.512200	27.983474	2.315120E-5	20.705148
2288.622687	-2.997300	3.206400	-9.609000	27.997796	2.470232E-5	20.698701
2289.623674	-3.001000	3.204800	-9.617100	28.056254	2.661646E-5	20.688792
2290.621053	-2.979000	3.205200	-9.547200	28.064158	2.565939E-5	20.696274
2291.626863	-2.970800	3.204400	-9.518600	27.981768	2.433929E-5	20.693947
2292.624577	-2.979800	3.202600	-9.542600	27.941066	2.348123E-5	20.702765
2293.624817	-2.985400	3.204800	-9.566700	27.990571	2.506534E-5	20.713241
2294.626110	-2.984300	3.201500	-9.553600	28.050358	2.443830E-5	20.687598
2295.620545	-3.013900	3.200300	-9.644200	28.117891	2.437229E-5	20.708167
2296.626271	-2.953500	3.204100	-9.462700	28.107352	2.209513E-5	20.717946
2297.623438	-2.997000	3.200700	-9.591400	28.074778	2.338222E-5	20.701276
2298.627038	-2.999400	3.199000	-9.594100	28.064783	2.173210E-5	20.695481
2299.621165	-3.009200	3.197800	-9.621500	28.072044	2.311820E-5	20.676236
2300.621965	-3.014100	3.198600	-9.639800	28.138402	2.206212E-5	20.692304
2301.621160	-2.994500	3.199400	-9.579400	28.102900	2.107205E-5	20.684538
2302.622231	-2.998500	3.197900	-9.587800	28.060508	2.196312E-5	20.701135
2303.623898	-3.003000	3.197000	-9.599600	28.052941	2.202912E-5	20.697785
2304.621367	-2.980700	3.198100	-9.531400	28.025425	2.044500E-5	20.690001
2305.624653	-2.991100	3.198300	-9.565100	27.948085	2.107205E-5	20.682802
2306.626874	-2.999300	3.195600	-9.583100	27.928305	2.123706E-5	20.686602
2307.629646	-3.005000	3.195500	-9.601300	27.902414	1.942193E-5	20.697053
2308.624166	-3.015100	3.194700	-9.631300	27.905161	1.928992E-5	20.688911
2309.626637	-2.999400	3.195900	-9.584500	27.874142	1.948793E-5	20.681872
2310.626825	-2.998700	3.193500	-9.575000	27.927695	1.998297E-5	20.676503
2311.628049	-3.001500	3.193600	-9.585100	27.914804	2.041200E-5	20.689608
2312.630004	-2.970800	3.193000	-9.485200	27.990293	1.991697E-5	20.697786
2313.627473	-2.999300	3.193100	-9.576400	27.936040	1.889389E-5	20.691542
2314.631290	-2.995400	3.192100	-9.561200	27.921485	1.635270E-5	20.686849
2315.625488	-3.008500	3.191200	-9.600200	27.940775	1.823384E-5	20.690144
2316.633565	-2.987700	3.191600	-9.533900	28.018300	1.909190E-5	20.688518
2317.626158	-2.994000	3.190200	-9.549800	28.059035	1.747479E-5	20.677365
2318.634468	-3.007800	3.189800	-9.593500	28.015620	1.869588E-5	20.700995
2319.635743	-2.994800	3.189900	-9.552200	27.986341	1.826684E-5	20.688118
2320.628179	-3.008200	3.188100	-9.589800	28.031391	1.671573E-5	20.676565
2321.630000	-3.008100	3.189000	-9.591000	28.115546	1.866287E-5	20.686363
2322.632872	-3.012400	3.187300	-9.600500	28.089346	1.856387E-5	20.672316
2323.635283	-3.017200	3.187600	-9.616200	28.087781	1.612169E-5	20.667420
2324.632846	-3.011700	3.187600	-9.599800	28.043033	1.833285E-5	20.694924
2325.631591	-3.021100	3.184900	-9.620900	28.005741	1.800282E-5	20.676350
2326.632026	-3.006600	3.184700	-9.574700	27.948099	1.523062E-5	20.687558
2327.635242	-3.008000	3.186700	-9.583100	27.986654	1.763980E-5	20.670413
2328.635872	-3.012800	3.182300	-9.587300	28.005839	1.737578E-5	20.671232
2329.631618	-2.992300	3.182400	-9.521400	28.063894	1.585767E-5	20.691741
2330.632560	-2.989700	3.184000	-9.518000	28.073345	1.744178E-5	20.692245
2331.639021	-3.004900	3.181600	-9.559800	28.125474	1.655072E-5	20.680237
2332.632609	-2.999800	3.182100	-9.544800	28.103508	1.803583E-5	20.695109
2333.637359	-2.982500	3.182000	-9.489800	28.110005	1.539563E-5	20.695485
2334.636136	-2.961900	3.181100	-9.421600	28.055415	1.661672E-5	20.689370
2335.635384	-2.986000	3.180300	-9.495000	28.085390	1.754079E-5	20.686826
2336.639260	-2.997400	3.178600	-9.525800	28.162585	1.721077E-5	20.682509
2337.639942	-2.996600	3.178500	-9.523300	28.205585	1.691374E-5	20.690712
2338.642760	-2.992300	3.178100	-9.508400	28.198618	1.602268E-5	20.675637
2339.641551	-2.990300	3.177600	-9.501300	28.186991	1.506561E-5	20.681949
2340.640718	-3.022600	3.175400	-9.597400	28.138278	1.354750E-5	20.683643
2341.637912	-2.963100	3.176300	-9.410800	28.128754	1.341549E-5	20.697290
2342.637747	-3.001600	3.175800	-9.530800	28.133342	1.295345E-5	20.690054
2343.637967	-2.992000	3.175600	-9.500300	28.128454	1.090730E-5	20.696514
2344.641606	-3.021200	3.174100	-9.588800	28.109241	1.282144E-5	20.697087
2345.641474	-3.004400	3.174200	-9.536000	28.115016	1.391052E-5	20.688201
2346.639759	-2.999200	3.173100	-9.515900	28.116753	1.268943E-5	20.664817
2347.644022	-2.993600	3.173400	-9.499000	28.164691	1.404253E-5	20.692216
2348.644515	-3.012600	3.169900	-9.549300	28.190368	1.341549E-5	20.677763
2349.641067	-3.002800	3.171700	-9.523300	28.187586	1.394353E-5	20.692032
2350.644557	-3.012100	3.169500	-9.545700	28.113714	1.354750E-5	20.690209
2351.641505	-2.989800	3.171700	-9.481800	28.073359	1.199638E-5	20.667601
2352.639629	-2.990400	3.169600	-9.477400	28.069187	1.262343E-5	20.702286
2353.643743	-2.978700	3.169000	-9.437400	28.029626	1.001624E-5	20.688066
2354.643415	-2.998200	3.167900	-9.497300	28.053172	1.100631E-5	20.688534
2355.640218	-2.990400	3.167100	-9.470200	28.094788	1.028026E-5	20.678269
2356.644827	-3.024700	3.166400	-9.576600	28.133735	1.110532E-5	20.688079
2357.642982	-2.990800	3.165300	-9.465700	28.117843	9.950232E-6	20.694841
2358.646648	-2.983100	3.165900	-9.443200	28.211612	1.216140E-5	20.674020
2359.647990	-2.975000	3.165600	-9.417200	28.190865	1.100631E-5	20.693911
2360.646746	-3.010100	3.162900	-9.519900	28.227032	1.054428E-5	20.707564
2361.645899	-3.015200	3.163100	-9.536800	28.311544	1.094031E-5	20.686916
2362.647295	-3.004300	3.162500	-9.499600	28.347260	9.620208E-6	20.699171
2363.650502	-2.991600	3.162200	-9.459000	28.344881	9.851225E-6	20.701043
2364.646933	-2.997900	3.161100	-9.475400	28.344233	1.037926E-5	20.701339
2365.647664	-2.981400	3.161200	-9.423700	28.237926	8.168101E-6	20.683917
2366.649058	-2.998400	3.159500	-9.472600	28.229247	1.278844E-5	20.681817
2367.648760	-3.005900	3.157700	-9.491300	28.222953	9.389191E-6	20.692077
2368.643437	-2.993100	3.158100	-9.451200	28.247540	1.031326E-5	20.681743
2369.653593	-2.992000	3.158400	-9.449400	28.268299	7.838077E-6	20.680359
2370.648602	-2.989600	3.155900	-9.433200	28.323550	1.008224E-5	20.686677
2371.650941	-2.977300	3.156200	-9.396400	28.310634	7.904082E-6	20.701174
2372.647858	-2.994600	3.155700	-9.448600	28.267535	1.064328E-5	20.694289
2373.650062	-3.015700	3.153900	-9.510400	28.246758	9.983235E-6	20.711779
2374.650712	-3.003500	3.153700	-9.471000	28.292360	8.894155E-6	20.699370
2375.649842	-3.005900	3.153500	-9.477600	28.262398	9.257181E-6	20.693384
2376.650856	-3.040400	3.151400	-9.580600	28.228484	9.125172E-6	20.705707
2377.653835	-3.029500	3.150500	-9.542700	28.234674	8.663138E-6	20.702930
2378.653298	-3.009100	3.151900	-9.483200	28.197718	7.739070E-6	20.714563
2379.652543	-3.009200	3.150300	-9.478500	28.223910	5.758924E-6	20.697308
2380.654705	-3.004900	3.150100	-9.464500	28.231200	7.937084E-6	20.704649
2381.651480	-2.995400	3.148500	-9.429800	28.255836	6.848004E-6	20.697209
2382.650654	-3.016500	3.148100	-9.495600	28.309773	8.795147E-6	20.677071
2383.649773	-3.003400	3.147100	-9.451600	28.313216	7.112024E-6	20.706145
2384.650949	-2.994200	3.145900	-9.418300	28.341746	8.069094E-6	20.693145
2385.650451	-3.003100	3.145200	-9.444400	28.305003	7.112024E-6	20.720162
2386.649405	-2.998500	3.145600	-9.431100	28.284381	5.890934E-6	20.713622
2387.654066	-3.026900	3.144900	-9.518400	28.298503	6.815002E-6	20.702236
2388.653157	-3.010500	3.142900	-9.461400	28.238571	6.815002E-6	20.711122
2389.654547	-2.985700	3.143000	-9.382400	28.261275	5.329892E-6	20.696521
2390.653051	-2.998500	3.142700	-9.421700	28.301225	6.088948E-6	20.707348
2391.655155	-3.005600	3.140100	-9.437000	28.280357	5.263888E-6	20.708622
2392.653954	-2.998000	3.141000	-9.416300	28.316019	5.494905E-6	20.706596
2393.653421	-3.021000	3.139400	-9.482600	28.362070	4.735849E-6	20.705075
2394.654002	-3.022300	3.138600	-9.484700	28.371929	4.702846E-6	20.713106
2395.653236	-3.006100	3.137500	-9.430600	28.376466	5.395897E-6	20.702975
2396.655460	-3.011000	3.136000	-9.441700	28.397057	6.715994E-6	20.693837
2397.656096	-3.018300	3.134600	-9.460600	28.420154	4.339819E-6	20.726580
2398.654794	-2.999900	3.134300	-9.401900	28.355956	4.735849E-6	20.712196
2399.657665	-3.005600	3.134200	-9.419800	28.387805	5.296890E-6	20.727197
2400.663597	-2.966400	3.134000	-9.295800	28.426937	2.260666E-6	20.715866
2401.661232	-3.003700	3.132400	-9.408000	28.419311	3.019722E-6	20.713402
2402.657031	-2.992700	3.132700	-9.373700	28.410946	3.811781E-6	20.711617
2403.658033	-3.004300	3.130300	-9.403200	28.439601	6.154953E-6	20.703962
2404.656382	-3.008100	3.129100	-9.412100	28.352580	3.811781E-6	20.714013
2405.657326	-3.009700	3.128900	-9.416400	28.316938	4.603839E-6	20.719851
2406.659733	-2.995400	3.129200	-9.372400	28.288756	3.217737E-6	20.715657
2407.662030	-2.991600	3.127400	-9.354000	28.268305	9.405693E-7	20.723041
2408.667563	-3.006500	3.126100	-9.397800	28.234819	4.570836E-6	20.718724
2409.661622	-2.966200	3.126000	-9.271600	28.273008	1.072579E-6	20.729674
2410.661697	-2.979000	3.125600	-9.310800	28.311997	2.062652E-6	20.687847
2411.663121	-3.012100	3.123600	-9.407900	28.276702	1.171586E-6	20.708736
2412.664293	-2.983400	3.123800	-9.317500	28.327978	2.326671E-6	20.721010
2413.662101	-3.033300	3.121000	-9.465800	28.343769	1.501611E-6	20.717469
2414.670675	-2.986100	3.121800	-9.321300	28.407902	1.831635E-6	20.720407
2415.660814	-2.977200	3.122200	-9.294800	28.446636	1.501611E-6	20.714840
2416.662453	-3.001800	3.119800	-9.363800	28.465372	1.072579E-6	20.707154
2417.662920	-3.004800	3.119300	-9.371800	28.455277	-1.485109E-7	20.708842
2418.665242	-3.008500	3.118500	-9.381300	28.442349	3.465255E-7	20.706729
2419.664798	-3.029300	3.116900	-9.440900	28.430969	1.138584E-6	20.711866
2420.667297	-3.007300	3.115800	-9.369200	28.447596	7.095522E-7	20.709643
2421.665525	-3.001600	3.116000	-9.352300	28.380114	3.184734E-6	20.742687
2422.667137	-3.014900	3.113700	-9.386800	28.385368	5.445401E-7	20.726165
2423.672103	-2.997600	3.112900	-9.330200	28.378176	1.633620E-6	20.717027
2424.665326	-2.959900	3.112700	-9.212900	28.369597	-1.006574E-6	20.729251
2425.664895	-2.973600	3.112600	-9.255400	28.410839	1.303596E-6	20.737589
2426.669231	-2.993500	3.110600	-9.310800	28.350424	-6.765498E-7	20.726541
2427.670774	-2.990000	3.109400	-9.295900	28.339165	-6.765498E-7	20.709988
2428.669844	-2.982500	3.107900	-9.268100	28.430572	5.115377E-7	20.745132
2429.663976	-2.994500	3.108100	-9.306200	28.506092	8.250607E-8	20.726825
2430.669477	-3.008300	3.106500	-9.344000	28.551125	1.204589E-6	20.721442
2431.668769	-2.995700	3.106000	-9.302800	28.539845	8.745644E-7	20.730945
2432.670006	-3.016800	3.106100	-9.369300	28.589059	-1.666623E-6	20.740681
2433.667296	-2.989500	3.103600	-9.276600	28.554287	2.805207E-7	20.753077
2434.670973	-3.000400	3.104700	-9.314700	28.496131	-3.877786E-6	20.732916
2435.671001	-3.019500	3.101500	-9.363300	28.439752	-4.455328E-7	20.733987
2436.667614	-2.987000	3.101200	-9.261900	28.433533	-7.755571E-7	20.724879
2437.672818	-3.005900	3.100000	-9.317200	28.483492	-7.755571E-7	20.745318
2438.678132	-2.994900	3.098500	-9.279100	28.540860	-2.656696E-6	20.731493
2439.674170	-2.995700	3.097000	-9.276500	28.525244	-1.831635E-6	20.738526
2440.674882	-3.002600	3.095700	-9.295000	28.547048	-3.019722E-6	20.748157
2441.669616	-3.010300	3.095900	-9.318900	28.495007	-3.547761E-6	20.742689
2442.683769	-3.005300	3.094600	-9.299200	28.480019	-3.085727E-6	20.744191
2443.673337	-3.004200	3.094600	-9.295800	28.504252	-4.141805E-6	20.754845
2444.673594	-3.026900	3.092200	-9.358300	28.512330	-1.072579E-6	20.738797
2445.671069	-3.000700	3.092100	-9.277500	28.603196	-5.065873E-6	20.741642
2446.683437	-3.013000	3.089400	-9.306900	28.677156	-1.897640E-6	20.748804
2447.687218	-2.998300	3.090700	-9.265800	28.700743	-4.504832E-6	20.755492
2448.675317	-2.992000	3.088500	-9.240300	28.737583	-3.613766E-6	20.746132
2449.681170	-2.986200	3.088500	-9.222200	28.777991	-1.336598E-6	20.732307
2450.682774	-3.002200	3.085900	-9.263300	28.795848	-4.537834E-6	20.740812
2451.683008	-3.012400	3.084300	-9.290600	28.735547	-3.613766E-6	20.758781
2452.688233	-2.999200	3.083700	-9.247000	28.662875	-2.986720E-6	20.747697
2453.681935	-3.009700	3.083300	-9.278700	28.670927	-4.603839E-6	20.764342
2454.687028	-2.995900	3.082800	-9.235500	28.655441	-4.768851E-6	20.772926
2455.676750	-3.008800	3.080500	-9.267500	28.661879	-3.151732E-6	20.736261
2456.677170	-3.013700	3.080000	-9.281200	28.627660	-4.141805E-6	20.755851
2457.690714	-2.981000	3.080900	-9.183600	28.631034	-4.471829E-6	20.752137
2458.683705	-3.004600	3.077900	-9.247100	28.598447	-4.075800E-6	20.761042
2459.680885	-2.985800	3.078100	-9.190000	28.606499	-3.217737E-6	20.752556
2460.677267	-2.979000	3.076500	-9.163900	28.587216	-4.174807E-6	20.756368
2461.679268	-2.978700	3.075200	-9.158300	28.592296	-5.461902E-6	20.755796
2462.682255	-3.016100	3.073900	-9.270100	28.628223	-4.636841E-6	20.769694
2463.685710	-3.008200	3.073000	-9.242700	28.693635	-4.042798E-6	20.758764
2464.680169	-3.035300	3.070800	-9.319800	28.673324	-4.141805E-6	20.747315
2465.675601	-2.974300	3.070200	-9.130400	28.686897	-5.362895E-6	20.746288
2466.677410	-3.005500	3.069300	-9.224100	28.566525	-4.042798E-6	20.761609
2467.680789	-3.017200	3.067400	-9.253700	28.572131	-6.881007E-6	20.735486
2468.681946	-2.996700	3.066800	-9.188800	28.537487	-6.815002E-6	20.749434
2469.700252	-3.032000	3.064900	-9.292100	28.611746	-4.504832E-6	20.747883
2470.679447	-2.986500	3.064600	-9.151200	28.657980	-5.461902E-6	20.761258
2471.682086	-2.986800	3.062100	-9.145300	28.704138	-6.319965E-6	20.751799
2472.683351	-2.988500	3.064100	-9.156000	28.656518	-5.461902E-6	20.751251
2473.683578	-2.976500	3.061900	-9.113300	28.651315	-4.042798E-6	20.763555
2474.682289	-3.003600	3.060500	-9.191400	28.636049	-5.230885E-6	20.767145
2475.684505	-3.028800	3.058000	-9.261100	28.589858	-8.036092E-6	20.771358
2476.678898	-2.996700	3.057200	-9.159800	28.634215	-3.481756E-6	20.767669
2477.683415	-2.974500	3.056400	-9.091000	28.693041	-8.135099E-6	20.761960
2478.692105	-2.993100	3.056700	-9.148000	28.699455	-6.484978E-6	20.788335
2479.691705	-3.004900	3.053100	-9.172900	28.670440	-5.560910E-6	20.769067
2480.685270	-2.971800	3.053100	-9.072100	28.708650	-6.815002E-6	20.768672
2481.689700	-3.009500	3.051700	-9.183200	28.666105	-8.069094E-6	20.767071
2482.686650	-3.022300	3.049600	-9.216500	28.655748	-6.352968E-6	20.763752
2483.686909	-3.005600	3.049000	-9.163100	28.649011	-8.465124E-6	20.774036
2484.683228	-3.008500	3.048300	-9.170500	28.706040	-7.574058E-6	20.774104
2485.687648	-3.018200	3.046800	-9.194600	28.787970	-3.745776E-6	20.749946
2486.681891	-2.998100	3.044900	-9.128300	28.813315	-6.583985E-6	20.788280
2487.681449	-3.012000	3.043800	-9.167000	28.827833	-7.508053E-6	20.764498
2488.688849	-3.013400	3.043400	-9.170100	28.852499	-5.890934E-6	20.766586
2489.690942	-2.990800	3.042300	-9.098200	28.819330	-8.333114E-6	20.768735
2490.683325	-3.015500	3.039000	-9.162500	28.788637	-4.867859E-6	20.789973
2491.688609	-2.980200	3.038900	-9.055600	28.758609	-4.735849E-6	20.775847
2492.688250	-3.000500	3.038100	-9.114900	28.821556	-7.838077E-6	20.763390
2493.690236	-2.990800	3.035800	-9.078900	28.815138	-6.947012E-6	20.771149
2494.689605	-3.008100	3.036200	-9.131900	28.797477	-7.838077E-6	20.769006
2495.689154	-3.022900	3.032500	-9.166100	28.798021	-3.877786E-6	20.780460
2496.691570	-3.001900	3.032500	-9.102000	28.828292	-8.201104E-6	20.782030
2497.686475	-3.012400	3.030900	-9.129400	28.794672	-5.857931E-6	20.784672
2498.690399	-2.973500	3.030000	-9.008700	28.760413	-7.640063E-6	20.789044
2499.691451	-3.010500	3.028900	-9.117400	28.800350	-5.989941E-6	20.793712
2500.687464	-3.020900	3.026200	-9.141100	28.691038	-1.031326E-5	20.779857
2501.693454	-3.018600	3.026400	-9.133600	28.670325	-9.851226E-6	20.792185
2502.694079	-3.025400	3.025400	-9.151500	28.638642	-8.036092E-6	20.795836
2503.692368	-3.024900	3.022600	-9.142300	28.691950	-9.884228E-6	20.787887
2504.688259	-3.028100	3.021400	-9.148200	28.740063	-6.782000E-6	20.767123
2505.691095	-2.977200	3.021500	-8.994200	28.761319	-6.319965E-6	20.799440
2506.686224	-2.990000	3.020500	-9.030400	28.737685	-8.003089E-6	20.778952
2507.688607	-2.997900	3.018000	-9.046200	28.729658	-7.937085E-6	20.792678
2508.690554	-2.999700	3.017100	-9.049800	28.770837	-6.881007E-6	20.778681
2509.694374	-2.988000	3.015800	-9.010900	28.787233	-7.376043E-6	20.803732
2510.692675	-3.035400	3.013200	-9.144700	28.822285	-6.022944E-6	20.800635
2511.695554	-2.980100	3.014800	-8.983300	28.814900	-8.168102E-6	20.770436
2512.697980	-2.968800	3.011300	-8.939000	28.821436	-8.399119E-6	20.790770
2513.693805	-3.008400	3.010400	-9.054700	28.845299	-8.663138E-6	20.793947
2514.694571	-2.980600	3.009300	-8.968400	28.799441	-8.531128E-6	20.801331
2515.693710	-3.019300	3.007700	-9.079400	28.801764	-9.587206E-6	20.778541
2516.692361	-2.988300	3.005200	-8.979700	28.830526	-8.465124E-6	20.800401
2517.693810	-3.015200	3.005300	-9.060600	28.865631	-7.376043E-6	20.814903
2518.692478	-3.003200	3.004400	-9.021700	28.884237	-9.290184E-6	20.777697
2519.698989	-2.984000	3.002100	-8.957200	28.945220	-8.630136E-6	20.787925
2520.696948	-3.014600	3.000800	-9.044800	28.951167	-9.521201E-6	20.816676
2521.693416	-3.009900	2.997800	-9.022000	28.944255	-8.465124E-6	20.797858
2522.698208	-2.993800	2.997700	-8.973600	28.856590	-1.051127E-5	20.821916
2523.693062	-2.998400	2.996500	-8.983700	28.827683	-8.135099E-6	20.794218
2524.693987	-3.007200	2.996300	-9.009800	28.870264	-8.663138E-6	20.799182
2525.699174	-2.988300	2.994400	-8.947100	28.858889	-7.904082E-6	20.799102
2526.693418	-2.984000	2.991800	-8.926900	28.864341	-7.871080E-6	20.787051
2527.693591	-3.008800	2.989900	-8.994600	28.920252	-9.851226E-6	20.797384
2528.700258	-2.997700	2.989000	-8.958300	28.939945	-7.013017E-6	20.806319
2529.693851	-2.968600	2.989300	-8.872800	28.934646	-9.158175E-6	20.788178
2530.695408	-2.988400	2.986700	-8.923900	28.894562	-1.044527E-5	20.794736
2531.694143	-2.976700	2.985200	-8.884900	28.868509	-9.257182E-6	20.789353
2532.696528	-2.982400	2.984600	-8.900500	28.883040	-8.036092E-6	20.799724
2533.695448	-2.989000	2.983600	-8.917500	28.809992	-7.706068E-6	20.805321
2534.698091	-3.034700	2.980600	-9.044600	28.858454	-8.927158E-6	20.804828
2535.695326	-2.986300	2.978800	-8.894300	28.779579	-9.752218E-6	20.809772
2536.699409	-3.004500	2.977400	-8.944700	28.780936	-8.036092E-6	20.816830
2537.699697	-3.009100	2.976300	-8.955300	28.783845	-9.917231E-6	20.812173
2538.697919	-2.998600	2.974200	-8.917800	28.782599	-6.583985E-6	20.808547
2539.699128	-2.988800	2.972800	-8.883700	28.799917	-1.018125E-5	20.801810
2540.697558	-3.035900	2.971100	-9.018300	28.857047	-7.970087E-6	20.829489
2541.705556	-2.991400	2.970100	-8.883600	28.842157	-9.950233E-6	20.803110
2542.699355	-3.007800	2.968800	-8.928900	28.828611	-9.059167E-6	20.824076
2543.703076	-2.996500	2.967900	-8.892500	28.828934	-9.851226E-6	20.828196
2544.703780	-3.022500	2.966800	-8.966400	28.871124	-7.442048E-6	20.823282
2545.699950	-3.001700	2.963300	-8.894200	28.909669	-8.993162E-6	20.810904
2546.700397	-3.007100	2.962500	-8.907500	28.943929	-9.455196E-6	20.807013
2547.703569	-2.979600	2.961000	-8.821100	28.914528	-9.191177E-6	20.830024
2548.702843	-2.972900	2.959800	-8.798600	28.921887	-8.630136E-6	20.804721
2549.703055	-2.979300	2.959200	-8.815700	28.909534	-8.663138E-6	20.813138
2550.704359	-2.992000	2.957000	-8.846900	28.863207	-8.828150E-6	20.808194
2551.702229	-3.021200	2.954400	-8.924400	28.894791	-1.153435E-5	20.843804
2552.704016	-2.999500	2.954000	-8.859800	28.923531	-1.107232E-5	20.811593
2553.708279	-2.997000	2.952600	-8.847200	28.899699	-9.818223E-6	20.822197
2554.704831	-3.010400	2.950600	-8.882000	28.861012	-1.077529E-5	20.823052
2555.704580	-3.005900	2.948600	-8.862300	28.907932	-1.120433E-5	20.821007
2556.706945	-2.992500	2.948500	-8.821900	28.901269	-1.001624E-5	20.819511
2557.704875	-2.995600	2.946000	-8.824400	28.908922	-8.300111E-6	20.822479
2558.703330	-2.978800	2.945800	-8.774600	28.963522	-7.442048E-6	20.808260
2559.705158	-2.992900	2.942100	-8.804700	29.020026	-8.465124E-6	20.820618
2560.704332	-2.989100	2.941200	-8.791200	29.074712	-8.729143E-6	20.830674
2561.704786	-3.002700	2.939100	-8.824100	29.134450	-9.818223E-6	20.832072
2562.711734	-3.022900	2.937300	-8.877500	29.180935	-1.186437E-5	20.846671
2563.708826	-2.973900	2.936200	-8.730600	29.106760	-1.245842E-5	20.828827
2564.704358	-3.022300	2.933700	-8.865700	29.073257	-1.209539E-5	20.826363
2565.704150	-2.991700	2.932800	-8.772900	29.079277	-1.084130E-5	20.854713
2566.704796	-2.980800	2.932100	-8.738500	28.955734	-8.201104E-6	20.826018
2567.705228	-3.007700	2.929900	-8.811900	28.946792	-1.067629E-5	20.804207
2568.708962	-3.027600	2.928000	-8.863800	28.938100	-1.041227E-5	20.801615
2569.705398	-3.015300	2.925600	-8.820300	28.949836	-1.176537E-5	20.803955
2570.704984	-3.018200	2.924400	-8.824700	28.951596	-1.103931E-5	20.805728
2571.704165	-3.011700	2.922800	-8.801100	29.041910	-1.113832E-5	20.817538
2572.708120	-3.002800	2.922100	-8.774000	29.094885	-1.146834E-5	20.827767
2573.708026	-3.010400	2.917600	-8.782600	29.121713	-1.166636E-5	20.817341
2574.707088	-2.977600	2.917500	-8.686200	29.167503	-1.183137E-5	20.831239
2575.706314	-2.999600	2.916900	-8.748800	29.205645	-9.191177E-6	20.823209
2576.707998	-2.985200	2.915200	-8.701300	29.246678	-1.193038E-5	20.821885
2577.706604	-2.987300	2.911800	-8.697900	29.249776	-1.107232E-5	20.825955
2578.709509	-3.032700	2.908500	-8.819900	29.239944	-1.143534E-5	20.801823
2579.707942	-2.986400	2.909500	-8.688400	29.222657	-9.653211E-6	20.786773
2580.705326	-2.978200	2.907200	-8.657400	29.182369	-1.051127E-5	20.815401
2581.706056	-2.985600	2.906100	-8.674900	29.149456	-9.455196E-6	20.815426
2582.707782	-2.995800	2.904500	-8.700500	29.133586	-1.024725E-5	20.793269
2583.706461	-3.025400	2.900900	-8.775300	29.189079	-8.861153E-6	20.805093
2584.706347	-3.002500	2.900800	-8.709000	29.146144	-1.107232E-5	20.815407
2585.705786	-3.012800	2.897200	-8.727500	29.213033	-1.242542E-5	20.801256
2586.710852	-3.018500	2.896500	-8.742200	29.239357	-1.087430E-5	20.799809
2587.710139	-2.999000	2.894500	-8.680300	29.196363	-9.422194E-6	20.812907
2588.709126	-2.995900	2.892700	-8.665900	29.219913	-1.146834E-5	20.803449
2589.710016	-2.993600	2.892800	-8.658700	29.271332	-1.136934E-5	20.790781
2590.707196	-2.995000	2.890800	-8.657100	29.228241	-9.092170E-6	20.793823
2591.711863	-2.986400	2.887500	-8.622000	29.193545	-1.087430E-5	20.784463
2592.713280	-3.002500	2.886200	-8.665300	29.109171	-1.166636E-5	20.795221
2593.709082	-3.006600	2.884200	-8.670900	29.070260	-1.331648E-5	20.771187
2594.714969	-2.994200	2.881000	-8.625100	29.078407	-1.018125E-5	20.801207
2595.709367	-2.966800	2.880600	-8.545400	29.165308	-1.226040E-5	20.792044
2596.712084	-3.013100	2.877700	-8.670400	29.169481	-9.653211E-6	20.787714
2597.708710	-3.000500	2.875000	-8.625300	29.187453	-8.828150E-6	20.784014
2598.712066	-2.975200	2.876300	-8.556200	29.141047	-9.554204E-6	20.776131
2599.712317	-3.003500	2.872000	-8.625800	29.132210	-9.257182E-6	20.802788
2600.708883	-2.997000	2.868900	-8.597100	29.168986	-1.163336E-5	20.781051
2601.710106	-3.016100	2.868000	-8.648700	29.241794	-1.209539E-5	20.787092
2602.710164	-2.994200	2.866200	-8.581700	29.270867	-1.156735E-5	20.777984
2603.711966	-3.024900	2.864600	-8.663900	29.351770	-1.024725E-5	20.777965
2604.718554	-2.987200	2.863800	-8.553500	29.342551	-1.044527E-5	20.765829
2605.716209	-2.958500	2.860700	-8.462400	29.398662	-1.176537E-5	20.769751
2606.710674	-2.988400	2.858000	-8.540000	29.341468	-1.235941E-5	20.759522
2607.712873	-2.984700	2.856200	-8.524200	29.263473	-8.927158E-6	20.781912
2608.714577	-2.996800	2.856400	-8.559400	29.233458	-1.074229E-5	20.786278
2609.712429	-2.992000	2.852800	-8.534300	29.312207	-1.212839E-5	20.776499
2610.714144	-3.035200	2.849800	-8.648800	29.290473	-8.465124E-6	20.772139
2611.714303	-2.999000	2.849200	-8.544400	29.321769	-1.196338E-5	20.756738
2612.711937	-2.999000	2.846500	-8.536000	29.337966	-1.186437E-5	20.756467
2613.716045	-2.995000	2.843900	-8.516800	29.349336	-1.004924E-5	20.771246
2614.718922	-3.013900	2.840700	-8.560000	29.396436	-1.018125E-5	20.766085
2615.714264	-3.008800	2.839200	-8.541600	29.436446	-1.202939E-5	20.759471
2616.714855	-3.005300	2.838100	-8.528500	29.478587	-1.130333E-5	20.749316
2617.716574	-2.991900	2.834700	-8.480400	29.544515	-1.094031E-5	20.775470
2618.720196	-2.982100	2.832900	-8.446800	29.540629	-1.041227E-5	20.756380
2619.719711	-2.991400	2.829500	-8.463100	29.472881	-1.153435E-5	20.764901
2620.716447	-3.012900	2.828200	-8.520300	29.429206	-1.130333E-5	20.752647
2621.716149	-2.998700	2.826500	-8.475200	29.375448	-1.176537E-5	20.765321
2622.720166	-3.026700	2.824300	-8.546900	29.382816	-1.107232E-5	20.777488
2623.719737	-3.010100	2.821800	-8.493100	29.417921	-1.140234E-5	20.759765
2624.719378	-2.974600	2.818800	-8.384000	29.416021	-1.143534E-5	20.752634
2625.725091	-2.999000	2.817400	-8.448700	29.425380	-1.169936E-5	20.774870
2626.720309	-2.994200	2.814800	-8.427400	29.413791	-1.120433E-5	20.741377
2627.721062	-3.004700	2.813100	-8.451900	29.424274	-1.384452E-5	20.750995
2628.724619	-2.993700	2.809300	-8.409800	29.421922	-1.113832E-5	20.771384
2629.721201	-3.004400	2.808000	-8.436000	29.361535	-9.488199E-6	20.748452
2630.721466	-3.002400	2.803400	-8.416800	29.365554	-1.325048E-5	20.751555
2631.729799	-2.990200	2.801300	-8.375700	29.377884	-1.143534E-5	20.745489
2632.723733	-3.021500	2.799000	-8.455700	29.387170	-1.275544E-5	20.752004
2633.720874	-3.008100	2.795800	-8.409200	29.426882	-1.094031E-5	20.765478
2634.729405	-2.997000	2.793000	-8.369900	29.362267	-9.950233E-6	20.762466
2635.730047	-2.960900	2.793000	-8.269300	29.310815	-1.133634E-5	20.740008
2636.724786	-2.984100	2.789200	-8.322500	29.353927	-1.334948E-5	20.748370
2637.725026	-2.988000	2.786300	-8.324500	29.350805	-1.130333E-5	20.748069
2638.726467	-2.976000	2.783500	-8.283100	29.453365	-1.275544E-5	20.734323
2639.724746	-2.997500	2.779300	-8.330100	29.526673	-1.107232E-5	20.757484
2640.724491	-3.011900	2.776900	-8.362600	29.603396	-1.186437E-5	20.738572
2641.727755	-3.021700	2.774100	-8.381400	29.592029	-1.097331E-5	20.737544
2642.732505	-2.991000	2.770600	-8.285900	29.614984	-1.044527E-5	20.738874
2643.727033	-3.006600	2.766300	-8.316000	29.623999	-9.521201E-6	20.759817
2644.729139	-2.985600	2.766300	-8.256700	29.694895	-9.620209E-6	20.751633
2645.726681	-3.008900	2.761000	-8.306500	29.641676	-1.037926E-5	20.737808
2646.729132	-2.978400	2.760100	-8.219800	29.637498	-1.140234E-5	20.744027
2647.727777	-2.979200	2.758000	-8.215600	29.582699	-1.054428E-5	20.744261
2648.727854	-3.025900	2.752700	-8.327700	29.612869	-1.153435E-5	20.746700
2649.727034	-3.023300	2.748500	-8.308700	29.685506	-1.067629E-5	20.735528
2650.727777	-3.019800	2.746000	-8.290900	29.718751	-1.077529E-5	20.747235
2651.728835	-3.007800	2.743000	-8.249400	29.697220	-9.158175E-6	20.734536
2652.728299	-3.021500	2.739400	-8.276000	29.615929	-1.331648E-5	20.744094
2653.729769	-3.017700	2.735700	-8.254900	29.609221	-9.158175E-6	20.734487
2654.728478	-3.032300	2.731200	-8.281000	29.618628	-1.186437E-5	20.719787
2655.728236	-2.999500	2.729700	-8.186800	29.596327	-1.067629E-5	20.726229
2656.729502	-3.004000	2.726600	-8.189400	29.620021	-1.150135E-5	20.742529
2657.743574	-2.996800	2.723800	-8.162100	29.683642	-1.179837E-5	20.754513
2658.730701	-2.983000	2.718200	-8.107700	29.658544	-1.136934E-5	20.723518
2659.733371	-2.983300	2.715400	-8.098900	29.640452	-1.110532E-5	20.732306
2660.737491	-2.996100	2.711200	-8.122300	29.717588	-1.014825E-5	20.731363
2661.730773	-2.989400	2.705900	-8.088200	29.781131	-1.064328E-5	20.719564
2662.733637	-3.023400	2.701700	-8.167500	29.808876	-8.729143E-6	20.729522
2663.732422	-3.019100	2.698800	-8.146800	29.786426	-1.014825E-5	20.750035
2664.731524	-2.984900	2.695700	-8.045200	29.751735	-9.323187E-6	20.725488
2665.731418	-3.006000	2.690100	-8.085400	29.746807	-1.028026E-5	20.747546
2666.730354	-3.022100	2.684800	-8.112900	29.768341	-1.209539E-5	20.738913
2667.735852	-2.968700	2.684700	-7.968900	29.780275	-1.084130E-5	20.743359
2668.730400	-2.971100	2.678600	-7.957200	29.809309	-1.166636E-5	20.714785
2669.732865	-2.990100	2.674700	-7.997100	29.813993	-9.554204E-6	20.726620
2670.731793	-2.993300	2.670500	-7.992500	29.822335	-1.113832E-5	20.740722
2671.733549	-3.009800	2.664900	-8.019400	29.815703	-1.169936E-5	20.730715
2672.734069	-3.000400	2.660900	-7.983100	29.760413	-1.245842E-5	20.732815
2673.736184	-2.978700	2.656700	-7.912300	29.753628	-1.186437E-5	20.735931
2674.732605	-2.990000	2.651400	-7.927400	29.792171	-1.117132E-5	20.749189
2675.729187	-2.981500	2.647900	-7.894300	29.744405	-1.080830E-5	20.729003
2676.731749	-3.013900	2.641900	-7.960100	29.752272	-1.268943E-5	20.735512
2677.732187	-3.008900	2.636700	-7.932600	29.759289	-1.084130E-5	20.723146
2678.735964	-3.023300	2.631500	-7.955100	29.798443	-9.257182E-6	20.710940
2679.735228	-2.988500	2.628400	-7.852900	29.880710	-1.212839E-5	20.713287
2680.734725	-2.978600	2.622900	-7.811900	29.949360	-1.067629E-5	20.718503
2681.735183	-2.990300	2.615900	-7.821600	29.968393	-1.305246E-5	20.717308
2682.735363	-2.977800	2.611400	-7.775400	30.045628	-1.160035E-5	20.734033
2683.734348	-3.021600	2.605300	-7.870800	30.093332	-1.127033E-5	20.715288
2684.733824	-2.992000	2.599000	-7.775300	30.101677	-9.092170E-6	20.723232
2685.736542	-2.986000	2.595500	-7.749500	30.133718	-9.686214E-6	20.740376
2686.739387	-3.020100	2.589300	-7.818700	30.139115	-7.178029E-6	20.719740
2687.740005	-2.987400	2.583700	-7.717900	30.119047	-9.884228E-6	20.735061
2688.741639	-3.007800	2.578400	-7.754400	30.052539	-1.087430E-5	20.704492
2689.745183	-3.010600	2.572100	-7.743100	30.037598	-1.004924E-5	20.715977
2690.739111	-3.045700	2.564800	-7.810100	30.077981	-9.587206E-6	20.713557
2691.743160	-3.010200	2.560300	-7.706500	29.951954	-1.021425E-5	20.701203
2692.743073	-3.042400	2.553400	-7.767400	29.888110	-1.077529E-5	20.731181
2693.744039	-3.002500	2.547900	-7.649200	29.945078	-1.047827E-5	20.724142
2694.741676	-3.024100	2.541000	-7.683500	29.997103	-1.021425E-5	20.715440
2695.740337	-3.005600	2.535000	-7.617500	30.000693	-9.158175E-6	20.724752
2696.745263	-2.981200	2.528800	-7.538500	29.998812	-8.993162E-6	20.711949
2697.739823	-3.003700	2.523600	-7.579100	30.068981	-8.399119E-6	20.711118
2698.743573	-2.990800	2.517700	-7.529400	30.104943	-9.884228E-6	20.708032
2699.742802	-3.052000	2.508200	-7.653600	30.042689	-1.028026E-5	20.720163
2700.741881	-3.020300	2.503000	-7.559700	30.085667	-1.057728E-5	20.714670
2701.741875	-3.039100	2.497100	-7.587500	30.128979	-9.323187E-6	20.690548
