LabVIEW Measurement	
Writer_Version	2
Reader_Version	2
Separator	Tab
Decimal_Separator	.
Multi_Headings	No
X_Columns	One
Time_Pref	Absolute
Operator	admin
Description	Clolumns are: time, Current, Voltage, Power, Battery Temp, and Chamber Temp
Date	2024/08/16
Time	13:07:17.8513970375061035156
***End_of_Header***	
	
Channels	6						
Samples	1	1	1	1	1	1	
Date	2024/08/24	2024/08/24	2024/08/24	2024/08/24	2024/08/24	2024/08/24	
Time	20:55:40.3149976730346679687	20:55:40.3205423355102539062	20:55:40.3254141807556152344	20:55:40.2969646453857421875	20:55:40.2969646453857421875	20:55:40.2969646453857421875	
X_Dimension	Time	Time	Time	Time	Time	Time	
X0	0.0000000000000000E+0	0.0000000000000000E+0	0.0000000000000000E+0	0.0000000000000000E+0	0.0000000000000000E+0	0.0000000000000000E+0	
Delta_X	1.000000	1.000000	1.000000	1.000000	1.000000	1.000000	
***End_of_Header***							
X_Value	Untitled	Untitled 1	Untitled 2	Untitled 3	Untitled 4	Untitled 5	Comment
0.000000	0.019942	4.089500	0.081586	20.807270	0.000453	20.830503
0.997013	-2.977100	3.931600	-11.704000	20.820747	0.000453	20.817428
1.997585	-3.014000	3.926000	-11.832000	20.784787	0.000454	20.837418
3.005862	-3.027100	3.922400	-11.873000	20.807371	0.000454	20.819699
4.001381	-3.018600	3.917900	-11.826000	20.809493	0.000453	20.829408
5.000191	-3.001100	3.917100	-11.754000	20.822795	0.000451	20.820424
6.003450	-2.983800	3.913400	-11.675000	20.828384	0.000450	20.832651
7.007795	-3.001200	3.912000	-11.740000	20.826638	0.000450	20.838492
7.999190	-2.996800	3.908300	-11.712000	20.839763	0.000451	20.826013
9.001067	-3.015300	3.906600	-11.779000	20.834874	0.000449	20.814486
10.002906	-3.019300	3.904500	-11.788000	20.853290	0.000447	20.836221
10.999907	-2.998500	3.905100	-11.709000	20.853639	0.000448	20.821397
12.012177	-3.002300	3.903600	-11.719000	20.871433	0.000448	20.832554
13.006765	-2.996900	3.901600	-11.692000	20.864770	0.000445	20.843434
14.005905	-2.991900	3.900800	-11.670000	20.851968	0.000444	20.826839
15.000969	-2.988000	3.899400	-11.650000	20.878271	0.000446	20.850772
16.004010	-3.007800	3.898200	-11.724000	20.891098	0.000447	20.824245
17.003582	-3.014200	3.898500	-11.750000	20.892721	0.000445	20.823024
18.001511	-3.007500	3.897800	-11.722000	20.917048	0.000444	20.824120
19.007084	-3.003700	3.896600	-11.703000	20.902150	0.000443	20.851893
20.012262	-3.028400	3.895000	-11.794000	20.903374	0.000445	20.836049
21.007363	-2.995800	3.894700	-11.667000	20.925359	0.000442	20.831957
22.003347	-2.990500	3.893800	-11.643000	20.935039	0.000441	20.840690
23.004489	-2.994900	3.892600	-11.657000	20.935761	0.000440	20.842834
24.013643	-3.019500	3.892100	-11.751000	20.937588	0.000443	20.838972
25.010063	-3.002400	3.892500	-11.686000	20.966605	0.000444	20.854242
26.008482	-3.021600	3.892100	-11.759000	20.946995	0.000440	20.831310
27.007091	-2.984600	3.892200	-11.616000	20.969974	0.000442	20.847180
28.008814	-3.006100	3.890300	-11.694000	20.988833	0.000440	20.866041
29.011618	-3.014700	3.890500	-11.727000	20.976310	0.000442	20.829335
30.010824	-3.002400	3.888600	-11.674000	20.986391	0.000440	20.850797
31.018514	-2.988800	3.889200	-11.623000	21.010069	0.000442	20.832281
32.009410	-3.008600	3.888100	-11.696000	21.012016	0.000441	20.846081
33.012283	-3.016900	3.886200	-11.722000	21.011890	0.000439	20.856860
34.009938	-3.019100	3.887300	-11.735000	21.048619	0.000439	20.841914
35.018411	-3.012600	3.886900	-11.708000	21.024370	0.000442	20.837575
36.011765	-2.990400	3.886800	-11.622000	21.049491	0.000440	20.850847
37.010572	-3.000700	3.886100	-11.660000	21.052960	0.000438	20.848153
38.010956	-2.977000	3.885600	-11.567000	21.080753	0.000439	20.851296
39.012874	-3.004600	3.886200	-11.675000	21.061270	0.000438	20.860732
40.011678	-2.969700	3.887000	-11.542000	21.093455	0.000438	20.861630
41.014472	-3.010400	3.884900	-11.694000	21.073743	0.000438	20.871784
42.012410	-2.995800	3.885300	-11.638000	21.094453	0.000438	20.851723
43.014407	-2.980500	3.885200	-11.579000	21.110093	0.000438	20.852668
44.017300	-2.971300	3.884700	-11.542000	21.104706	0.000437	20.846806
45.016434	-2.982700	3.884600	-11.584000	21.121419	0.000436	20.851196
46.019663	-3.013400	3.883000	-11.700000	21.120726	0.000439	20.856666
47.017351	-3.010300	3.883700	-11.690000	21.128705	0.000437	20.841415
48.022828	-3.016600	3.882100	-11.710000	21.124044	0.000437	20.853347
49.018538	-3.003600	3.883100	-11.662000	21.138459	0.000437	20.872032
50.016804	-2.996300	3.882200	-11.631000	21.145993	0.000436	20.864870
51.018070	-2.997800	3.882300	-11.637000	21.162910	0.000437	20.853818
52.017180	-2.997200	3.880800	-11.630000	21.153602	0.000437	20.853990
53.023936	-2.996800	3.882300	-11.634000	21.183938	0.000437	20.851146
54.018995	-3.004300	3.879500	-11.655000	21.173859	0.000438	20.854813
55.018004	-3.011700	3.880600	-11.686000	21.195612	0.000438	20.865194
56.018253	-3.004900	3.880400	-11.659000	21.202248	0.000435	20.850496
57.020517	-3.009900	3.879900	-11.677000	21.210755	0.000436	20.867539
58.019808	-3.006600	3.879200	-11.662000	21.222877	0.000437	20.855485
59.021580	-2.992300	3.879600	-11.608000	21.231484	0.000437	20.869784
60.023630	-3.004000	3.879300	-11.652000	21.255208	0.000439	20.869809
61.020977	-2.995400	3.879000	-11.618000	21.242583	0.000437	20.856706
62.024440	-2.996600	3.878800	-11.623000	21.239244	0.000438	20.860477
63.022513	-3.001800	3.879100	-11.644000	21.254834	0.000437	20.860427
64.023513	-3.014400	3.879000	-11.691000	21.256953	0.000436	20.871081
65.023070	-2.991300	3.879600	-11.604000	21.279681	0.000439	20.878171
66.024202	-2.998700	3.877800	-11.628000	21.270849	0.000437	20.864120
67.025162	-2.989400	3.879000	-11.594000	21.277060	0.000438	20.868437
68.028872	-3.000200	3.878800	-11.637000	21.303203	0.000435	20.849073
69.024802	-2.990100	3.879100	-11.598000	21.317195	0.000438	20.872079
70.025194	-3.000100	3.877800	-11.633000	21.305071	0.000436	20.861846
71.027618	-2.997700	3.877800	-11.623000	21.337776	0.000438	20.866591
72.022622	-3.029600	3.877300	-11.745000	21.315475	0.000436	20.868462
73.026163	-3.006100	3.877200	-11.654000	21.349322	0.000436	20.871505
74.029601	-2.993200	3.876800	-11.604000	21.363267	0.000437	20.871232
75.024829	-3.000000	3.877900	-11.632000	21.355010	0.000437	20.889047
76.027020	-2.991300	3.877200	-11.596000	21.365433	0.000438	20.867709
77.024137	-2.984500	3.876500	-11.569000	21.374465	0.000437	20.894288
78.028199	-2.974000	3.877100	-11.529000	21.379901	0.000436	20.881235
79.024005	-3.015600	3.876700	-11.690000	21.386235	0.000439	20.856279
80.043947	-3.008800	3.876900	-11.664000	21.392019	0.000435	20.874868
81.023090	-2.984400	3.875900	-11.567000	21.403569	0.000436	20.857027
82.049560	-2.992100	3.875300	-11.595000	21.426237	0.000437	20.884921
83.024978	-2.978800	3.876200	-11.546000	21.437184	0.000437	20.894925
84.027662	-2.987500	3.875000	-11.576000	21.436462	0.000438	20.868126
85.033394	-3.012200	3.874100	-11.669000	21.449056	0.000435	20.896372
86.034092	-2.993800	3.874800	-11.599000	21.449800	0.000436	20.878152
87.028161	-2.989800	3.876200	-11.587000	21.466734	0.000438	20.888931
88.029277	-2.995700	3.874000	-11.605000	21.458032	0.000437	20.887336
89.031413	-2.995400	3.875000	-11.606000	21.462319	0.000436	20.894944
90.028305	-2.987000	3.874600	-11.573000	21.501051	0.000437	20.877276
91.028236	-2.970500	3.875600	-11.512000	21.483515	0.000439	20.882488
92.029152	-2.971500	3.874400	-11.512000	21.507560	0.000437	20.898960
93.029838	-2.993900	3.873900	-11.596000	21.495534	0.000439	20.868911
94.038439	-3.000100	3.873700	-11.621000	21.485034	0.000440	20.883534
95.028821	-3.015500	3.872100	-11.675000	21.506282	0.000440	20.886777
96.028964	-3.036000	3.872200	-11.755000	21.514410	0.000440	20.888746
97.031777	-3.002300	3.872600	-11.626000	21.520846	0.000438	20.896134
98.032855	-2.999800	3.871900	-11.614000	21.537300	0.000438	20.895054
99.030578	-3.010200	3.872800	-11.657000	21.534933	0.000439	20.882256
100.028688	-3.011200	3.872100	-11.659000	21.558723	0.000437	20.889939
101.029400	-3.014600	3.871500	-11.670000	21.566480	0.000441	20.899597
102.030273	-3.014000	3.872300	-11.670000	21.560888	0.000439	20.884520
103.039541	-3.009500	3.870600	-11.648000	21.599322	0.000441	20.891211
104.033823	-3.013700	3.871400	-11.666000	21.589419	0.000439	20.898369
105.029718	-3.031200	3.870500	-11.731000	21.590238	0.000438	20.903456
106.048357	-2.998500	3.871700	-11.607000	21.597144	0.000441	20.887135
107.031841	-3.003700	3.869600	-11.622000	21.593978	0.000439	20.904828
108.030910	-2.990600	3.871800	-11.578000	21.621783	0.000440	20.895195
109.034621	-3.002300	3.871000	-11.621000	21.643255	0.000440	20.903880
110.034399	-3.000400	3.871100	-11.613000	21.621482	0.000441	20.883989
111.033102	-3.021400	3.870400	-11.693000	21.648863	0.000439	20.903801
112.033341	-3.028900	3.869900	-11.720000	21.645499	0.000442	20.883367
113.035436	-2.997300	3.870400	-11.600000	21.660657	0.000443	20.903277
114.032907	-3.012400	3.871100	-11.660000	21.646519	0.000442	20.896241
115.035881	-3.002200	3.869700	-11.616000	21.677065	0.000444	20.892197
116.035259	-3.001300	3.869700	-11.613000	21.696964	0.000442	20.913532
117.032766	-2.999200	3.869700	-11.605000	21.695191	0.000442	20.872880
118.040318	-3.015700	3.868900	-11.666000	21.703622	0.000442	20.909290
119.037190	-2.992800	3.869300	-11.580000	21.721249	0.000441	20.893742
120.035385	-2.990600	3.870400	-11.573000	21.700848	0.000442	20.895136
121.035124	-2.990700	3.867600	-11.566000	21.722441	0.000443	20.894935
122.034579	-2.998700	3.869100	-11.601000	21.749794	0.000444	20.901447
123.040986	-2.994900	3.868400	-11.584000	21.739098	0.000442	20.909233
124.037919	-3.001500	3.868700	-11.611000	21.765077	0.000443	20.883079
125.039348	-3.014500	3.867200	-11.657000	21.759166	0.000443	20.921256
126.038737	-2.988600	3.868700	-11.561000	21.758940	0.000445	20.912970
127.036108	-2.985800	3.867700	-11.547000	21.780309	0.000443	20.901642
128.039947	-3.009200	3.868500	-11.641000	21.789881	0.000444	20.922126
129.035865	-3.002900	3.868400	-11.614000	21.775716	0.000444	20.916484
130.037534	-3.016900	3.868000	-11.668000	21.790327	0.000444	20.904555
131.039856	-3.028100	3.866700	-11.708000	21.774217	0.000442	20.907871
132.038323	-2.990200	3.866500	-11.560000	21.781122	0.000442	20.914782
133.038087	-2.983500	3.866200	-11.533000	21.813610	0.000443	20.923115
134.043836	-3.007600	3.866400	-11.628000	21.814080	0.000445	20.936387
135.042109	-2.991000	3.866700	-11.564000	21.806199	0.000445	20.917121
136.041666	-2.980200	3.868100	-11.527000	21.834670	0.000444	20.908635
137.039515	-3.018700	3.866000	-11.669000	21.833993	0.000442	20.915542
138.040360	-3.026200	3.867000	-11.701000	21.836534	0.000444	20.913344
139.041644	-3.012800	3.867100	-11.650000	21.843016	0.000445	20.898022
140.046404	-2.997000	3.866000	-11.585000	21.837476	0.000444	20.919028
141.043249	-2.977000	3.866900	-11.511000	21.852384	0.000447	20.903605
142.053375	-2.995500	3.865600	-11.578000	21.875345	0.000447	20.903354
143.046775	-2.992100	3.867000	-11.568000	21.890275	0.000445	20.932994
144.041885	-2.979700	3.866300	-11.519000	21.876258	0.000447	20.907113
145.041785	-3.005500	3.865500	-11.616000	21.885428	0.000450	20.914394
146.045072	-2.996100	3.866500	-11.583000	21.912577	0.000448	20.923076
147.043358	-3.001400	3.864600	-11.599000	21.930471	0.000449	20.928659
148.046569	-3.029600	3.864500	-11.707000	21.935007	0.000450	20.923717
149.048848	-2.989200	3.865500	-11.553000	21.921688	0.000449	20.922238
150.067431	-3.009300	3.864800	-11.630000	21.938816	0.000451	20.925632
151.046667	-3.010500	3.864800	-11.634000	21.955614	0.000450	20.923482
152.047317	-2.994600	3.864400	-11.571000	21.953990	0.000449	20.917589
153.048755	-2.996900	3.863100	-11.577000	21.954285	0.000454	20.925944
154.045574	-2.983500	3.864300	-11.529000	21.966146	0.000451	20.906525
155.046401	-3.012700	3.862700	-11.636000	21.969760	0.000451	20.944277
156.048383	-2.986900	3.863000	-11.537000	21.978007	0.000452	20.937835
157.049663	-3.004600	3.863200	-11.607000	21.986307	0.000450	20.926705
158.049253	-2.983700	3.864400	-11.529000	22.005150	0.000452	20.931816
159.049175	-3.013400	3.862700	-11.638000	22.000091	0.000450	20.921537
160.052727	-3.007800	3.862800	-11.618000	22.001132	0.000454	20.912623
161.050714	-3.019600	3.862900	-11.663000	22.031220	0.000454	20.928991
162.053366	-3.019600	3.862100	-11.661000	22.026384	0.000453	20.914194
163.051227	-2.980300	3.863900	-11.514000	22.021945	0.000456	20.915440
164.052685	-2.967100	3.863500	-11.462000	22.024260	0.000454	20.930084
165.050914	-2.983900	3.862000	-11.523000	22.063946	0.000459	20.919079
166.054043	-2.987300	3.861500	-11.535000	22.056192	0.000456	20.931230
167.051686	-2.981100	3.862200	-11.512000	22.057736	0.000458	20.925664
168.056098	-3.011000	3.860500	-11.624000	22.074313	0.000456	20.928982
169.052564	-3.030700	3.859400	-11.696000	22.085799	0.000457	20.904923
170.053428	-3.016400	3.860900	-11.645000	22.101632	0.000457	20.937366
171.060108	-2.993900	3.860400	-11.557000	22.102878	0.000457	20.931975
172.054307	-2.998000	3.861400	-11.575000	22.080690	0.000456	20.935840
173.056834	-2.979200	3.861100	-11.502000	22.093653	0.000457	20.933171
174.054488	-2.998500	3.860500	-11.575000	22.121866	0.000458	20.949561
175.056835	-2.993500	3.861500	-11.558000	22.135077	0.000459	20.916324
176.066428	-2.976500	3.860800	-11.491000	22.131414	0.000459	20.954377
177.057380	-2.999200	3.859700	-11.574000	22.138741	0.000459	20.954126
178.057761	-3.009000	3.858500	-11.609000	22.166410	0.000460	20.940578
179.067256	-3.008400	3.857900	-11.604000	22.135598	0.000460	20.946239
180.058646	-2.994100	3.860300	-11.557000	22.150054	0.000461	20.936057
181.059288	-2.990200	3.859900	-11.542000	22.156534	0.000462	20.941596
182.062647	-3.008100	3.858800	-11.606000	22.182135	0.000461	20.950632
183.057487	-3.009400	3.859100	-11.613000	22.189459	0.000460	20.947059
184.060110	-3.003600	3.858400	-11.588000	22.189186	0.000463	20.944889
185.060210	-2.966300	3.859800	-11.448000	22.205162	0.000463	20.944290
186.060145	-2.993400	3.858300	-11.548000	22.229590	0.000464	20.962107
187.060681	-2.999000	3.859000	-11.572000	22.251920	0.000460	20.941794
188.062628	-2.988100	3.858700	-11.529000	22.243446	0.000463	20.939948
189.060993	-2.993600	3.856900	-11.544000	22.210695	0.000464	20.954095
190.060698	-3.000600	3.859000	-11.578000	22.254488	0.000462	20.934883
191.065362	-2.989200	3.858000	-11.531000	22.265951	0.000463	20.947781
192.061136	-2.992600	3.856200	-11.539000	22.247184	0.000462	20.973558
193.061942	-3.002000	3.857000	-11.577000	22.266051	0.000464	20.959734
194.062747	-2.997800	3.857700	-11.564000	22.275450	0.000463	20.952076
195.061967	-3.001100	3.856300	-11.572000	22.293246	0.000465	20.950456
196.065890	-2.991600	3.857800	-11.540000	22.288135	0.000465	20.951028
197.069109	-2.966800	3.856200	-11.439000	22.307650	0.000464	20.970091
198.064764	-2.997900	3.854600	-11.555000	22.316772	0.000467	20.973061
199.064895	-2.981500	3.854800	-11.493000	22.302692	0.000467	20.983143
200.068508	-2.997300	3.854700	-11.552000	22.308101	0.000468	20.957743
201.062855	-3.000600	3.856000	-11.570000	22.317747	0.000465	20.946066
202.067088	-3.015400	3.855300	-11.625000	22.305163	0.000466	20.970920
203.067565	-3.003800	3.855900	-11.582000	22.341797	0.000464	20.980100
204.065432	-3.007200	3.854900	-11.592000	22.335869	0.000468	20.961366
205.067563	-2.997700	3.853300	-11.550000	22.331184	0.000466	20.956201
206.068473	-2.987500	3.854100	-11.513000	22.350621	0.000467	20.968075
207.066115	-2.991700	3.855000	-11.530000	22.347783	0.000468	20.959071
208.067538	-2.984600	3.854100	-11.502000	22.367096	0.000468	20.971296
209.069767	-2.995000	3.853400	-11.539000	22.365177	0.000468	20.988338
210.066439	-3.004200	3.853400	-11.576000	22.353863	0.000469	20.965632
211.069958	-3.003400	3.853100	-11.571000	22.379730	0.000469	20.965931
212.069681	-2.996700	3.852400	-11.543000	22.355980	0.000471	20.975337
213.067339	-3.000400	3.854200	-11.563000	22.398648	0.000471	20.956901
214.068590	-3.000700	3.852900	-11.561000	22.419228	0.000469	20.971818
215.070562	-2.995500	3.853100	-11.542000	22.434307	0.000470	20.964634
216.068134	-3.013000	3.852500	-11.607000	22.434630	0.000470	20.959268
217.070887	-3.008000	3.852400	-11.587000	22.427926	0.000469	20.959193
218.071270	-2.992500	3.851300	-11.524000	22.444147	0.000469	20.972116
219.066921	-2.989400	3.853100	-11.517000	22.473354	0.000472	20.970546
220.074404	-3.004600	3.851800	-11.572000	22.505872	0.000472	20.973240
221.071937	-2.991300	3.852600	-11.524000	22.510456	0.000473	20.948437
222.068028	-3.001400	3.852200	-11.561000	22.504574	0.000472	20.941125
223.071286	-3.007800	3.851100	-11.582000	22.504897	0.000473	20.977953
224.072090	-2.988300	3.851900	-11.509000	22.516360	0.000472	20.945815
225.068524	-3.008800	3.850300	-11.584000	22.525355	0.000474	20.967623
226.070866	-2.985700	3.850200	-11.495000	22.497322	0.000477	20.944293
227.071970	-3.024700	3.849300	-11.641000	22.517129	0.000475	20.958437
228.071084	-3.006500	3.849800	-11.574000	22.528394	0.000476	20.969718
229.073662	-2.989200	3.848700	-11.504000	22.532031	0.000476	20.946811
230.072978	-2.994600	3.849600	-11.527000	22.535492	0.000477	20.968293
231.069613	-3.011400	3.849400	-11.591000	22.522063	0.000475	20.968594
232.070815	-3.004900	3.848400	-11.563000	22.523459	0.000477	20.951028
233.072974	-3.020100	3.849400	-11.624000	22.532379	0.000476	20.957115
234.070697	-2.992500	3.849200	-11.518000	22.515633	0.000477	20.943665
235.074035	-2.997800	3.849800	-11.540000	22.519844	0.000478	20.949304
236.073735	-2.991400	3.849300	-11.514000	22.537784	0.000478	20.951150
237.069817	-2.985900	3.848300	-11.490000	22.557192	0.000478	20.944036
238.073551	-3.007200	3.848300	-11.571000	22.574686	0.000477	20.948281
239.074435	-2.989200	3.849100	-11.505000	22.586672	0.000478	20.956017
240.072684	-2.991900	3.847900	-11.512000	22.604612	0.000482	20.944588
241.072594	-3.003900	3.847100	-11.555000	22.599705	0.000479	20.942993
242.076104	-3.005800	3.846200	-11.560000	22.624394	0.000483	20.935480
243.073348	-3.004900	3.846800	-11.558000	22.599426	0.000482	20.937025
244.074174	-3.017700	3.847400	-11.609000	22.635382	0.000482	20.953596
245.075590	-3.000200	3.845900	-11.536000	22.646794	0.000481	20.949853
246.073521	-2.986500	3.847900	-11.491000	22.637972	0.000483	20.953819
247.075825	-2.984500	3.845600	-11.477000	22.629579	0.000481	20.951577
248.080142	-2.993700	3.846500	-11.513000	22.623397	0.000483	20.937800
249.076821	-3.009400	3.845000	-11.570000	22.670212	0.000483	20.944861
250.075948	-2.989600	3.846700	-11.499000	22.629627	0.000481	20.951624
251.078200	-3.022300	3.844500	-11.618000	22.645747	0.000483	20.932686
252.077326	-2.992100	3.845600	-11.505000	22.656312	0.000484	20.928095
253.076801	-3.005300	3.845600	-11.555000	22.644703	0.000485	20.925002
254.078694	-3.012800	3.844800	-11.582000	22.643402	0.000485	20.928441
255.075747	-3.011600	3.843000	-11.572000	22.675818	0.000486	20.938623
256.078519	-2.976600	3.843400	-11.438000	22.704518	0.000485	20.929913
257.080534	-2.994700	3.842800	-11.507000	22.701082	0.000485	20.937850
258.079706	-3.009500	3.843700	-11.566000	22.706590	0.000488	20.934359
259.080073	-2.999100	3.844600	-11.529000	22.749191	0.000484	20.936255
260.082511	-3.001800	3.843400	-11.536000	22.728910	0.000486	20.939172
261.083600	-2.966500	3.844500	-11.404000	22.736236	0.000486	20.926598
262.079018	-3.008800	3.842800	-11.561000	22.734841	0.000489	20.932786
263.081241	-3.006300	3.843400	-11.554000	22.709029	0.000488	20.935854
264.079330	-3.007800	3.842500	-11.556000	22.705242	0.000489	20.921157
265.078756	-3.010000	3.841600	-11.563000	22.719443	0.000489	20.913097
266.085256	-2.990600	3.843100	-11.491000	22.731427	0.000487	20.931737
267.079125	-3.008000	3.842000	-11.556000	22.743784	0.000490	20.938899
268.079070	-3.014800	3.841800	-11.581000	22.777539	0.000489	20.920557
269.080781	-3.003800	3.842600	-11.541000	22.790792	0.000490	20.921031
270.082783	-2.998500	3.842400	-11.520000	22.810449	0.000490	20.895680
271.079142	-2.993000	3.841100	-11.495000	22.780407	0.000490	20.925326
272.081289	-3.024000	3.840300	-11.611000	22.764338	0.000492	20.917765
273.079761	-3.013800	3.841700	-11.577000	22.784864	0.000490	20.932635
274.080535	-3.003100	3.840000	-11.531000	22.781924	0.000491	20.912623
275.080587	-3.015300	3.841000	-11.581000	22.810051	0.000491	20.924676
276.079836	-3.011600	3.839200	-11.561000	22.819169	0.000494	20.925276
277.082178	-3.011200	3.839900	-11.562000	22.828037	0.000492	20.912824
278.081292	-3.010000	3.839600	-11.557000	22.837826	0.000493	20.915992
279.084237	-2.990400	3.838700	-11.478000	22.835559	0.000493	20.914670
280.093197	-2.995900	3.839200	-11.501000	22.842634	0.000492	20.901370
281.095716	-2.980000	3.839000	-11.440000	22.830804	0.000492	20.906588
282.082273	-2.987700	3.841100	-11.475000	22.837255	0.000493	20.916368
283.083942	-2.984400	3.838600	-11.455000	22.834315	0.000492	20.925276
284.083353	-2.988400	3.837500	-11.467000	22.829908	0.000493	20.924654
285.083575	-2.975300	3.838700	-11.420000	22.858278	0.000495	20.915144
286.083974	-2.990500	3.838900	-11.478000	22.872627	0.000496	20.909131
287.087697	-2.987500	3.838200	-11.466000	22.863882	0.000497	20.907957
288.084981	-2.986300	3.838200	-11.461000	22.884159	0.000495	20.910726
289.084906	-2.988000	3.837400	-11.465000	22.850257	0.000496	20.911850
290.088514	-2.984300	3.837700	-11.452000	22.871327	0.000496	20.900243
291.086484	-2.995100	3.837900	-11.494000	22.893772	0.000496	20.908029
292.091018	-2.993800	3.837600	-11.488000	22.868813	0.000497	20.913844
293.088429	-3.015500	3.835100	-11.563000	22.876436	0.000497	20.913420
294.084806	-3.011200	3.835200	-11.548000	22.906948	0.000498	20.923125
295.087202	-2.992300	3.837600	-11.482000	22.935492	0.000498	20.909524
296.089314	-3.015000	3.836800	-11.567000	22.954774	0.000497	20.923625
297.086592	-2.993300	3.835600	-11.480000	22.939729	0.000498	20.918984
298.086375	-2.986400	3.835900	-11.455000	22.933900	0.000497	20.907929
299.087413	-2.989100	3.835500	-11.464000	22.949665	0.000500	20.924196
300.091332	-2.982000	3.836500	-11.439000	22.940798	0.000499	20.917684
301.086459	-3.005300	3.835000	-11.525000	22.938755	0.000499	20.909948
302.087902	-3.026500	3.833300	-11.600000	22.931308	0.000499	20.930934
303.092666	-3.014100	3.833600	-11.554000	22.914693	0.000501	20.900541
304.088491	-3.004200	3.835100	-11.521000	22.951683	0.000498	20.906306
305.089314	-2.987700	3.835300	-11.458000	22.971159	0.000502	20.883621
306.091538	-3.008400	3.834200	-11.534000	22.963712	0.000498	20.906978
307.088962	-3.020800	3.833300	-11.578000	22.980624	0.000503	20.890258
308.092515	-2.985200	3.833300	-11.443000	23.005606	0.000502	20.894899
309.092868	-2.999000	3.833900	-11.497000	23.023341	0.000501	20.890858
310.094882	-2.997800	3.833000	-11.490000	23.006154	0.000501	20.894975
311.091601	-2.992700	3.832500	-11.469000	23.020003	0.000501	20.918805
312.091495	-2.983700	3.833400	-11.437000	23.041073	0.000502	20.903408
313.091691	-2.995100	3.833100	-11.479000	23.047795	0.000503	20.881222
314.095461	-3.007100	3.832200	-11.523000	23.044956	0.000503	20.889756
315.095158	-2.991700	3.832700	-11.465000	23.043787	0.000504	20.904705
316.092639	-2.994500	3.831500	-11.473000	23.031778	0.000502	20.901682
317.092703	-2.995600	3.831400	-11.476000	23.048789	0.000503	20.896441
318.095452	-2.999900	3.831800	-11.495000	23.036012	0.000502	20.908768
319.098247	-2.999400	3.829800	-11.485000	23.073120	0.000504	20.908966
320.094355	-2.995600	3.829800	-11.472000	23.067692	0.000504	20.872236
321.095959	-2.995300	3.830500	-11.473000	23.095809	0.000504	20.899933
322.097671	-3.010600	3.829500	-11.528000	23.134510	0.000504	20.894617
323.096638	-2.998600	3.828900	-11.480000	23.123452	0.000505	20.898709
324.099793	-3.005600	3.829300	-11.509000	23.093265	0.000507	20.896436
325.101193	-2.976900	3.830400	-11.402000	23.127206	0.000506	20.890144
326.097079	-3.010700	3.829100	-11.527000	23.115825	0.000505	20.889645
327.099438	-3.004300	3.828400	-11.500000	23.119661	0.000506	20.880687
328.097627	-3.002300	3.829600	-11.496000	23.114007	0.000507	20.878815
329.101571	-3.012900	3.828500	-11.534000	23.093357	0.000506	20.897476
330.102586	-2.999700	3.828600	-11.484000	23.116443	0.000508	20.898324
331.099445	-3.005700	3.828000	-11.504000	23.103965	0.000506	20.890088
332.104023	-2.999300	3.826900	-11.477000	23.095920	0.000508	20.887243
333.103036	-3.003100	3.827500	-11.494000	23.100054	0.000509	20.880954
334.105484	-2.999000	3.828800	-11.481000	23.116490	0.000511	20.875139
335.102039	-2.986700	3.826900	-11.429000	23.139999	0.000509	20.882575
336.103691	-3.000500	3.827400	-11.482000	23.159449	0.000510	20.886892
337.101213	-2.987300	3.827000	-11.432000	23.188883	0.000510	20.897894
338.102680	-2.997600	3.826700	-11.470000	23.207358	0.000510	20.873737
339.104223	-3.003900	3.826500	-11.493000	23.220183	0.000510	20.871890
340.102022	-3.030800	3.824500	-11.590000	23.212886	0.000512	20.867896
341.104428	-3.018200	3.825600	-11.545000	23.207879	0.000511	20.861457
342.105462	-3.013900	3.825700	-11.530000	23.227428	0.000509	20.879150
343.102139	-2.985500	3.825400	-11.419000	23.195777	0.000513	20.874933
344.104585	-3.015300	3.825600	-11.534000	23.186361	0.000514	20.876877
345.104990	-2.997500	3.824600	-11.463000	23.188379	0.000513	20.869891
346.105894	-2.991900	3.824600	-11.441000	23.194853	0.000513	20.875429
347.108369	-2.990500	3.824400	-11.436000	23.219357	0.000513	20.877700
348.112368	-2.993800	3.825200	-11.451000	23.230662	0.000514	20.878124
349.107165	-2.993600	3.823700	-11.446000	23.228146	0.000512	20.883188
350.111219	-2.969900	3.824600	-11.358000	23.211488	0.000514	20.877401
351.108404	-2.999300	3.822100	-11.463000	23.226676	0.000514	20.887405
352.107439	-2.996500	3.823600	-11.457000	23.232429	0.000514	20.872783
353.107568	-2.976000	3.823800	-11.379000	23.273341	0.000514	20.851670
354.109671	-2.989300	3.822500	-11.426000	23.258326	0.000513	20.857959
355.106913	-2.993600	3.822700	-11.442000	23.268710	0.000515	20.900605
356.107514	-2.991100	3.823300	-11.435000	23.276428	0.000516	20.854763
357.110991	-2.992300	3.823000	-11.438000	23.271126	0.000513	20.852769
358.109690	-2.989200	3.823000	-11.427000	23.258527	0.000516	20.866694
359.111078	-3.011900	3.820900	-11.507000	23.267639	0.000515	20.874403
360.112197	-2.992500	3.820800	-11.433000	23.292316	0.000515	20.873056
361.113741	-3.015700	3.821000	-11.522000	23.321301	0.000517	20.875078
362.112078	-2.989500	3.821200	-11.423000	23.329193	0.000516	20.854540
363.113070	-3.018900	3.818900	-11.529000	23.308179	0.000517	20.860032
364.109422	-2.967400	3.820800	-11.337000	23.319158	0.000517	20.868189
365.110812	-3.004500	3.820100	-11.476000	23.346149	0.000517	20.845930
366.112119	-2.997200	3.819500	-11.446000	23.363378	0.000516	20.864619
367.110065	-3.025200	3.819200	-11.552000	23.375581	0.000517	20.875427
368.111164	-3.018200	3.819200	-11.525000	23.382925	0.000515	20.842012
369.111959	-3.008400	3.818600	-11.487000	23.381881	0.000517	20.859931
370.109827	-2.987900	3.820500	-11.414000	23.338855	0.000519	20.851422
371.111279	-2.983600	3.820200	-11.397000	23.317341	0.000517	20.839343
372.113830	-2.974600	3.819500	-11.360000	23.327699	0.000518	20.851146
373.112576	-3.014400	3.819200	-11.512000	23.316545	0.000518	20.859407
374.114165	-3.014000	3.817000	-11.503000	23.306534	0.000519	20.856961
375.113673	-2.999600	3.817800	-11.450000	23.342237	0.000518	20.834897
376.111477	-3.004300	3.817100	-11.467000	23.346673	0.000519	20.852618
377.114046	-3.010200	3.816400	-11.487000	23.335641	0.000520	20.837770
378.114846	-3.006500	3.816900	-11.475000	23.362632	0.000520	20.846329
379.114428	-3.020800	3.815500	-11.525000	23.389275	0.000520	20.841264
380.117701	-2.994200	3.816200	-11.425000	23.373388	0.000521	20.848100
381.118061	-3.006300	3.816300	-11.471000	23.402123	0.000520	20.848926
382.115042	-2.993400	3.815700	-11.422000	23.393085	0.000522	20.840815
383.116028	-3.010000	3.814900	-11.482000	23.370750	0.000522	20.854465
384.115546	-3.005600	3.815500	-11.467000	23.384644	0.000521	20.855115
385.115776	-3.009400	3.814000	-11.477000	23.387931	0.000521	20.846081
386.116770	-2.985300	3.816700	-11.392000	23.369431	0.000521	20.828962
387.117642	-2.991600	3.814800	-11.412000	23.387483	0.000521	20.849899
388.117128	-2.986200	3.815300	-11.393000	23.402451	0.000521	20.836453
389.115757	-3.001900	3.813400	-11.446000	23.405290	0.000521	20.827919
390.116183	-2.977300	3.815000	-11.357000	23.433771	0.000521	20.854094
391.116231	-2.993500	3.814700	-11.419000	23.422195	0.000523	20.854345
392.118509	-3.011800	3.813400	-11.484000	23.464494	0.000522	20.826095
393.117728	-3.012900	3.811900	-11.483000	23.463200	0.000523	20.856565
394.118766	-2.997800	3.812400	-11.428000	23.494993	0.000520	20.838174
395.120840	-2.985300	3.811700	-11.378000	23.481376	0.000524	20.861033
396.123357	-3.000900	3.810600	-11.434000	23.460662	0.000523	20.853073
397.121654	-3.005200	3.812400	-11.456000	23.478340	0.000523	20.848033
398.122949	-2.988700	3.811900	-11.392000	23.445227	0.000523	20.845188
399.124352	-3.020600	3.810500	-11.509000	23.485510	0.000523	20.839100
400.123209	-3.000600	3.810700	-11.433000	23.474978	0.000522	20.855569
401.124437	-3.000300	3.811600	-11.435000	23.448764	0.000523	20.838776
402.124471	-3.001200	3.809600	-11.433000	23.447216	0.000524	20.831062
403.125570	-3.009300	3.810300	-11.465000	23.487503	0.000525	20.847735
404.125801	-3.011500	3.809800	-11.472000	23.520194	0.000526	20.842098
405.125211	-2.989100	3.810400	-11.389000	23.516883	0.000526	20.837357
406.125608	-2.984400	3.808900	-11.367000	23.520520	0.000526	20.844795
407.124961	-2.960900	3.810200	-11.281000	23.548775	0.000525	20.852730
408.128285	-3.002700	3.809300	-11.438000	23.554003	0.000524	20.850859
409.128448	-2.972500	3.810000	-11.324000	23.543572	0.000525	20.841351
410.128559	-2.973900	3.809600	-11.329000	23.544170	0.000526	20.820614
411.127687	-3.013900	3.808800	-11.479000	23.569913	0.000525	20.829824
412.128668	-3.027400	3.806800	-11.523000	23.568221	0.000525	20.832869
413.127474	-3.008200	3.807800	-11.453000	23.540339	0.000526	20.859920
414.127627	-2.972000	3.808200	-11.316000	23.554654	0.000528	20.816899
415.131858	-2.987000	3.808500	-11.375000	23.567848	0.000527	20.827280
416.128957	-2.996800	3.807600	-11.409000	23.591225	0.000528	20.821791
417.129558	-3.018500	3.805800	-11.487000	23.609171	0.000528	20.840729
418.132584	-3.002300	3.807800	-11.431000	23.618107	0.000525	20.828825
419.127769	-3.000400	3.805100	-11.416000	23.635535	0.000525	20.849141
420.129530	-2.976700	3.806600	-11.330000	23.625104	0.000526	20.839633
421.133635	-2.975600	3.807400	-11.328000	23.654328	0.000529	20.858498
422.130305	-2.968600	3.806900	-11.301000	23.617414	0.000526	20.838088
423.131079	-3.002200	3.804400	-11.420000	23.579325	0.000526	20.830725
424.136375	-2.997900	3.804800	-11.406000	23.596751	0.000526	20.828279
425.131544	-2.985400	3.805300	-11.360000	23.616516	0.000526	20.837661
426.133573	-3.002800	3.805000	-11.425000	23.595655	0.000527	20.828602
427.137763	-2.995900	3.804800	-11.398000	23.572701	0.000528	20.839730
428.132575	-3.006200	3.803400	-11.433000	23.560127	0.000528	20.830446
429.134857	-2.999500	3.803100	-11.406000	23.581587	0.000529	20.835837
430.140640	-2.976600	3.804000	-11.322000	23.584498	0.000528	20.836383
431.136014	-3.002500	3.803200	-11.419000	23.608194	0.000526	20.844965
432.135032	-2.988400	3.803600	-11.366000	23.608347	0.000527	20.834214
433.138412	-2.982600	3.803800	-11.345000	23.641875	0.000528	20.819462
434.136789	-3.007600	3.801200	-11.432000	23.622509	0.000528	20.833237
435.136546	-2.980100	3.802700	-11.331000	23.641675	0.000530	20.825425
436.139177	-2.996700	3.803000	-11.396000	23.612699	0.000530	20.840472
437.147647	-3.010500	3.801600	-11.443000	23.668458	0.000529	20.835206
438.138197	-2.996700	3.801200	-11.390000	23.679909	0.000530	20.806384
439.140658	-2.982900	3.801500	-11.338000	23.691060	0.000530	20.829891
440.138216	-2.998700	3.801000	-11.396000	23.684786	0.000531	20.818860
441.141018	-2.990000	3.800800	-11.363000	23.706291	0.000531	20.831411
442.141698	-3.012900	3.798800	-11.444000	23.687346	0.000529	20.830434
443.137763	-3.011100	3.799700	-11.441000	23.701562	0.000532	20.841367
444.138263	-2.987900	3.800900	-11.355000	23.697851	0.000529	20.829112
445.144730	-2.993700	3.800800	-11.377000	23.712414	0.000531	20.826644
446.137269	-2.988500	3.800300	-11.357000	23.698549	0.000530	20.818433
447.137969	-2.987600	3.800800	-11.353000	23.675672	0.000529	20.834852
448.143113	-3.016000	3.798100	-11.454000	23.645353	0.000529	20.827690
449.140237	-3.004700	3.797700	-11.410000	23.668703	0.000530	20.830711
450.138492	-2.982300	3.799200	-11.330000	23.658446	0.000531	20.831807
451.145223	-2.986100	3.799700	-11.346000	23.673480	0.000533	20.839767
452.139473	-3.003400	3.797900	-11.405000	23.693319	0.000530	20.827414
453.139188	-2.992300	3.797000	-11.361000	23.705863	0.000531	20.821024
454.141302	-2.990100	3.796200	-11.350000	23.752257	0.000532	20.808270
455.140651	-3.008200	3.796300	-11.419000	23.771176	0.000531	20.828186
456.139934	-3.028300	3.794400	-11.490000	23.784490	0.000533	20.822569
457.143052	-2.983400	3.796100	-11.324000	23.768411	0.000533	20.831578
458.140110	-3.022800	3.796000	-11.474000	23.732990	0.000533	20.840634
459.148498	-2.982100	3.795500	-11.318000	23.741252	0.000533	20.807667
460.143365	-3.006700	3.794400	-11.407000	23.759148	0.000534	20.817549
461.142663	-2.994400	3.795500	-11.365000	23.773137	0.000533	20.825885
462.141678	-2.990400	3.795800	-11.350000	23.753820	0.000534	20.824061
463.148479	-2.993400	3.794200	-11.356000	23.722557	0.000533	20.823063
464.144217	-3.004200	3.795300	-11.401000	23.764594	0.000534	20.808786
465.143554	-2.988500	3.795100	-11.341000	23.733234	0.000533	20.816224
466.145285	-2.994500	3.794100	-11.361000	23.766561	0.000533	20.810283
467.144445	-2.987300	3.793100	-11.330000	23.775572	0.000533	20.836386
468.143157	-3.003500	3.794100	-11.394000	23.812335	0.000533	20.836264
469.148623	-3.004700	3.793100	-11.396000	23.790257	0.000533	20.822661
470.144716	-2.985900	3.794400	-11.329000	23.795581	0.000534	20.811879
471.145023	-3.038400	3.791300	-11.518000	23.811985	0.000536	20.857722
472.148893	-2.993700	3.793000	-11.354000	23.810538	0.000536	20.829246
473.148647	-3.020500	3.790800	-11.450000	23.824578	0.000536	20.818667
474.146821	-3.005300	3.791700	-11.394000	23.845905	0.000534	20.813499
475.149664	-2.990600	3.791200	-11.337000	23.866363	0.000536	20.815521
476.146301	-3.006500	3.791500	-11.397000	23.826444	0.000535	20.844246
477.146668	-2.996900	3.790000	-11.357000	23.853448	0.000536	20.837658
478.152097	-2.995100	3.791700	-11.356000	23.880374	0.000537	20.840001
479.148994	-2.997500	3.790600	-11.361000	23.847946	0.000534	20.842098
480.147182	-2.995500	3.790600	-11.354000	23.830500	0.000535	20.848786
481.149360	-2.988300	3.790000	-11.325000	23.853496	0.000537	20.814473
482.147984	-3.013500	3.789600	-11.419000	23.846205	0.000536	20.827551
483.157318	-3.009100	3.788700	-11.400000	23.849860	0.000535	20.825526
484.152265	-3.021600	3.788700	-11.447000	23.831045	0.000536	20.818988
485.150865	-3.007000	3.788700	-11.391000	23.851802	0.000535	20.818464
486.151263	-3.007300	3.788700	-11.393000	23.874549	0.000535	20.818040
487.155691	-2.989700	3.789500	-11.328000	23.873579	0.000536	20.828446
488.150978	-3.001600	3.787900	-11.369000	23.856878	0.000535	20.831140
489.151393	-3.003300	3.787000	-11.373000	23.886246	0.000537	20.836406
490.154921	-2.990400	3.787400	-11.325000	23.878658	0.000534	20.833065
491.152922	-2.986500	3.788200	-11.313000	23.915635	0.000536	20.845487
492.153630	-3.011600	3.786300	-11.401000	23.933756	0.000536	20.828097
493.155720	-3.000000	3.786600	-11.358000	23.943113	0.000537	20.848385
494.154846	-3.015100	3.787300	-11.417000	23.963169	0.000536	20.846686
495.153889	-3.026200	3.786000	-11.456000	23.953885	0.000535	20.841170
496.156494	-3.023800	3.784900	-11.444000	23.977056	0.000537	20.825052
497.155390	-3.008500	3.786500	-11.391000	23.947591	0.000536	20.838651
498.155496	-3.005200	3.785100	-11.374000	23.969889	0.000536	20.834933
499.158419	-2.996100	3.785900	-11.342000	23.954185	0.000536	20.829617
500.158913	-2.960100	3.785800	-11.205000	23.940921	0.000534	20.860885
501.158517	-2.986400	3.785400	-11.304000	23.942862	0.000537	20.854772
502.157917	-3.001200	3.784900	-11.358000	23.929946	0.000535	20.846087
503.159237	-2.991100	3.784500	-11.320000	23.955456	0.000535	20.838004
504.158737	-3.002000	3.784600	-11.361000	23.950228	0.000534	20.847459
505.159041	-2.990100	3.784800	-11.317000	23.928352	0.000536	20.859187
506.157778	-2.979900	3.784600	-11.277000	23.962844	0.000536	20.846360
507.161468	-2.992200	3.784000	-11.322000	23.995271	0.000537	20.828619
508.159291	-2.994500	3.784600	-11.332000	23.954333	0.000536	20.853946
509.159150	-3.007200	3.782600	-11.374000	23.990443	0.000535	20.859337
510.159525	-2.986700	3.781500	-11.293000	23.963442	0.000535	20.837003
511.163525	-3.016900	3.780900	-11.405000	23.986037	0.000538	20.847333
512.161450	-3.003600	3.782000	-11.358000	23.986260	0.000534	20.831910
513.162233	-3.008100	3.780900	-11.372000	24.000672	0.000537	20.836406
514.163085	-3.007700	3.781100	-11.372000	24.022196	0.000535	20.853249
515.161014	-3.001700	3.781800	-11.351000	24.002636	0.000536	20.845961
516.167511	-2.987100	3.780700	-11.292000	23.984744	0.000536	20.836554
517.167634	-2.970900	3.781200	-11.232000	24.012439	0.000536	20.841094
518.163991	-2.981400	3.779500	-11.267000	24.019657	0.000539	20.832211
519.168081	-2.992100	3.780800	-11.312000	24.029410	0.000536	20.839148
520.168232	-2.994800	3.778500	-11.316000	24.038366	0.000536	20.848602
521.164087	-2.991900	3.779800	-11.308000	24.040980	0.000536	20.841741
522.170793	-2.982400	3.779400	-11.271000	24.037273	0.000536	20.852722
523.175001	-3.008500	3.778000	-11.364000	24.028709	0.000534	20.851721
524.168092	-3.015400	3.778000	-11.391000	24.032139	0.000535	20.864642
525.170377	-2.973100	3.779100	-11.235000	24.013950	0.000537	20.845928
526.172358	-3.027700	3.777500	-11.437000	24.039131	0.000536	20.847947
527.169311	-3.024800	3.777800	-11.427000	24.019498	0.000537	20.844380
528.176097	-2.983000	3.778500	-11.270000	24.043458	0.000537	20.850864
529.172493	-3.012400	3.776300	-11.375000	24.047883	0.000537	20.855776
530.167618	-3.021200	3.776700	-11.409000	24.099788	0.000537	20.849512
531.169445	-2.993300	3.777600	-11.307000	24.118201	0.000534	20.843797
532.172202	-2.998700	3.777400	-11.326000	24.103993	0.000538	20.839505
533.170312	-2.994400	3.776300	-11.307000	24.125215	0.000536	20.853676
534.170665	-3.002100	3.775100	-11.332000	24.142557	0.000538	20.848784
535.169978	-2.976400	3.776200	-11.238000	24.148725	0.000534	20.857341
536.175385	-2.999400	3.774100	-11.319000	24.165020	0.000533	20.850452
537.171162	-2.987000	3.775000	-11.275000	24.145090	0.000536	20.834256
538.170303	-2.983600	3.775000	-11.262000	24.131703	0.000536	20.852123
539.170429	-3.003200	3.774200	-11.334000	24.129909	0.000538	20.856488
540.170120	-2.976300	3.774400	-11.233000	24.094427	0.000536	20.860730
541.170747	-2.984500	3.774300	-11.263000	24.103880	0.000535	20.840339
542.170549	-2.981400	3.773600	-11.249000	24.101516	0.000537	20.850296
543.169219	-3.011200	3.773600	-11.361000	24.146650	0.000537	20.847674
544.170642	-3.005500	3.772600	-11.337000	24.178847	0.000537	20.862897
545.169845	-3.001100	3.772800	-11.321000	24.194072	0.000538	20.847348
546.171480	-2.996900	3.772200	-11.304000	24.175758	0.000536	20.867384
547.170341	-2.985900	3.772000	-11.260000	24.173864	0.000537	20.854580
548.171398	-2.978500	3.771800	-11.233000	24.166726	0.000534	20.870179
549.171818	-2.991900	3.770900	-11.281000	24.169134	0.000537	20.874017
550.169736	-2.981800	3.772700	-11.249000	24.133480	0.000536	20.887094
551.170051	-3.002900	3.772000	-11.325000	24.131317	0.000535	20.864537
552.170882	-2.978900	3.771900	-11.235000	24.137958	0.000536	20.860292
553.171838	-2.991200	3.770300	-11.277000	24.172268	0.000536	20.867203
554.175134	-3.008600	3.771900	-11.347000	24.171247	0.000535	20.863335
555.174550	-3.006600	3.769800	-11.333000	24.220358	0.000536	20.870868
556.172035	-3.018500	3.770700	-11.381000	24.217349	0.000535	20.867851
557.174428	-3.011500	3.768900	-11.350000	24.237774	0.000535	20.863207
558.182708	-3.017300	3.768700	-11.371000	24.228695	0.000535	20.867851
559.171090	-3.011900	3.769200	-11.352000	24.186547	0.000537	20.870146
560.185090	-3.013900	3.769700	-11.361000	24.181742	0.000537	20.874335
561.171254	-3.018300	3.766900	-11.368000	24.157560	0.000535	20.868573
562.174249	-2.998000	3.768000	-11.295000	24.147585	0.000537	20.860939
563.175972	-2.987300	3.768600	-11.257000	24.137557	0.000537	20.876959
564.174262	-3.002200	3.768300	-11.312000	24.124840	0.000540	20.896446
565.172817	-2.995600	3.767000	-11.283000	24.132852	0.000537	20.866551
566.175622	-3.001500	3.766500	-11.305000	24.143628	0.000538	20.873565
567.172622	-3.000700	3.766000	-11.300000	24.169156	0.000539	20.872617
568.175415	-2.980900	3.766300	-11.226000	24.192170	0.000536	20.874363
569.178413	-3.008000	3.765500	-11.325000	24.176767	0.000537	20.860811
570.175884	-2.995800	3.765900	-11.281000	24.194136	0.000535	20.879179
571.177533	-2.991600	3.767000	-11.269000	24.232999	0.000538	20.852255
572.180967	-2.978300	3.765600	-11.214000	24.260168	0.000536	20.870023
573.178226	-2.992000	3.766200	-11.268000	24.219541	0.000538	20.875264
574.178426	-2.992300	3.765800	-11.268000	24.235613	0.000537	20.896125
575.184189	-3.006500	3.766000	-11.322000	24.248724	0.000536	20.884620
576.179449	-3.020200	3.763800	-11.367000	24.208068	0.000538	20.888885
577.180373	-3.000100	3.764000	-11.291000	24.184882	0.000538	20.913990
578.182147	-2.994100	3.764900	-11.271000	24.206977	0.000539	20.888265
579.178873	-3.000400	3.764900	-11.296000	24.200804	0.000538	20.889186
580.178718	-2.997000	3.764000	-11.280000	24.244847	0.000537	20.883103
581.185062	-3.007600	3.762900	-11.316000	24.282460	0.000540	20.877684
582.183506	-3.011800	3.762200	-11.330000	24.292762	0.000538	20.878535
583.181417	-3.007600	3.762300	-11.315000	24.269900	0.000538	20.863664
584.186306	-3.015400	3.761200	-11.341000	24.277038	0.000538	20.888366
585.182618	-2.982600	3.763100	-11.223000	24.288683	0.000535	20.889141
586.182198	-3.024600	3.761900	-11.378000	24.311146	0.000538	20.885122
587.190457	-2.995700	3.761500	-11.268000	24.306097	0.000535	20.886221
588.182899	-2.999000	3.761400	-11.280000	24.327865	0.000536	20.869178
589.183948	-3.023100	3.760800	-11.369000	24.341722	0.000536	20.886871
590.185810	-3.014900	3.760500	-11.337000	24.342495	0.000536	20.879586
591.181812	-2.985800	3.761100	-11.229000	24.362967	0.000538	20.892535
592.182840	-2.989200	3.760700	-11.241000	24.341252	0.000536	20.900623
593.186133	-2.987000	3.761000	-11.234000	24.329858	0.000538	20.901521
594.183239	-3.000600	3.758600	-11.277000	24.327120	0.000537	20.895455
595.184833	-3.006900	3.758300	-11.299000	24.312342	0.000538	20.883951
596.186195	-2.989100	3.759100	-11.236000	24.278286	0.000536	20.893885
597.183464	-3.011200	3.758800	-11.318000	24.262760	0.000536	20.905336
598.185413	-3.002200	3.759200	-11.285000	24.304234	0.000538	20.908058
599.187913	-2.987300	3.758400	-11.225000	24.289678	0.000534	20.915741
600.184828	-2.980800	3.758600	-11.203000	24.270796	0.000537	20.913870
601.184951	-3.001500	3.757200	-11.276000	24.259824	0.000537	20.904288
602.188486	-3.001100	3.757900	-11.276000	24.282338	0.000538	20.900319
603.184986	-2.970100	3.758600	-11.162000	24.293807	0.000534	20.896652
604.187538	-3.025900	3.755700	-11.364000	24.263605	0.000536	20.895754
605.188740	-3.015600	3.756100	-11.326000	24.271393	0.000536	20.907832
606.187243	-2.996100	3.756400	-11.253000	24.260797	0.000536	20.908108
607.186404	-3.002300	3.755400	-11.274000	24.301098	0.000536	20.894482
608.188447	-2.999300	3.755800	-11.263000	24.309928	0.000538	20.906184
609.186840	-3.006100	3.755700	-11.288000	24.345951	0.000537	20.901069
610.186383	-3.015100	3.754700	-11.320000	24.337791	0.000534	20.903314
611.189737	-3.007300	3.754700	-11.290000	24.324681	0.000535	20.928567
612.186683	-2.981500	3.754600	-11.192000	24.338066	0.000536	20.903590
613.189761	-3.018000	3.753200	-11.327000	24.376351	0.000537	20.905961
614.189793	-3.001000	3.754400	-11.265000	24.376427	0.000536	20.906510
615.187985	-3.010800	3.754100	-11.302000	24.377400	0.000535	20.925976
616.189768	-2.983400	3.754100	-11.199000	24.346974	0.000534	20.935757
617.190842	-2.987900	3.753500	-11.214000	24.368469	0.000534	20.919389
618.187769	-2.992200	3.753500	-11.230000	24.352449	0.000536	20.900475
619.188531	-2.995300	3.752600	-11.239000	24.422300	0.000535	20.919813
620.189620	-2.990700	3.753200	-11.224000	24.403817	0.000535	20.904117
621.188141	-2.987200	3.752400	-11.209000	24.430785	0.000534	20.915524
622.191031	-2.990100	3.753600	-11.222000	24.408446	0.000531	20.910183
623.193885	-3.002300	3.752700	-11.266000	24.405636	0.000534	20.911156
624.190355	-3.002500	3.751200	-11.262000	24.400587	0.000533	20.914152
625.190140	-3.008400	3.750700	-11.283000	24.382129	0.000534	20.919342
626.192518	-2.993700	3.750200	-11.226000	24.370885	0.000533	20.910434
627.191276	-2.998300	3.751300	-11.247000	24.400339	0.000533	20.905369
628.191283	-2.989800	3.751800	-11.216000	24.391337	0.000532	20.927630
629.196604	-2.987800	3.749700	-11.202000	24.415541	0.000532	20.941953
630.190656	-2.991000	3.749400	-11.214000	24.443674	0.000534	20.939831
631.192828	-3.003900	3.749900	-11.263000	24.449473	0.000534	20.933322
632.194402	-2.995600	3.749200	-11.230000	24.423429	0.000532	20.949865
633.190971	-3.009900	3.749700	-11.285000	24.432258	0.000532	20.951611
634.194146	-2.995700	3.749100	-11.229000	24.420518	0.000531	20.946945
635.195004	-3.002800	3.749100	-11.257000	24.452011	0.000531	20.949617
636.192801	-2.982100	3.748900	-11.179000	24.469523	0.000533	20.927359
637.194943	-2.999100	3.748900	-11.242000	24.496611	0.000531	20.925613
638.195384	-3.007200	3.748000	-11.271000	24.484376	0.000533	20.926615
639.193522	-2.995400	3.749100	-11.229000	24.437340	0.000531	20.946752
640.195671	-2.994100	3.747700	-11.221000	24.448258	0.000533	20.928784
641.195202	-3.001500	3.748600	-11.250000	24.447910	0.000530	20.936495
642.196538	-3.025500	3.746300	-11.333000	24.440671	0.000532	20.957205
643.198465	-2.999100	3.746500	-11.236000	24.409430	0.000531	20.948150
644.198106	-3.031900	3.746400	-11.357000	24.417315	0.000530	20.935198
645.195976	-3.002900	3.746800	-11.251000	24.436098	0.000530	20.941713
646.195481	-3.003600	3.746000	-11.251000	24.466793	0.000532	20.925569
647.197415	-3.003000	3.746100	-11.249000	24.484952	0.000529	20.936674
648.195653	-3.013500	3.746000	-11.288000	24.478980	0.000529	20.936847
649.195897	-2.981900	3.747600	-11.174000	24.478933	0.000531	20.950074
650.197449	-3.000200	3.745800	-11.237000	24.466273	0.000531	20.947330
651.195025	-3.027800	3.743400	-11.334000	24.478658	0.000529	20.958805
652.196095	-3.006200	3.743800	-11.254000	24.445850	0.000530	20.950548
653.199426	-3.011500	3.746000	-11.280000	24.485349	0.000531	20.947977
654.197392	-2.985500	3.745900	-11.183000	24.524255	0.000529	20.943863
655.197745	-2.999400	3.744200	-11.229000	24.553502	0.000530	20.953292
656.201017	-2.994000	3.743700	-11.208000	24.528433	0.000527	20.946158
657.197803	-3.007700	3.743700	-11.258000	24.519179	0.000531	20.947779
658.198125	-3.025900	3.742200	-11.323000	24.530498	0.000531	20.951075
659.201103	-2.976200	3.743600	-11.141000	24.509827	0.000528	20.968265
660.199821	-2.978100	3.743600	-11.148000	24.525597	0.000528	20.962277
661.202471	-2.996900	3.743900	-11.219000	24.515298	0.000530	20.946256
662.204416	-3.015300	3.742700	-11.283000	24.529525	0.000528	20.979492
663.200196	-2.998900	3.741400	-11.220000	24.532038	0.000530	20.977746
664.204433	-2.981500	3.742400	-11.156000	24.539425	0.000529	20.935851
665.202974	-2.976200	3.742600	-11.137000	24.595165	0.000531	20.974230
666.199544	-2.989200	3.740500	-11.180000	24.592180	0.000528	20.956064
667.202068	-2.970600	3.742200	-11.116000	24.591485	0.000530	20.966745
668.203213	-2.997800	3.740500	-11.212000	24.571387	0.000530	20.970287
669.201730	-3.004300	3.740300	-11.236000	24.558055	0.000528	20.955490
670.203195	-2.979800	3.740900	-11.147000	24.597753	0.000529	20.972085
671.203633	-2.996200	3.739300	-11.202000	24.613395	0.000530	20.956488
672.202459	-3.012500	3.739600	-11.264000	24.654680	0.000527	20.971360
673.203948	-3.017000	3.739600	-11.282000	24.613842	0.000527	20.974004
674.207255	-3.005400	3.739000	-11.237000	24.571090	0.000527	20.969988
675.203295	-3.002800	3.738800	-11.226000	24.574050	0.000527	20.948780
676.204663	-2.995900	3.739600	-11.203000	24.561638	0.000527	20.962403
677.206374	-2.998000	3.739000	-11.209000	24.586984	0.000527	20.952274
678.201879	-3.002200	3.739000	-11.224000	24.582681	0.000526	20.982091
679.204992	-2.971600	3.738500	-11.108000	24.558850	0.000525	20.994688
680.208318	-2.993000	3.738200	-11.188000	24.583802	0.000528	20.976578
681.203304	-3.003600	3.737500	-11.225000	24.560098	0.000527	20.967021
682.205345	-2.981700	3.738000	-11.145000	24.559401	0.000525	20.964425
683.207462	-3.007600	3.737100	-11.239000	24.517466	0.000527	20.953646
684.214053	-2.996900	3.736900	-11.199000	24.482444	0.000525	20.965922
685.206756	-2.996500	3.736300	-11.196000	24.494957	0.000526	20.969941
686.208403	-2.995200	3.737300	-11.193000	24.490726	0.000525	20.962852
687.206242	-3.006300	3.735600	-11.229000	24.520546	0.000524	20.952469
688.209457	-3.015200	3.737000	-11.266000	24.564199	0.000526	20.955015
689.208456	-3.014500	3.735600	-11.260000	24.552882	0.000525	20.951248
690.207452	-3.006600	3.734600	-11.228000	24.555640	0.000524	20.953540
691.207505	-3.016200	3.735200	-11.265000	24.540792	0.000524	20.955713
692.206547	-3.018100	3.735000	-11.272000	24.527460	0.000525	20.959405
693.207115	-3.016500	3.734300	-11.263000	24.517363	0.000526	20.958758
694.207685	-2.998600	3.733600	-11.195000	24.525845	0.000525	20.980541
695.207859	-2.972600	3.734100	-11.099000	24.533604	0.000524	20.951345
696.206819	-2.966700	3.734700	-11.079000	24.541337	0.000524	20.953889
697.206484	-2.996800	3.733500	-11.188000	24.542185	0.000525	20.959480
698.206706	-3.013600	3.732600	-11.248000	24.538029	0.000523	20.951044
699.207600	-2.989600	3.734300	-11.164000	24.552056	0.000523	20.953264
700.209214	-3.005600	3.733900	-11.221000	24.522014	0.000526	20.942564
701.211119	-3.004400	3.732400	-11.212000	24.553724	0.000524	20.958730
702.210121	-3.016000	3.732800	-11.257000	24.581678	0.000524	20.942210
703.210199	-3.037700	3.731800	-11.335000	24.552952	0.000523	20.947525
704.210262	-3.008200	3.731000	-11.222000	24.512109	0.000521	20.944006
705.208913	-3.008000	3.732400	-11.226000	24.519871	0.000524	20.962222
706.210766	-3.001400	3.730500	-11.194000	24.505918	0.000524	20.936847
707.210422	-3.012300	3.730700	-11.236000	24.550686	0.000521	20.926288
708.212179	-2.975700	3.731400	-11.103000	24.588989	0.000522	20.959974
709.212161	-2.984000	3.731200	-11.133000	24.621095	0.000521	20.949042
710.215037	-2.990800	3.731500	-11.159000	24.621942	0.000520	20.925714
711.217552	-3.016400	3.730500	-11.252000	24.635518	0.000519	20.960194
712.214985	-3.007000	3.729100	-11.212000	24.635196	0.000521	20.935218
713.214967	-3.003800	3.730000	-11.203000	24.579882	0.000520	20.946571
714.219228	-2.978800	3.730500	-11.112000	24.610271	0.000520	20.938657
715.213435	-3.013000	3.729600	-11.236000	24.568188	0.000519	20.955699
716.216934	-3.017800	3.728100	-11.250000	24.559954	0.000522	20.933216
717.217586	-2.998900	3.729800	-11.184000	24.542889	0.000521	20.933637
718.214481	-2.987000	3.727900	-11.134000	24.564575	0.000521	20.938799
719.216254	-3.007500	3.727500	-11.210000	24.590071	0.000518	20.932140
720.219907	-2.994600	3.727300	-11.161000	24.605609	0.000518	20.944885
721.216782	-3.002900	3.728300	-11.194000	24.621301	0.000519	20.945931
722.218194	-3.005900	3.727900	-11.205000	24.639927	0.000517	20.922898
723.222054	-3.000800	3.726300	-11.180000	24.651516	0.000519	20.919353
724.219744	-2.990000	3.727100	-11.143000	24.649003	0.000520	20.921099
725.217690	-3.006700	3.727900	-11.207000	24.645717	0.000518	20.906898
726.220733	-3.003900	3.727300	-11.195000	24.631539	0.000518	20.912111
727.220355	-2.963700	3.726500	-11.044000	24.620220	0.000517	20.922090
728.218863	-2.987600	3.726000	-11.131000	24.629399	0.000518	20.909490
729.221906	-3.013300	3.725600	-11.224000	24.611414	0.000519	20.914203
730.219318	-3.006800	3.725200	-11.200000	24.612704	0.000516	20.933513
731.219851	-3.017400	3.725500	-11.240000	24.598478	0.000517	20.906439
732.226120	-3.018900	3.724600	-11.244000	24.615787	0.000517	20.903893
733.222853	-3.015100	3.724800	-11.230000	24.638541	0.000516	20.907284
734.221915	-2.988800	3.724400	-11.130000	24.673183	0.000519	20.909803
735.227073	-3.006300	3.723900	-11.194000	24.695491	0.000518	20.922230
736.221707	-3.039800	3.723200	-11.316000	24.708569	0.000516	20.920180
737.222445	-3.013800	3.723300	-11.220000	24.723542	0.000516	20.921454
738.226634	-2.996700	3.724400	-11.160000	24.733931	0.000518	20.915286
739.221072	-3.024200	3.723500	-11.259000	24.736446	0.000517	20.928240
740.223634	-2.979600	3.723600	-11.094000	24.739479	0.000518	20.895250
741.225892	-2.992500	3.723400	-11.141000	24.690041	0.000517	20.916287
742.220904	-2.980800	3.723100	-11.096000	24.676038	0.000514	20.902711
743.221799	-2.980700	3.723700	-11.098000	24.683573	0.000517	20.900789
744.226678	-2.998200	3.722200	-11.159000	24.688274	0.000517	20.900764
745.223001	-3.000700	3.722700	-11.170000	24.649649	0.000517	20.910843
746.226367	-2.984500	3.722900	-11.109000	24.634131	0.000514	20.893851
747.225357	-3.006100	3.721300	-11.186000	24.641316	0.000517	20.905327
748.227922	-3.012400	3.721700	-11.211000	24.643901	0.000517	20.894171
749.225880	-2.994200	3.721300	-11.142000	24.651512	0.000515	20.903704
750.225450	-3.030900	3.720400	-11.276000	24.654047	0.000515	20.916204
751.224857	-3.005300	3.719800	-11.178000	24.676853	0.000516	20.908269
752.227101	-2.996500	3.720700	-11.149000	24.713484	0.000517	20.899984
753.229890	-3.020900	3.720300	-11.238000	24.750288	0.000516	20.892822
754.224529	-2.996600	3.720300	-11.147000	24.771153	0.000515	20.901905
755.229563	-2.980400	3.720900	-11.088000	24.789751	0.000517	20.920568
756.231326	-3.009100	3.718800	-11.189000	24.816709	0.000515	20.915381
757.226844	-3.015900	3.718100	-11.212000	24.802855	0.000514	20.907168
758.224506	-2.982700	3.719400	-11.093000	24.780427	0.000514	20.884661
759.224793	-3.005100	3.719000	-11.175000	24.772595	0.000515	20.882017
760.225695	-3.006500	3.717700	-11.176000	24.794401	0.000513	20.900581
761.226230	-2.996400	3.718600	-11.141000	24.804545	0.000513	20.881839
762.225854	-2.988800	3.718100	-11.112000	24.820484	0.000516	20.883610
763.225817	-2.984800	3.718600	-11.098000	24.824614	0.000516	20.879220
764.226423	-2.987700	3.718100	-11.108000	24.800841	0.000516	20.884285
765.226490	-2.993200	3.718200	-11.129000	24.797883	0.000514	20.893170
766.226918	-2.966200	3.719400	-11.031000	24.730616	0.000513	20.887780
767.226779	-2.986200	3.717400	-11.100000	24.701621	0.000511	20.886658
768.239443	-3.005700	3.716700	-11.170000	24.650961	0.000511	20.880394
769.228618	-3.010200	3.716500	-11.187000	24.709254	0.000513	20.890998
770.230227	-2.999200	3.717100	-11.148000	24.769933	0.000513	20.880294
771.229450	-2.998000	3.716300	-11.141000	24.797536	0.000512	20.882865
772.230308	-2.988200	3.715700	-11.102000	24.775627	0.000513	20.895965
773.230493	-2.966900	3.715600	-11.023000	24.767298	0.000511	20.887132
774.231269	-2.993600	3.714800	-11.120000	24.767748	0.000511	20.895170
775.234042	-2.989900	3.715500	-11.108000	24.776127	0.000513	20.881295
776.230546	-2.994000	3.714900	-11.122000	24.724529	0.000512	20.879775
777.230473	-3.001800	3.713700	-11.147000	24.760088	0.000511	20.883217
778.233005	-2.991900	3.713900	-11.111000	24.765910	0.000510	20.888111
779.231915	-3.013400	3.713600	-11.190000	24.739724	0.000510	20.875109
780.230593	-3.004600	3.714900	-11.161000	24.737511	0.000510	20.870992
781.233257	-3.011000	3.714000	-11.182000	24.726991	0.000510	20.873712
782.231511	-2.999900	3.714400	-11.142000	24.713414	0.000510	20.879053
783.231143	-2.994900	3.714200	-11.122000	24.724284	0.000508	20.870995
784.233125	-3.006900	3.713900	-11.167000	24.741344	0.000509	20.866778
785.231492	-3.006000	3.712200	-11.158000	24.764048	0.000509	20.880553
786.230691	-3.016000	3.713300	-11.198000	24.764051	0.000508	20.867280
787.234002	-2.994600	3.711000	-11.112000	24.715507	0.000510	20.859343
788.231148	-3.008900	3.711400	-11.166000	24.733014	0.000508	20.870747
789.231817	-2.988000	3.713400	-11.094000	24.751141	0.000506	20.852903
790.234886	-2.982200	3.711100	-11.066000	24.734159	0.000505	20.867155
791.232760	-3.016100	3.711000	-11.191000	24.717644	0.000507	20.873341
792.232518	-3.015200	3.710700	-11.188000	24.703371	0.000507	20.855226
793.236633	-3.008500	3.711100	-11.164000	24.746764	0.000506	20.871268
794.232741	-3.010200	3.710500	-11.169000	24.766808	0.000507	20.885219
795.232089	-3.026600	3.709200	-11.225000	24.796149	0.000505	20.871517
796.235973	-3.001100	3.709300	-11.131000	24.781305	0.000506	20.878905
797.234489	-2.997000	3.709700	-11.117000	24.792247	0.000503	20.884195
798.239307	-3.017200	3.710100	-11.193000	24.772300	0.000503	20.883618
799.237659	-2.994900	3.710200	-11.111000	24.780830	0.000504	20.863730
800.234082	-3.003700	3.709700	-11.141000	24.786697	0.000506	20.878152
801.236561	-3.002300	3.709200	-11.136000	24.833148	0.000504	20.874984
802.237634	-2.998200	3.709200	-11.121000	24.840630	0.000505	20.869690
803.234170	-2.973000	3.710600	-11.031000	24.825089	0.000503	20.876852
804.234841	-2.999500	3.708400	-11.122000	24.808155	0.000504	20.859385
805.238829	-2.986400	3.709700	-11.077000	24.790699	0.000503	20.859410
806.236298	-2.995500	3.706800	-11.103000	24.756428	0.000503	20.875277
807.236522	-3.002000	3.707400	-11.129000	24.792956	0.000504	20.865942
808.238202	-2.998200	3.709100	-11.119000	24.806980	0.000501	20.871007
809.237696	-3.002300	3.708200	-11.132000	24.785124	0.000504	20.857609
810.238532	-3.003300	3.707500	-11.134000	24.787584	0.000502	20.864818
811.239965	-2.983600	3.707900	-11.062000	24.783902	0.000503	20.854960
812.239648	-2.999800	3.708100	-11.123000	24.822966	0.000501	20.869033
813.239669	-2.999000	3.706000	-11.114000	24.801755	0.000500	20.857230
814.241462	-2.994700	3.705900	-11.097000	24.775394	0.000500	20.841207
815.241089	-2.987200	3.706100	-11.070000	24.790861	0.000500	20.868107
816.240845	-3.020700	3.705100	-11.191000	24.852728	0.000499	20.876142
817.242155	-2.997000	3.705900	-11.105000	24.825673	0.000499	20.855629
818.242593	-3.003600	3.705000	-11.127000	24.859564	0.000501	20.833219
819.241849	-3.017600	3.705500	-11.181000	24.862371	0.000499	20.847890
820.243015	-2.996000	3.703900	-11.096000	24.883381	0.000499	20.831993
821.241838	-3.006100	3.704600	-11.135000	24.877464	0.000500	20.843598
822.242437	-2.984200	3.703700	-11.052000	24.805675	0.000498	20.854525
823.243625	-3.001400	3.703200	-11.114000	24.805252	0.000498	20.850782
824.243106	-3.005100	3.703500	-11.129000	24.832877	0.000499	20.856221
825.245061	-3.023700	3.703400	-11.196000	24.835062	0.000499	20.866474
826.244599	-3.007700	3.703200	-11.137000	24.846401	0.000497	20.849879
827.243450	-2.993600	3.704200	-11.088000	24.801740	0.000498	20.848206
828.244710	-3.012100	3.702600	-11.151000	24.819666	0.000498	20.859083
829.243515	-3.014100	3.701400	-11.155000	24.800145	0.000495	20.842338
830.244132	-2.996900	3.703400	-11.098000	24.762670	0.000495	20.844084
831.243567	-2.988400	3.703900	-11.067000	24.750235	0.000496	20.842037
832.248477	-2.991500	3.702200	-11.074000	24.754537	0.000496	20.844932
833.245864	-2.987000	3.701300	-11.055000	24.777389	0.000496	20.837993
834.246462	-2.990500	3.701200	-11.067000	24.785246	0.000492	20.842559
835.246696	-2.986000	3.701500	-11.051000	24.805112	0.000494	20.844478
836.246816	-3.014500	3.701400	-11.157000	24.844573	0.000495	20.837614
837.251080	-3.000100	3.701900	-11.104000	24.821423	0.000494	20.842830
838.248329	-2.978300	3.701400	-11.022000	24.855614	0.000495	20.847747
839.246617	-2.996900	3.700600	-11.089000	24.835844	0.000494	20.832173
840.247173	-3.012200	3.700800	-11.147000	24.774302	0.000493	20.820196
841.247578	-3.014200	3.699800	-11.150000	24.785538	0.000493	20.840482
842.248872	-3.001100	3.700700	-11.106000	24.784868	0.000493	20.842180
843.248617	-2.989700	3.700600	-11.063000	24.797625	0.000492	20.838387
844.251163	-3.005800	3.699200	-11.117000	24.810904	0.000493	20.847446
845.248565	-3.003800	3.699200	-11.110000	24.831192	0.000493	20.843151
846.248816	-2.975100	3.700700	-11.008000	24.817293	0.000493	20.841056
847.251351	-2.994700	3.699100	-11.077000	24.840294	0.000493	20.821940
848.250153	-2.996200	3.697600	-11.078000	24.821246	0.000492	20.826057
849.249584	-3.022500	3.696800	-11.173000	24.797425	0.000492	20.813057
850.252120	-2.998300	3.697600	-11.086000	24.840219	0.000493	20.824235
851.251113	-3.002500	3.698200	-11.103000	24.861479	0.000491	20.840830
852.254079	-3.006500	3.696900	-11.114000	24.873537	0.000492	20.828751
853.255417	-3.003300	3.696200	-11.099000	24.866575	0.000491	20.821290
854.251026	-2.992800	3.697300	-11.064000	24.838304	0.000489	20.814727
855.250725	-2.997600	3.697300	-11.082000	24.843798	0.000492	20.832095
856.251479	-3.014500	3.695800	-11.140000	24.871672	0.000489	20.812181
857.250224	-3.013600	3.695200	-11.135000	24.871325	0.000490	20.808987
858.253966	-3.013600	3.695400	-11.136000	24.844271	0.000489	20.824983
859.258684	-2.984500	3.696800	-11.033000	24.824800	0.000491	20.825357
860.254025	-3.012800	3.694900	-11.130000	24.847950	0.000487	20.827253
861.254230	-3.003300	3.694800	-11.095000	24.835564	0.000489	20.834263
862.254316	-2.995100	3.694700	-11.065000	24.829050	0.000490	20.811604
863.256554	-3.013400	3.695400	-11.135000	24.804957	0.000487	20.816822
864.254612	-3.014000	3.694000	-11.133000	24.797070	0.000488	20.831192
865.257478	-2.984100	3.696400	-11.030000	24.818233	0.000487	20.819715
866.258328	-2.998900	3.692700	-11.073000	24.808234	0.000488	20.804464
867.257150	-3.001500	3.695100	-11.090000	24.825168	0.000486	20.820036
868.258793	-3.013300	3.693200	-11.128000	24.809922	0.000489	20.804735
869.259722	-2.994200	3.693400	-11.058000	24.813356	0.000485	20.819562
870.255459	-3.007700	3.693400	-11.108000	24.813429	0.000487	20.819160
871.257598	-3.009000	3.694000	-11.115000	24.826308	0.000486	20.814542
872.255538	-2.993200	3.692700	-11.052000	24.807159	0.000485	20.811446
873.255754	-3.012900	3.692600	-11.124000	24.801737	0.000485	20.794151
874.256536	-3.009300	3.692000	-11.110000	24.843063	0.000486	20.805754
875.259997	-3.004000	3.690500	-11.085000	24.882301	0.000485	20.805305
876.257093	-2.977600	3.692100	-10.993000	24.867208	0.000484	20.829511
877.257237	-2.988400	3.692500	-11.034000	24.886030	0.000485	20.819479
878.256773	-2.993700	3.691800	-11.051000	24.915495	0.000484	20.791205
879.258135	-2.986500	3.691700	-11.025000	24.937746	0.000485	20.794572
880.257065	-2.981500	3.692300	-11.008000	24.916190	0.000484	20.816559
881.256848	-3.003200	3.689800	-11.081000	24.934637	0.000483	20.792400
882.260397	-2.990300	3.690200	-11.034000	24.948061	0.000483	20.789753
883.257956	-3.004800	3.689900	-11.086000	24.931950	0.000483	20.831902
884.257616	-3.000500	3.689800	-11.071000	24.934759	0.000484	20.812437
885.258463	-3.005300	3.689900	-11.089000	24.942765	0.000482	20.816205
886.257975	-2.999400	3.689800	-11.067000	24.919317	0.000481	20.794093
887.259338	-3.012800	3.689600	-11.115000	24.890724	0.000482	20.803328
888.257635	-2.997400	3.690900	-11.062000	24.904575	0.000483	20.830505
889.259550	-3.000900	3.689800	-11.072000	24.923444	0.000482	20.804399
890.259476	-2.985900	3.690100	-11.017000	24.938091	0.000484	20.799660
891.260866	-3.013100	3.688800	-11.113000	24.943885	0.000484	20.823493
892.261566	-3.009500	3.687600	-11.097000	24.964818	0.000480	20.798037
893.261869	-2.992000	3.687900	-11.033000	25.015958	0.000480	20.787728
894.262529	-3.002700	3.689200	-11.076000	24.979064	0.000483	20.816130
895.260878	-3.016900	3.685400	-11.117000	24.935876	0.000480	20.801230
896.260141	-3.007400	3.686800	-11.087000	24.893934	0.000481	20.794221
897.259446	-3.027600	3.685300	-11.156000	24.917277	0.000479	20.795839
898.260828	-2.985600	3.688300	-11.011000	24.895326	0.000481	20.790877
899.259334	-2.987300	3.686600	-11.012000	24.886175	0.000482	20.804452
900.261001	-3.004900	3.685300	-11.073000	24.925361	0.000480	20.798737
901.261240	-2.995800	3.686200	-11.042000	24.927798	0.000481	20.782691
902.259521	-2.991000	3.685600	-11.023000	24.941175	0.000480	20.796118
903.261465	-3.011200	3.685800	-11.097000	24.928418	0.000480	20.804176
904.262743	-2.977400	3.686800	-10.975000	24.963328	0.000481	20.803654
905.262631	-2.997100	3.684700	-11.043000	24.966212	0.000481	20.792324
906.260965	-2.988300	3.685200	-11.011000	25.016610	0.000479	20.790754
907.261405	-2.995600	3.684500	-11.036000	24.987247	0.000479	20.827188
908.263032	-2.997100	3.683100	-11.038000	25.003036	0.000479	20.804156
909.261941	-3.004000	3.683600	-11.065000	25.014345	0.000476	20.807447
910.260849	-2.986400	3.684700	-11.003000	24.978745	0.000477	20.811541
911.263068	-3.010100	3.682200	-11.083000	24.980187	0.000476	20.808721
912.263108	-2.992200	3.683900	-11.022000	24.964823	0.000475	20.804206
913.264392	-2.997500	3.683900	-11.042000	24.976633	0.000475	20.794723
914.270577	-3.005500	3.684200	-11.072000	24.940408	0.000477	20.800089
915.269243	-3.004600	3.682300	-11.063000	24.935981	0.000475	20.783792
916.266064	-2.995500	3.683500	-11.033000	24.933147	0.000476	20.786163
917.273510	-2.979900	3.681700	-10.970000	24.919547	0.000474	20.814238
918.270687	-2.983600	3.681300	-10.983000	24.924246	0.000475	20.795721
919.266028	-3.000600	3.681500	-11.045000	24.951798	0.000475	20.796823
920.265937	-2.997200	3.681800	-11.034000	24.942867	0.000474	20.802083
921.264466	-2.982200	3.681900	-10.980000	24.939713	0.000473	20.806030
922.269913	-2.988000	3.680800	-10.997000	24.998215	0.000474	20.808799
923.269306	-3.002400	3.679200	-11.046000	24.968082	0.000474	20.807477
924.263840	-2.996700	3.680900	-11.030000	24.939938	0.000472	20.813842
925.267740	-3.000400	3.680700	-11.043000	24.949636	0.000471	20.802713
926.269733	-2.995500	3.680500	-11.024000	24.964105	0.000472	20.786890
927.267267	-3.008000	3.679900	-11.068000	24.977035	0.000475	20.808877
928.277912	-3.001100	3.679400	-11.041000	25.010996	0.000470	20.807404
929.269186	-3.017700	3.678000	-11.098000	25.008485	0.000471	20.826220
930.267346	-3.012600	3.677700	-11.079000	25.034390	0.000471	20.797696
931.270324	-2.983100	3.679700	-10.976000	25.053782	0.000470	20.799617
932.269469	-2.985900	3.678500	-10.983000	25.074215	0.000470	20.808275
933.266690	-2.984400	3.678300	-10.977000	25.062131	0.000470	20.796619
934.273637	-3.006000	3.678600	-11.058000	24.994161	0.000469	20.807101
935.268839	-2.989400	3.679300	-10.998000	24.981951	0.000469	20.809070
936.267190	-3.002600	3.678300	-11.043000	24.960621	0.000470	20.810420
937.270982	-2.980600	3.677000	-10.958000	24.925238	0.000469	20.787234
938.269735	-3.004700	3.676100	-11.044000	24.941845	0.000469	20.800109
939.267558	-3.018500	3.676700	-11.097000	24.903582	0.000468	20.799163
940.268261	-2.998100	3.677000	-11.023000	24.885353	0.000467	20.791772
941.271426	-3.001700	3.677400	-11.038000	24.877921	0.000468	20.810866
942.273120	-3.003900	3.676100	-11.042000	24.909321	0.000471	20.795914
943.269980	-3.007700	3.674900	-11.052000	24.975708	0.000467	20.813709
944.271441	-3.016900	3.675800	-11.090000	25.013051	0.000467	20.811837
945.270699	-3.003600	3.676000	-11.041000	25.025382	0.000469	20.813784
946.270353	-2.996000	3.674600	-11.008000	25.004548	0.000466	20.824639
947.273682	-3.003900	3.674500	-11.037000	24.996243	0.000465	20.812984
948.269268	-2.986900	3.674500	-10.974000	24.960961	0.000468	20.821192
949.269346	-2.997300	3.675000	-11.014000	25.016105	0.000468	20.813481
950.273126	-3.021100	3.672000	-11.092000	25.035872	0.000468	20.801080
951.268935	-3.015700	3.673800	-11.078000	25.017922	0.000468	20.821468
952.268986	-3.007600	3.673000	-11.046000	25.007730	0.000464	20.820247
953.271710	-2.995600	3.673700	-11.003000	25.007232	0.000466	20.802678
954.270971	-3.006700	3.673300	-11.042000	24.968919	0.000463	20.814482
955.270447	-3.005300	3.673800	-11.039000	24.972276	0.000464	20.815480
956.272327	-2.999800	3.671800	-11.014000	24.952608	0.000465	20.814705
957.270574	-3.003400	3.672300	-11.027000	24.935526	0.000463	20.819845
958.270403	-3.010300	3.670700	-11.050000	24.973548	0.000464	20.799688
959.272692	-2.991400	3.672100	-10.984000	24.960841	0.000465	20.822020
960.277160	-3.004400	3.670200	-11.025000	24.950871	0.000462	20.816280
961.273407	-3.006900	3.670500	-11.037000	24.951468	0.000463	20.817828
962.278434	-3.021300	3.670200	-11.088000	25.003753	0.000460	20.808195
963.274036	-3.008600	3.671200	-11.044000	25.006218	0.000463	20.816358
964.273478	-3.015600	3.670800	-11.069000	25.022451	0.000462	20.820324
965.273878	-3.001400	3.670200	-11.015000	25.037369	0.000461	20.813488
966.276076	-3.008800	3.669900	-11.041000	25.080031	0.000462	20.820751
967.273514	-3.003600	3.670600	-11.024000	25.079781	0.000462	20.820974
968.274432	-3.001400	3.670200	-11.015000	25.082815	0.000462	20.827813
969.279510	-3.022800	3.668000	-11.086000	25.028344	0.000461	20.825766
970.275436	-3.007100	3.669400	-11.033000	25.038614	0.000460	20.824694
971.275544	-3.004800	3.667300	-11.019000	25.073120	0.000461	20.828038
972.276639	-2.985400	3.669600	-10.954000	25.082642	0.000460	20.821476
973.276075	-2.994100	3.668400	-10.982000	25.052884	0.000458	20.813889
974.276382	-2.980800	3.668800	-10.934000	25.047591	0.000458	20.812843
975.275610	-2.963500	3.668100	-10.869000	25.082220	0.000459	20.806353
976.275445	-2.977400	3.668400	-10.921000	25.074912	0.000458	20.807552
977.275200	-3.008300	3.665400	-11.025000	25.131642	0.000457	20.829887
978.277966	-3.007300	3.667600	-11.027000	25.132934	0.000457	20.834503
979.281003	-3.008000	3.667900	-11.031000	25.118242	0.000457	20.815962
980.279099	-3.000800	3.666700	-11.002000	25.080755	0.000456	20.828590
981.279361	-3.012200	3.666200	-11.043000	25.092564	0.000457	20.805357
982.278941	-3.018000	3.665100	-11.060000	25.059625	0.000454	20.822552
983.278627	-3.022000	3.664100	-11.072000	25.045429	0.000456	20.841018
984.280592	-2.999500	3.665500	-10.994000	25.062976	0.000454	20.838244
985.279402	-3.023900	3.663400	-11.077000	25.043440	0.000456	20.854194
986.280667	-3.002300	3.664200	-11.001000	25.037099	0.000454	20.809898
987.282089	-2.995700	3.663000	-10.973000	25.081800	0.000454	20.832010
988.284765	-2.991900	3.664500	-10.964000	25.058952	0.000455	20.814291
989.281810	-2.978900	3.665200	-10.917000	25.083067	0.000455	20.861255
990.282614	-2.991000	3.664500	-10.960000	25.089108	0.000454	20.843612
991.283439	-3.026100	3.663800	-11.086000	25.109268	0.000456	20.826867
992.286578	-3.013900	3.663700	-11.041000	25.133804	0.000453	20.832057
993.285441	-2.996000	3.662800	-10.974000	25.147426	0.000453	20.822025
994.282820	-2.996500	3.663100	-10.975000	25.150583	0.000452	20.821400
995.285984	-2.997500	3.663500	-10.980000	25.128511	0.000452	20.834330
996.288800	-2.998600	3.663600	-10.984000	25.087043	0.000450	20.835850
997.284378	-3.005900	3.662000	-11.006000	25.070364	0.000450	20.844237
998.284795	-3.000700	3.660800	-10.984000	25.092364	0.000450	20.845933
999.288871	-3.011900	3.661900	-11.028000	25.122568	0.000451	20.822675
1000.286489	-2.990300	3.661600	-10.948000	25.120254	0.000451	20.842636
1001.288562	-3.006400	3.660400	-11.004000	25.153564	0.000451	20.847152
1002.288923	-3.002400	3.660600	-10.990000	25.165919	0.000449	20.829210
1003.284670	-3.010800	3.659500	-11.017000	25.137853	0.000449	20.856035
1004.291400	-2.989100	3.661300	-10.943000	25.138225	0.000448	20.833176
1005.289393	-3.024500	3.659000	-11.066000	25.127559	0.000448	20.855185
1006.288838	-3.000900	3.660500	-10.984000	25.088058	0.000450	20.837343
1007.289750	-2.986200	3.661200	-10.932000	25.103693	0.000449	20.842606
1008.294330	-2.967900	3.659300	-10.859000	25.088205	0.000447	20.839388
1009.286383	-3.021000	3.658900	-11.053000	25.079578	0.000447	20.834521
1010.290510	-3.009400	3.659300	-11.011000	25.053897	0.000447	20.829130
1011.291596	-2.981100	3.658300	-10.904000	25.020061	0.000446	20.860598
1012.287315	-2.971100	3.658400	-10.868000	25.016183	0.000446	20.833946
1013.290282	-2.980700	3.659200	-10.906000	24.998605	0.000447	20.844751
1014.290511	-3.000300	3.657800	-10.974000	25.015238	0.000445	20.860498
1015.289421	-3.004600	3.657100	-10.986000	25.005118	0.000444	20.852237
1016.291673	-3.012700	3.656400	-11.015000	25.013521	0.000446	20.841232
1017.292106	-3.007800	3.656700	-10.998000	25.072368	0.000446	20.826809
1018.289961	-3.017400	3.655000	-11.026000	25.064686	0.000444	20.850865
1019.292136	-2.986900	3.657500	-10.924000	25.097677	0.000446	20.861223
1020.293351	-2.990600	3.655700	-10.932000	25.106899	0.000447	20.839187
1021.298642	-3.003700	3.654500	-10.976000	25.075600	0.000445	20.843803
1022.297441	-2.995300	3.655600	-10.948000	25.053502	0.000446	20.839164
1023.293177	-2.994100	3.653600	-10.938000	25.033908	0.000444	20.853160
1024.290361	-3.014000	3.655400	-11.016000	25.032171	0.000443	20.867537
1025.300624	-3.035600	3.653600	-11.090000	25.041143	0.000443	20.852837
1026.296467	-2.994800	3.655700	-10.947000	25.060312	0.000443	20.837466
1027.293251	-3.011500	3.655100	-11.006000	25.065061	0.000442	20.841284
1028.298339	-3.025700	3.652300	-11.050000	25.083605	0.000442	20.862743
1029.298210	-2.991800	3.654100	-10.930000	25.119752	0.000440	20.844029
1030.292395	-3.010000	3.653800	-10.997000	25.141751	0.000444	20.855207
1031.295516	-3.003600	3.653300	-10.972000	25.154751	0.000441	20.852611
1032.299238	-3.004500	3.652300	-10.972000	25.175582	0.000442	20.872100
1033.293707	-3.006900	3.652300	-10.982000	25.202926	0.000442	20.865886
1034.300436	-3.017000	3.651300	-11.015000	25.184431	0.000440	20.871026
1035.297853	-2.991900	3.651900	-10.926000	25.165314	0.000438	20.876964
1036.295497	-2.989400	3.652300	-10.917000	25.200534	0.000439	20.875813
1037.300481	-2.998800	3.652000	-10.951000	25.207818	0.000439	20.860367
1038.302448	-2.994800	3.651600	-10.934000	25.209683	0.000438	20.854179
1039.296358	-2.991100	3.651900	-10.923000	25.196606	0.000438	20.877559
1040.300474	-3.000400	3.650800	-10.952000	25.157008	0.000439	20.876212
1041.301891	-2.995000	3.650100	-10.932000	25.146864	0.000438	20.855125
1042.298738	-2.979900	3.650400	-10.876000	25.126255	0.000438	20.868099
1043.301772	-2.989000	3.650000	-10.909000	25.115141	0.000438	20.861685
1044.298826	-2.967100	3.651100	-10.832000	25.062984	0.000436	20.854846
1045.295763	-2.996000	3.649100	-10.931000	25.094581	0.000436	20.866175
1046.303218	-2.996900	3.649100	-10.934000	25.089533	0.000437	20.860159
1047.303549	-3.018000	3.649000	-11.012000	25.132562	0.000437	20.870638
1048.299120	-2.993000	3.648900	-10.921000	25.157345	0.000435	20.870861
1049.300779	-2.993200	3.649100	-10.922000	25.196049	0.000435	20.871310
1050.304532	-2.994300	3.648600	-10.924000	25.168553	0.000434	20.863147
1051.299971	-3.000600	3.648300	-10.945000	25.164552	0.000433	20.896112
1052.301321	-2.992300	3.647000	-10.912000	25.216205	0.000434	20.865468
1053.304574	-2.973600	3.646700	-10.843000	25.221895	0.000433	20.880662
1054.301113	-2.977400	3.646900	-10.857000	25.179539	0.000430	20.877020
1055.300010	-2.986200	3.647000	-10.890000	25.151495	0.000432	20.891539
1056.303275	-2.996700	3.647300	-10.929000	25.138318	0.000432	20.872622
1057.299953	-3.013200	3.645800	-10.985000	25.137573	0.000431	20.878513
1058.300559	-3.000000	3.645400	-10.935000	25.146195	0.000431	20.878633
1059.302263	-2.998000	3.645600	-10.929000	25.171177	0.000431	20.873368
1060.301545	-3.015900	3.645100	-10.992000	25.148631	0.000433	20.884398
1061.299794	-2.991300	3.643900	-10.898000	25.156284	0.000431	20.877856
1062.301678	-2.999200	3.644100	-10.929000	25.204508	0.000433	20.872690
1063.303181	-2.967700	3.646300	-10.820000	25.205350	0.000431	20.874958
1064.299683	-2.982100	3.645000	-10.869000	25.174179	0.000429	20.877803
1065.301893	-3.004200	3.642700	-10.942000	25.134800	0.000431	20.883789
1066.300074	-3.002700	3.644000	-10.941000	25.116926	0.000429	20.888131
1067.301486	-3.024700	3.642300	-11.016000	25.092038	0.000429	20.878794
1068.303385	-2.996200	3.642800	-10.913000	25.130646	0.000427	20.902851
1069.301799	-3.014000	3.641900	-10.975000	25.133600	0.000432	20.881637
1070.301801	-3.001400	3.643900	-10.934000	25.129425	0.000429	20.878393
1071.304936	-3.019600	3.640400	-10.991000	25.096632	0.000429	20.876293
1072.301160	-2.992600	3.642300	-10.899000	25.087707	0.000429	20.870654
1073.300657	-2.999000	3.640800	-10.917000	25.122432	0.000431	20.872323
1074.305121	-2.997100	3.640100	-10.909000	25.147413	0.000426	20.893131
1075.303556	-2.989600	3.640400	-10.883000	25.128748	0.000428	20.876765
1076.303478	-3.007800	3.639400	-10.945000	25.146146	0.000426	20.888541
1077.305470	-3.025200	3.639800	-11.010000	25.171078	0.000427	20.872320
1078.301493	-3.002300	3.640900	-10.930000	25.182761	0.000428	20.904435
1079.302010	-3.008500	3.639500	-10.949000	25.174705	0.000427	20.875012
1080.303639	-2.989200	3.641400	-10.884000	25.168835	0.000426	20.890455
1081.302964	-2.969800	3.640600	-10.811000	25.188696	0.000426	20.895221
1082.303961	-3.001000	3.639900	-10.922000	25.200006	0.000425	20.888084
1083.304979	-2.994600	3.638900	-10.896000	25.206966	0.000425	20.892226
1084.304404	-2.995300	3.638800	-10.897000	25.199284	0.000424	20.907272
1085.304593	-2.996500	3.638300	-10.901000	25.175122	0.000425	20.880647
1086.306359	-2.988900	3.637700	-10.872000	25.163587	0.000425	20.904626
1087.305107	-2.999700	3.637700	-10.911000	25.184144	0.000422	20.899659
1088.305478	-3.007500	3.636300	-10.935000	25.179841	0.000422	20.885383
1089.307016	-2.992200	3.638000	-10.885000	25.148993	0.000422	20.871485
1090.305509	-3.006900	3.636500	-10.934000	25.187322	0.000421	20.894316
1091.305379	-2.983000	3.635700	-10.844000	25.173029	0.000421	20.918370
1092.306272	-2.990300	3.635700	-10.871000	25.181453	0.000419	20.888424
1093.309915	-3.004800	3.635500	-10.923000	25.147821	0.000422	20.901127
1094.309196	-2.997600	3.635200	-10.896000	25.168601	0.000421	20.921037
1095.307710	-3.016100	3.635100	-10.962000	25.209813	0.000418	20.913100
1096.306005	-3.005500	3.634900	-10.923000	25.187440	0.000420	20.893486
1097.304685	-2.985100	3.636100	-10.853000	25.194525	0.000420	20.910554
1098.316572	-3.006500	3.634000	-10.925000	25.214236	0.000418	20.886723
1099.307154	-3.012600	3.633400	-10.945000	25.185052	0.000418	20.900570
1100.306581	-3.007000	3.633000	-10.924000	25.171452	0.000420	20.907306
1101.306470	-3.004900	3.633800	-10.919000	25.187860	0.000419	20.894856
1102.306938	-3.016000	3.631900	-10.953000	25.232378	0.000416	20.929115
1103.306990	-3.002100	3.632300	-10.903000	25.288997	0.000416	20.895875
1104.308938	-2.988400	3.632500	-10.854000	25.293520	0.000416	20.916535
1105.310897	-3.008000	3.633000	-10.927000	25.289992	0.000415	20.906830
1106.307946	-2.992800	3.631500	-10.867000	25.228248	0.000417	20.896996
1107.317194	-2.994600	3.631200	-10.872000	25.235679	0.000414	20.891182
1108.308192	-2.995800	3.632100	-10.881000	25.225341	0.000417	20.905931
1109.310481	-2.994200	3.632000	-10.874000	25.219424	0.000416	20.901888
1110.314892	-2.988100	3.630800	-10.848000	25.252359	0.000415	20.909822
1111.314311	-3.003300	3.630400	-10.902000	25.285017	0.000414	20.901361
1112.312132	-2.992000	3.630700	-10.862000	25.230509	0.000415	20.908749
1113.313821	-2.972600	3.631500	-10.793000	25.182831	0.000414	20.922046
1114.313246	-2.990600	3.630400	-10.856000	25.209974	0.000412	20.909943
1115.313754	-2.992700	3.629800	-10.862000	25.172540	0.000413	20.929732
1116.314096	-2.998000	3.629500	-10.879000	25.167120	0.000413	20.924766
1117.313438	-2.993100	3.629700	-10.863000	25.155435	0.000411	20.900235
1118.314124	-3.007600	3.627800	-10.910000	25.183076	0.000411	20.913285
1119.319246	-3.000400	3.628600	-10.887000	25.243331	0.000412	20.906923
1120.314654	-3.004400	3.628000	-10.900000	25.276841	0.000411	20.912118
1121.316801	-2.986100	3.626900	-10.830000	25.242834	0.000410	20.914958
1122.319469	-3.006800	3.628200	-10.909000	25.272959	0.000410	20.922917
1123.318078	-3.005800	3.627800	-10.902000	25.222103	0.000411	20.910267
1124.318397	-2.997000	3.627900	-10.872000	25.213677	0.000409	20.913661
1125.319757	-3.017500	3.626000	-10.940000	25.154663	0.000411	20.912735
1126.317369	-2.998800	3.625400	-10.871000	25.178528	0.000410	20.903504
1127.318859	-2.998600	3.627000	-10.875000	25.178925	0.000408	20.920022
1128.319431	-2.987300	3.625200	-10.829000	25.175621	0.000408	20.925240
1129.317927	-3.012500	3.625600	-10.921000	25.202540	0.000407	20.937090
1130.319099	-2.985600	3.625200	-10.822000	25.196675	0.000408	20.932151
1131.322249	-3.011700	3.623300	-10.912000	25.205299	0.000409	20.916628
1132.319512	-3.012300	3.623600	-10.915000	25.257052	0.000409	20.911689
1133.318857	-2.987900	3.622900	-10.823000	25.216858	0.000407	20.947196
1134.321234	-2.987100	3.624800	-10.827000	25.218228	0.000406	20.924866
1135.319157	-2.980400	3.623900	-10.799000	25.273311	0.000410	20.916633
1136.317557	-3.002300	3.622200	-10.874000	25.289812	0.000406	20.924665
1137.318922	-2.996200	3.622800	-10.853000	25.303333	0.000407	20.928757
1138.320853	-2.977900	3.623300	-10.789000	25.300649	0.000407	20.943604
1139.320360	-3.000200	3.621600	-10.865000	25.264213	0.000404	20.915559
1140.319349	-3.006800	3.621600	-10.888000	25.306666	0.000404	20.940637
1141.320757	-3.010500	3.621500	-10.902000	25.322347	0.000405	20.941209
1142.318830	-2.996100	3.620800	-10.848000	25.290187	0.000404	20.952539
1143.319666	-3.016900	3.620400	-10.921000	25.238288	0.000403	20.942633
1144.322105	-3.015500	3.621700	-10.921000	25.233913	0.000403	20.949145
1145.319114	-2.986800	3.620500	-10.813000	25.202692	0.000402	20.955258
1146.319220	-2.995700	3.620600	-10.844000	25.210026	0.000403	20.938916
1147.320436	-3.009500	3.619600	-10.892000	25.213532	0.000402	20.922523
1148.319986	-2.981600	3.619500	-10.791000	25.226334	0.000403	20.944856
1149.320570	-2.982100	3.619000	-10.791000	25.232273	0.000401	20.957455
1150.321643	-2.996700	3.618100	-10.842000	25.228520	0.000402	20.949421
1151.321202	-3.000200	3.616700	-10.849000	25.232773	0.000401	20.951794
1152.321516	-2.999900	3.618400	-10.854000	25.234660	0.000401	20.957480
1153.325455	-3.012700	3.618900	-10.902000	25.269238	0.000400	20.962798
1154.319752	-2.988900	3.619000	-10.815000	25.262301	0.000402	20.945879
1155.320040	-2.994400	3.617500	-10.832000	25.286364	0.000399	20.952494
1156.323893	-2.980300	3.618400	-10.783000	25.298392	0.000398	20.962199
1157.321347	-3.011100	3.617500	-10.891000	25.266651	0.000398	20.954039
1158.320862	-3.016900	3.616600	-10.910000	25.253753	0.000397	20.966691
1159.323740	-3.001300	3.615800	-10.851000	25.229764	0.000396	20.962522
1160.322465	-3.000900	3.617100	-10.853000	25.248083	0.000397	20.961474
1161.323545	-3.020100	3.614300	-10.915000	25.246494	0.000398	20.932855
1162.325761	-3.003200	3.615100	-10.856000	25.273635	0.000398	20.958205
1163.323955	-3.030700	3.614700	-10.954000	25.287678	0.000395	20.950969
1164.325444	-3.009200	3.614900	-10.877000	25.263121	0.000397	20.948124
1165.325582	-2.986500	3.614700	-10.794000	25.283748	0.000394	20.973572
1166.323529	-2.998700	3.614800	-10.839000	25.268713	0.000396	20.951842
1167.324045	-2.993500	3.613500	-10.816000	25.260907	0.000393	20.942109
1168.324406	-2.985400	3.613200	-10.786000	25.243408	0.000394	20.947773
1169.324442	-3.005900	3.613300	-10.860000	25.268164	0.000393	20.956031
1170.324655	-3.007300	3.612800	-10.864000	25.337931	0.000393	20.951165
1171.327950	-3.004800	3.612100	-10.851000	25.343273	0.000391	20.957002
1172.327038	-2.970000	3.614000	-10.733000	25.311631	0.000393	20.962214
1173.328385	-2.985300	3.612700	-10.783000	25.291697	0.000393	20.942202
1174.329563	-3.007900	3.612500	-10.865000	25.326493	0.000392	20.953904
1175.329474	-3.003100	3.612200	-10.847000	25.380254	0.000391	20.940557
1176.328593	-3.001000	3.611900	-10.839000	25.385421	0.000391	20.957123
1177.329164	-2.996300	3.610500	-10.816000	25.355124	0.000390	20.958470
1178.327491	-3.014300	3.610200	-10.882000	25.332480	0.000391	20.932417
1179.330073	-2.991600	3.610800	-10.801000	25.362278	0.000389	20.945266
1180.330493	-3.001400	3.609300	-10.832000	25.374705	0.000390	20.945416
1181.329018	-3.002400	3.608600	-10.834000	25.386611	0.000390	20.944094
1182.331421	-2.997600	3.608900	-10.817000	25.389192	0.000389	20.943367
1183.329578	-2.998000	3.609600	-10.821000	25.384667	0.000390	20.919386
1184.331234	-3.008700	3.608300	-10.855000	25.399953	0.000389	20.929992
1185.332402	-3.006000	3.608300	-10.846000	25.409197	0.000388	20.930266
1186.332454	-2.996500	3.608800	-10.813000	25.407978	0.000387	20.929516
1187.333025	-2.999800	3.607800	-10.822000	25.392168	0.000389	20.917435
1188.332044	-3.012100	3.606900	-10.864000	25.358466	0.000387	20.941439
1189.337289	-2.994900	3.608000	-10.804000	25.341491	0.000385	20.939093
1190.333081	-3.014600	3.605400	-10.868000	25.343650	0.000385	20.932727
1191.334401	-2.992500	3.605600	-10.788000	25.345139	0.000388	20.930904
1192.334458	-3.010000	3.605700	-10.852000	25.381598	0.000385	20.924839
1193.339079	-3.008600	3.605400	-10.846000	25.384928	0.000386	20.947620
1194.336018	-3.012900	3.605200	-10.861000	25.367652	0.000385	20.936438
1195.334815	-2.972600	3.606100	-10.719000	25.339243	0.000385	20.928303
1196.332530	-2.985000	3.604100	-10.756000	25.362678	0.000384	20.935711
1197.339869	-2.998000	3.604300	-10.805000	25.406618	0.000384	20.936684
1198.338310	-3.009700	3.604600	-10.848000	25.409224	0.000383	20.919389
1199.335552	-3.015400	3.603200	-10.864000	25.384817	0.000381	20.921433
1200.331987	-3.024900	3.603500	-10.899000	25.379323	0.000381	20.926348
1201.341414	-2.991000	3.602900	-10.776000	25.392420	0.000384	20.916266
1202.337335	-3.043500	3.603100	-10.965000	25.408276	0.000382	20.917962
1203.334884	-3.014600	3.603000	-10.861000	25.378499	0.000382	20.909401
1204.336305	-2.987700	3.603800	-10.766000	25.410607	0.000380	20.908450
1205.336856	-2.988700	3.603300	-10.769000	25.378745	0.000381	20.936197
1206.335385	-2.985800	3.602300	-10.754000	25.376756	0.000382	20.920451
1207.334735	-2.959500	3.603100	-10.661000	25.387787	0.000381	20.909244
1208.338657	-3.003300	3.600800	-10.814000	25.392337	0.000380	20.914286
1209.333854	-3.019600	3.599300	-10.868000	25.330549	0.000381	20.889705
1210.337757	-3.011100	3.599500	-10.838000	25.345260	0.000382	20.916802
1211.337614	-3.014200	3.598500	-10.845000	25.321029	0.000380	20.917602
1212.340822	-2.983300	3.600500	-10.741000	25.338922	0.000380	20.912335
1213.334634	-3.008500	3.599000	-10.827000	25.344613	0.000380	20.903826
1214.338175	-2.989800	3.599800	-10.761000	25.297315	0.000378	20.901854
1215.337818	-3.020400	3.598400	-10.868000	25.320353	0.000380	20.920242
1216.334205	-3.010200	3.598200	-10.830000	25.355000	0.000377	20.902876
1217.340536	-3.022300	3.597600	-10.872000	25.365911	0.000379	20.895340
1218.338261	-3.008100	3.598700	-10.824000	25.352314	0.000378	20.897334
1219.341933	-3.006100	3.598900	-10.817000	25.390689	0.000376	20.925432
1220.343550	-3.013700	3.597900	-10.843000	25.347867	0.000375	20.898084
1221.341055	-3.029200	3.596100	-10.892000	25.353856	0.000376	20.912157
1222.344412	-3.012400	3.595600	-10.831000	25.371800	0.000376	20.906468
1223.340199	-3.009800	3.596400	-10.823000	25.391184	0.000378	20.906017
1224.344330	-3.000800	3.597700	-10.795000	25.411466	0.000376	20.909312
1225.337165	-2.981700	3.596000	-10.720000	25.394019	0.000374	20.905545
1226.343285	-2.983500	3.596200	-10.728000	25.365686	0.000376	20.905545
1227.337986	-2.997400	3.595600	-10.776000	25.351070	0.000375	20.903197
1228.338581	-3.005200	3.595200	-10.803000	25.339267	0.000375	20.906044
1229.338537	-2.986400	3.596000	-10.739000	25.310111	0.000374	20.884832
1230.340428	-2.989200	3.595900	-10.748000	25.361112	0.000373	20.915649
1231.341252	-3.002200	3.594100	-10.789000	25.354153	0.000374	20.897284
1232.348987	-3.012100	3.594000	-10.824000	25.348662	0.000374	20.900304
1233.339229	-3.003300	3.593800	-10.793000	25.355720	0.000372	20.907865
1234.338820	-3.014900	3.594000	-10.834000	25.368073	0.000372	20.895139
1235.338652	-3.022300	3.593600	-10.859000	25.374536	0.000373	20.893569
1236.341502	-3.020700	3.591800	-10.850000	25.385844	0.000371	20.902552
1237.340395	-2.990800	3.593600	-10.747000	25.402349	0.000370	20.896365
1238.342710	-2.970200	3.593900	-10.673000	25.388777	0.000371	20.900282
1239.342481	-2.987300	3.593600	-10.734000	25.362560	0.000371	20.875381
1240.350700	-2.991100	3.590800	-10.739000	25.387637	0.000369	20.908145
1241.344067	-3.008000	3.590600	-10.800000	25.414875	0.000367	20.893771
1242.341336	-3.004100	3.590700	-10.786000	25.419749	0.000369	20.895821
1243.344911	-2.979300	3.591600	-10.700000	25.363132	0.000368	20.880697
1244.346750	-2.997700	3.589800	-10.760000	25.356896	0.000367	20.886762
1245.348210	-2.972500	3.589700	-10.670000	25.359454	0.000368	20.876056
1246.339556	-3.007600	3.589600	-10.795000	25.339748	0.000368	20.887088
1247.340324	-3.001600	3.590500	-10.776000	25.369723	0.000366	20.902485
1248.341005	-3.002400	3.590200	-10.778000	25.357447	0.000367	20.899643
1249.343073	-3.012200	3.587200	-10.805000	25.383789	0.000365	20.883421
1250.350931	-2.998700	3.589600	-10.763000	25.381231	0.000365	20.882274
1251.350071	-3.005800	3.587900	-10.784000	25.411032	0.000364	20.889912
1252.345307	-2.983200	3.588600	-10.705000	25.419234	0.000366	20.884398
1253.342137	-2.995000	3.587200	-10.743000	25.444087	0.000365	20.878061
1254.346270	-3.028300	3.586000	-10.858000	25.421148	0.000366	20.886794
1255.347468	-2.992000	3.585900	-10.728000	25.408124	0.000363	20.894578
1256.355745	-2.999800	3.584900	-10.753000	25.351982	0.000363	20.858597
1257.341075	-2.994800	3.587000	-10.741000	25.347063	0.000362	20.899647
1258.346947	-3.006400	3.585500	-10.779000	25.343062	0.000364	20.877615
1259.347029	-2.992000	3.585100	-10.725000	25.327404	0.000361	20.901719
1260.341347	-2.999100	3.585700	-10.753000	25.278365	0.000361	20.895631
1261.349512	-3.000300	3.585100	-10.756000	25.272425	0.000362	20.893935
1262.358774	-3.003800	3.584300	-10.765000	25.316072	0.000360	20.896980
1263.343143	-2.961200	3.586500	-10.619000	25.341696	0.000361	20.888095
1264.344400	-3.013300	3.584300	-10.799000	25.370031	0.000360	20.882408
1265.353824	-3.014200	3.583300	-10.800000	25.379773	0.000360	20.892663
1266.347796	-2.987600	3.583300	-10.704000	25.393492	0.000359	20.866612
1267.354867	-2.964800	3.584600	-10.627000	25.443645	0.000361	20.888522
1268.351507	-2.984300	3.582900	-10.692000	25.414543	0.000359	20.863569
1269.350158	-3.014900	3.580900	-10.795000	25.399855	0.000358	20.895285
1270.348186	-3.000800	3.582800	-10.750000	25.394164	0.000359	20.863968
1271.363578	-2.990500	3.581800	-10.710000	25.382708	0.000358	20.872853
1272.351559	-3.010700	3.580900	-10.780000	25.392200	0.000359	20.883331
1273.347523	-2.971400	3.582000	-10.642000	25.420435	0.000356	20.886552
1274.346883	-3.006700	3.580800	-10.766000	25.468148	0.000357	20.864765
1275.349056	-2.986400	3.581000	-10.693000	25.501277	0.000357	20.893290
1276.349564	-2.998300	3.581000	-10.735000	25.516286	0.000355	20.887974
1277.355417	-2.972600	3.582200	-10.647000	25.519493	0.000356	20.871282
1278.358009	-2.980800	3.581200	-10.674000	25.536141	0.000356	20.887525
1279.347296	-3.010400	3.578700	-10.772000	25.513278	0.000355	20.879265
1280.349479	-3.003400	3.578900	-10.748000	25.462187	0.000358	20.885804
1281.350294	-2.984200	3.579400	-10.680000	25.435620	0.000353	20.866714
1282.349557	-3.014200	3.580100	-10.790000	25.469766	0.000354	20.873977
1283.355823	-3.006000	3.578900	-10.756000	25.450210	0.000353	20.868563
1284.357444	-2.997400	3.578100	-10.724000	25.450307	0.000353	20.868187
1285.350145	-2.995200	3.578300	-10.717000	25.462931	0.000352	20.878492
1286.353614	-3.010000	3.576300	-10.764000	25.405349	0.000352	20.888000
1287.362237	-2.989800	3.578500	-10.698000	25.441286	0.000349	20.876671
1288.361393	-3.004500	3.577200	-10.746000	25.427940	0.000352	20.865641
1289.352972	-2.990100	3.576600	-10.694000	25.461267	0.000351	20.870184
1290.350722	-3.003300	3.575500	-10.737000	25.428687	0.000350	20.857382
1291.358173	-3.006500	3.575400	-10.748000	25.445508	0.000350	20.863368
1292.352879	-2.985800	3.575000	-10.674000	25.483682	0.000350	20.870407
1293.367151	-3.004900	3.575300	-10.743000	25.445583	0.000348	20.872926
1294.350034	-2.996800	3.575900	-10.715000	25.458282	0.000349	20.868134
1295.352899	-3.013000	3.574100	-10.768000	25.492851	0.000350	20.877717
1296.349871	-3.002500	3.572900	-10.727000	25.450677	0.000348	20.861446
1297.356791	-2.994400	3.572900	-10.698000	25.411883	0.000347	20.874173
1298.351415	-2.986000	3.574200	-10.671000	25.385489	0.000348	20.862844
1299.363976	-2.994200	3.573900	-10.700000	25.432237	0.000347	20.860473
1300.358777	-2.996400	3.573100	-10.706000	25.460943	0.000349	20.863694
1301.354171	-3.024400	3.571800	-10.801000	25.486140	0.000347	20.850592
1302.360584	-2.984700	3.572100	-10.661000	25.472720	0.000348	20.844227
1303.360846	-3.011700	3.571100	-10.753000	25.442205	0.000346	20.869060
1304.352774	-2.986500	3.574500	-10.674000	25.418569	0.000344	20.853860
1305.363072	-3.014200	3.570000	-10.760000	25.381267	0.000344	20.871405
1306.351285	-3.014000	3.570200	-10.760000	25.422298	0.000344	20.863295
1307.363410	-2.985400	3.570900	-10.659000	25.485968	0.000343	20.867961
1308.357674	-3.011000	3.571200	-10.752000	25.473044	0.000344	20.854036
1309.361445	-2.972300	3.572300	-10.617000	25.423118	0.000344	20.868859
1310.364177	-2.995300	3.569800	-10.691000	25.450503	0.000344	20.866960
1311.359077	-2.989100	3.569500	-10.668000	25.414739	0.000345	20.849541
1312.356385	-3.006500	3.568300	-10.728000	25.422818	0.000343	20.861921
1313.356064	-3.003400	3.569600	-10.720000	25.424135	0.000343	20.835743
1314.358675	-2.986000	3.569000	-10.656000	25.398834	0.000343	20.855381
1315.367450	-3.012100	3.567300	-10.743000	25.394062	0.000344	20.851538
1316.357401	-2.985600	3.568100	-10.651000	25.414564	0.000342	20.868331
1317.361931	-3.002200	3.567900	-10.710000	25.459721	0.000342	20.857252
1318.363849	-2.999300	3.568200	-10.702000	25.450948	0.000343	20.859347
1319.364905	-2.992300	3.567000	-10.673000	25.435615	0.000343	20.866710
1320.365871	-3.008600	3.566000	-10.727000	25.419213	0.000340	20.856878
1321.359559	-2.975800	3.569000	-10.620000	25.412825	0.000343	20.860895
1322.367643	-3.005100	3.566200	-10.716000	25.396770	0.000337	20.837188
1323.368502	-3.016300	3.566000	-10.756000	25.416625	0.000340	20.850487
1324.359855	-3.005400	3.564500	-10.712000	25.408326	0.000340	20.831722
1325.358801	-2.974200	3.567400	-10.610000	25.403926	0.000342	20.834416
1326.362399	-2.994800	3.566100	-10.679000	25.372538	0.000339	20.859796
1327.369072	-2.999600	3.564900	-10.692000	25.413792	0.000337	20.851435
1328.367632	-2.998100	3.564900	-10.687000	25.429672	0.000340	20.850311
1329.366194	-3.012000	3.564200	-10.734000	25.431338	0.000339	20.838235
1330.364439	-2.997100	3.564700	-10.683000	25.445404	0.000337	20.835764
1331.366873	-2.983500	3.563400	-10.630000	25.401640	0.000338	20.840181
1332.368732	-3.017400	3.562900	-10.750000	25.431066	0.000336	20.829901
1333.364674	-2.973600	3.564300	-10.598000	25.457856	0.000337	20.850163
1334.368861	-3.030100	3.562000	-10.792000	25.480917	0.000336	20.851985
1335.362174	-3.028100	3.561200	-10.783000	25.477115	0.000337	20.835839
1336.364603	-3.015500	3.561700	-10.739000	25.492049	0.000333	20.826655
1337.370422	-2.987700	3.563300	-10.645000	25.508328	0.000336	20.821665
1338.367146	-3.017800	3.560700	-10.745000	25.496823	0.000335	20.825759
1339.364576	-3.020000	3.559800	-10.750000	25.469113	0.000334	20.833493
1340.377340	-2.987700	3.561800	-10.641000	25.427338	0.000334	20.824735
1341.362169	-2.985500	3.560000	-10.628000	25.417894	0.000334	20.837063
1342.371582	-3.003800	3.560700	-10.694000	25.478631	0.000334	20.821241
1343.378326	-2.966200	3.559600	-10.557000	25.445306	0.000331	20.816700
1344.371849	-2.990600	3.560000	-10.645000	25.475378	0.000333	20.835043
1345.362546	-2.988700	3.559400	-10.637000	25.506466	0.000331	20.823589
1346.364423	-2.990000	3.557700	-10.637000	25.491802	0.000331	20.818820
1347.375854	-3.016000	3.556900	-10.726000	25.445406	0.000329	20.808266
1348.374925	-3.033400	3.556500	-10.787000	25.439070	0.000329	20.822292
1349.367155	-2.991100	3.557100	-10.638000	25.436435	0.000327	20.830550
1350.383092	-2.985200	3.558000	-10.621000	25.385362	0.000331	20.825734
1351.368258	-2.994300	3.557500	-10.652000	25.420378	0.000329	20.818695
1352.365512	-3.006400	3.556900	-10.693000	25.409617	0.000328	20.808838
1353.370147	-2.999100	3.557700	-10.669000	25.385335	0.000327	20.838508
1354.376169	-3.001000	3.555600	-10.669000	25.440008	0.000329	20.825604
1355.373412	-3.022700	3.555400	-10.746000	25.465506	0.000330	20.817069
1356.383962	-3.019100	3.554000	-10.729000	25.393158	0.000328	20.831191
1357.382878	-3.017400	3.555200	-10.727000	25.406378	0.000328	20.825973
1358.376885	-2.985500	3.554600	-10.612000	25.425713	0.000327	20.832586
1359.368199	-3.001100	3.554000	-10.665000	25.419473	0.000326	20.824423
1360.371385	-3.011700	3.552400	-10.697000	25.399938	0.000326	20.818084
1361.371388	-2.994300	3.554600	-10.642000	25.368347	0.000323	20.820977
1362.387724	-2.985300	3.554200	-10.610000	25.366132	0.000326	20.817330
1363.378146	-3.012100	3.553800	-10.704000	25.397892	0.000326	20.810815
1364.371304	-2.995600	3.552700	-10.641000	25.450728	0.000323	20.813135
1365.375515	-2.994900	3.552500	-10.638000	25.517574	0.000325	20.826683
1366.375111	-2.984500	3.552200	-10.601000	25.561458	0.000322	20.814330
1367.382384	-3.013400	3.552800	-10.705000	25.543018	0.000324	20.838484
1368.382809	-3.038900	3.550900	-10.790000	25.580289	0.000325	20.814276
1369.376887	-2.999900	3.551500	-10.653000	25.538592	0.000322	20.804642
1370.384470	-2.978400	3.550900	-10.575000	25.522514	0.000323	20.820738
1371.387475	-2.990900	3.552000	-10.622000	25.484441	0.000321	20.810480
1372.375950	-3.002500	3.551500	-10.662000	25.465205	0.000320	20.815345
1373.387300	-2.984100	3.550600	-10.594000	25.493708	0.000322	20.820734
1374.385437	-2.980900	3.549100	-10.579000	25.452677	0.000319	20.806083
1375.385415	-3.012100	3.549600	-10.691000	25.449394	0.000322	20.814167
1376.383216	-2.992700	3.550400	-10.625000	25.466268	0.000321	20.809774
1377.382883	-2.998100	3.547800	-10.635000	25.488088	0.000320	20.809400
1378.376976	-3.008600	3.547800	-10.673000	25.558386	0.000324	20.806029
1379.392615	-2.993200	3.548200	-10.619000	25.547697	0.000320	20.797665
1380.375457	-2.986000	3.547700	-10.593000	25.591233	0.000319	20.816732
1381.375479	-2.997900	3.548000	-10.636000	25.553111	0.000318	20.822068
1382.392406	-2.998600	3.546900	-10.635000	25.539369	0.000317	20.802104
1383.381844	-3.001500	3.546100	-10.642000	25.498365	0.000318	20.815453
1384.379288	-3.001800	3.546900	-10.646000	25.489666	0.000317	20.798658
1385.376946	-3.023300	3.546800	-10.722000	25.460714	0.000320	20.822689
1386.380259	-2.984800	3.545700	-10.583000	25.409790	0.000316	20.792890
1387.380373	-3.012000	3.545800	-10.679000	25.401091	0.000315	20.805492
1388.380914	-2.986200	3.546000	-10.588000	25.419505	0.000316	20.801697
1389.385422	-2.988000	3.546200	-10.595000	25.443089	0.000315	20.809258
1390.383564	-3.000400	3.545100	-10.636000	25.527857	0.000315	20.802871
1391.386983	-3.000100	3.544200	-10.632000	25.502583	0.000315	20.793137
1392.382951	-3.011400	3.544000	-10.672000	25.491549	0.000314	20.802919
1393.396541	-3.009700	3.543900	-10.665000	25.436751	0.000315	20.810954
1394.384557	-3.018800	3.543200	-10.695000	25.458767	0.000313	20.799397
1395.383850	-3.000600	3.542000	-10.628000	25.442786	0.000312	20.782400
1396.386389	-2.983700	3.543500	-10.571000	25.461128	0.000313	20.793233
1397.385204	-3.011800	3.542400	-10.667000	25.499299	0.000315	20.793158
1398.385431	-2.983300	3.542800	-10.568000	25.511078	0.000313	20.797400
1399.384221	-3.010200	3.541200	-10.658000	25.522307	0.000314	20.781651
1400.390574	-3.000400	3.541600	-10.626000	25.524371	0.000313	20.808853
1401.393358	-2.978800	3.540900	-10.547000	25.476233	0.000313	20.812195
1402.387990	-3.016400	3.540800	-10.680000	25.527006	0.000312	20.795852
1403.394425	-3.004300	3.540500	-10.636000	25.478272	0.000311	20.802388
1404.388881	-2.987800	3.541600	-10.581000	25.476183	0.000311	20.801713
1405.400129	-3.002900	3.538500	-10.625000	25.488210	0.000311	20.792454
1406.388525	-3.001400	3.538500	-10.619000	25.467162	0.000311	20.787913
1407.387437	-3.003500	3.540200	-10.632000	25.455532	0.000312	20.807529
1408.390689	-2.973500	3.540000	-10.526000	25.491990	0.000309	20.793404
1409.394881	-2.993400	3.537100	-10.587000	25.511051	0.000310	20.815865
1410.388056	-2.981000	3.538300	-10.547000	25.524716	0.000311	20.784069
1411.398804	-2.975600	3.538400	-10.528000	25.557146	0.000311	20.799094
1412.391532	-3.003700	3.538000	-10.626000	25.547506	0.000309	20.801266
1413.390457	-3.004100	3.537800	-10.627000	25.526010	0.000310	20.804809
1414.387702	-2.998400	3.536500	-10.603000	25.469203	0.000307	20.793755
1415.395734	-3.007400	3.536200	-10.633000	25.497481	0.000307	20.804608
1416.393898	-2.992000	3.536100	-10.579000	25.470120	0.000306	20.796099
1417.390153	-2.983400	3.536700	-10.551000	25.457571	0.000306	20.804360
1418.405204	-2.991900	3.535800	-10.578000	25.455160	0.000305	20.778705
1419.394786	-3.006300	3.534600	-10.625000	25.486274	0.000305	20.790983
1420.395156	-3.017800	3.533800	-10.664000	25.475164	0.000308	20.785991
1421.407051	-2.989600	3.535100	-10.568000	25.468106	0.000305	20.783645
1422.390213	-2.988200	3.535400	-10.564000	25.475435	0.000305	20.801910
1423.395095	-2.995200	3.534600	-10.586000	25.503617	0.000303	20.809348
1424.398047	-2.988500	3.533600	-10.560000	25.503717	0.000306	20.797594
1425.400606	-2.991000	3.534000	-10.569000	25.445588	0.000304	20.812241
1426.397233	-2.987600	3.532100	-10.552000	25.431597	0.000305	20.797718
1427.391858	-2.994000	3.532700	-10.576000	25.449265	0.000302	20.802183
1428.393034	-3.000400	3.531800	-10.596000	25.427070	0.000305	20.786534
1429.397199	-3.003600	3.531100	-10.605000	25.380172	0.000303	20.798238
1430.395341	-3.022800	3.529400	-10.667000	25.435071	0.000302	20.790775
1431.396701	-2.980300	3.531400	-10.523000	25.492924	0.000304	20.802403
1432.396758	-2.998500	3.529900	-10.583000	25.478062	0.000303	20.806919
1433.399301	-2.985600	3.530100	-10.539000	25.469463	0.000303	20.789749
1434.407412	-3.012000	3.529800	-10.631000	25.469536	0.000303	20.788400
1435.412276	-3.015700	3.530000	-10.645000	25.484445	0.000301	20.811433
1436.395655	-3.021500	3.529700	-10.664000	25.478158	0.000300	20.793264
1437.399331	-3.013300	3.528100	-10.630000	25.485013	0.000301	20.808210
1438.395887	-2.994200	3.530100	-10.569000	25.495900	0.000301	20.808711
1439.407318	-3.005100	3.527900	-10.601000	25.547785	0.000300	20.798702
1440.400206	-3.036300	3.527800	-10.710000	25.488393	0.000301	20.816345
1441.399077	-3.002700	3.528100	-10.593000	25.489735	0.000301	20.806313
1442.412140	-3.016700	3.526700	-10.638000	25.456508	0.000299	20.819888
1443.397370	-3.000400	3.526100	-10.579000	25.447262	0.000302	20.804914
1444.406747	-2.982200	3.526900	-10.517000	25.477633	0.000297	20.803644
1445.411178	-2.987600	3.527500	-10.538000	25.475593	0.000297	20.803017
1446.405777	-3.005300	3.525400	-10.594000	25.461750	0.000300	20.819936
1447.404172	-2.972900	3.526100	-10.481000	25.445644	0.000298	20.800444
1448.411700	-3.003100	3.525400	-10.586000	25.366687	0.000296	20.800818
1449.403122	-2.996800	3.525400	-10.564000	25.374962	0.000297	20.794428
1450.405109	-2.991700	3.524600	-10.542000	25.442364	0.000296	20.808529
1451.403279	-2.988400	3.525000	-10.533000	25.461594	0.000297	20.777580
1452.405476	-3.009800	3.524000	-10.605000	25.445293	0.000298	20.812893
1453.403979	-2.996800	3.524100	-10.559000	25.454834	0.000296	20.801612
1454.401817	-3.001100	3.523000	-10.571000	25.423345	0.000295	20.812665
1455.412956	-3.014700	3.521800	-10.616000	25.398741	0.000296	20.813089
1456.405423	-2.999500	3.523200	-10.567000	25.428017	0.000294	20.805029
1457.405697	-3.009300	3.523300	-10.602000	25.409749	0.000293	20.819402
1458.405000	-2.994500	3.522400	-10.547000	25.435870	0.000296	20.804854
1459.403341	-2.997600	3.522400	-10.558000	25.451550	0.000295	20.802107
1460.410516	-2.985500	3.522300	-10.515000	25.494990	0.000295	20.808745
1461.412525	-3.018500	3.520000	-10.625000	25.477892	0.000292	20.802007
1462.407266	-2.979500	3.521500	-10.491000	25.465815	0.000294	20.820699
1463.427264	-3.003600	3.520800	-10.574000	25.465241	0.000293	20.799734
1464.418196	-3.017900	3.520000	-10.622000	25.496454	0.000292	20.809267
1465.421432	-2.999100	3.519300	-10.553000	25.502020	0.000295	20.831926
1466.417389	-2.997800	3.519400	-10.550000	25.492851	0.000293	20.830779
1467.410361	-3.014600	3.519600	-10.609000	25.470485	0.000292	20.813060
1468.421877	-3.000200	3.517800	-10.554000	25.464569	0.000291	20.837465
1469.406864	-3.013900	3.517900	-10.601000	25.461389	0.000291	20.807245
1470.412431	-3.005600	3.518400	-10.574000	25.507166	0.000290	20.829507
1471.417098	-2.994800	3.518300	-10.534000	25.498343	0.000291	20.832500
1472.415254	-2.996500	3.517500	-10.539000	25.541955	0.000293	20.801382
1473.409493	-3.029300	3.516400	-10.651000	25.525135	0.000290	20.831905
1474.413021	-3.018000	3.516400	-10.611000	25.571650	0.000292	20.814608
1475.411717	-3.002000	3.516000	-10.554000	25.602390	0.000289	20.826514
1476.414356	-2.980700	3.516600	-10.482000	25.585841	0.000290	20.828385
1477.412761	-3.010800	3.516300	-10.585000	25.630941	0.000292	20.801610
1478.414368	-3.015700	3.515400	-10.600000	25.601991	0.000290	20.817104
1479.413437	-3.012600	3.514400	-10.587000	25.550556	0.000289	20.823769
1480.416901	-3.000800	3.515300	-10.548000	25.572771	0.000288	20.840389
1481.424749	-2.998900	3.514600	-10.539000	25.526749	0.000289	20.816931
1482.421510	-2.965500	3.515100	-10.423000	25.529756	0.000288	20.820425
1483.413710	-2.994200	3.514400	-10.522000	25.539846	0.000288	20.831506
1484.415393	-2.990800	3.514300	-10.510000	25.527520	0.000287	20.819602
1485.413270	-2.985100	3.513900	-10.488000	25.507788	0.000289	20.824442
1486.416924	-2.999500	3.512500	-10.535000	25.562384	0.000288	20.838018
1487.426212	-2.997700	3.512400	-10.528000	25.520089	0.000287	20.835372
1488.411202	-3.009000	3.513300	-10.571000	25.511070	0.000287	20.818255
1489.417470	-2.997600	3.512900	-10.529000	25.465293	0.000287	20.805950
1490.426718	-3.003600	3.510800	-10.544000	25.477347	0.000286	20.802408
1491.417451	-3.004100	3.512900	-10.553000	25.493301	0.000287	20.831230
1492.424644	-3.013500	3.510200	-10.577000	25.487038	0.000284	20.844381
1493.424733	-3.006100	3.509400	-10.549000	25.508980	0.000284	20.824216
1494.418418	-2.983400	3.511600	-10.475000	25.513179	0.000285	20.824640
1495.447270	-3.004500	3.509800	-10.544000	25.554406	0.000286	20.825739
1496.419049	-2.993400	3.510100	-10.506000	25.582361	0.000283	20.815882
1497.420455	-3.003600	3.509600	-10.540000	25.599830	0.000285	20.842908
1498.426477	-2.998500	3.508500	-10.520000	25.593318	0.000281	20.836843
1499.428751	-3.004500	3.509200	-10.542000	25.551895	0.000282	20.835546
1500.419586	-3.018800	3.507000	-10.586000	25.536589	0.000283	20.823494
1501.421298	-2.978300	3.509000	-10.450000	25.520114	0.000282	20.852466
1502.436923	-2.988000	3.507700	-10.480000	25.541955	0.000283	20.856857
1503.419598	-3.017500	3.506700	-10.580000	25.551375	0.000282	20.861101
1504.419370	-2.993900	3.507000	-10.499000	25.560123	0.000281	20.818205
1505.421758	-3.004600	3.506600	-10.535000	25.538602	0.000281	20.846378
1506.423089	-2.999400	3.507100	-10.518000	25.566981	0.000281	20.829359
1507.420094	-3.011700	3.505200	-10.556000	25.575504	0.000280	20.844082
1508.419070	-2.986700	3.506600	-10.471000	25.562584	0.000280	20.840590
1509.427972	-3.008500	3.505300	-10.545000	25.590042	0.000281	20.838768
1510.420372	-3.009000	3.504500	-10.544000	25.545239	0.000281	20.850672
1511.424150	-3.013100	3.503200	-10.555000	25.514200	0.000281	20.837519
1512.423523	-2.965200	3.504900	-10.392000	25.512389	0.000279	20.835226
1513.419538	-2.999600	3.503600	-10.508000	25.517732	0.000276	20.848652
1514.422738	-2.994800	3.503900	-10.493000	25.535274	0.000279	20.868164
1515.424343	-3.010500	3.503700	-10.547000	25.578214	0.000276	20.844907
1516.421562	-3.016900	3.502300	-10.566000	25.513433	0.000276	20.848602
1517.423067	-2.988700	3.502100	-10.465000	25.523745	0.000277	20.847578
1518.423565	-3.009300	3.501000	-10.535000	25.549713	0.000277	20.832406
1519.422324	-2.944500	3.503800	-10.316000	25.577074	0.000277	20.860831
1520.423605	-3.011900	3.500300	-10.541000	25.618148	0.000275	20.857038
1521.429456	-3.000400	3.500000	-10.499000	25.598243	0.000277	20.847952
1522.421781	-2.992200	3.502300	-10.479000	25.643442	0.000277	20.834553
1523.429832	-2.992000	3.500100	-10.471000	25.594341	0.000276	20.845456
1524.427382	-2.971700	3.501900	-10.405000	25.646100	0.000274	20.868041
1525.428532	-3.025000	3.499100	-10.583000	25.638596	0.000274	20.864298
1526.423488	-2.979500	3.501100	-10.431000	25.633925	0.000273	20.851073
1527.431754	-2.993800	3.499900	-10.477000	25.619090	0.000273	20.841864
1528.432378	-3.006400	3.499400	-10.520000	25.597571	0.000274	20.888052
1529.423719	-2.985000	3.499100	-10.444000	25.593617	0.000273	20.866540
1530.432441	-3.011600	3.498500	-10.535000	25.609274	0.000273	20.869461
1531.427372	-3.003100	3.497300	-10.502000	25.591234	0.000271	20.847551
1532.430442	-3.010700	3.497000	-10.528000	25.606042	0.000273	20.859104
1533.462978	-2.996800	3.497400	-10.480000	25.580473	0.000276	20.849546
1534.437780	-3.001600	3.497200	-10.496000	25.610763	0.000272	20.849147
1535.434309	-2.978400	3.497400	-10.416000	25.632678	0.000273	20.842708
1536.428450	-3.011600	3.496700	-10.530000	25.658543	0.000274	20.855409
1537.434416	-2.990000	3.496700	-10.454000	25.625047	0.000271	20.863018
1538.432791	-2.990000	3.497000	-10.454000	25.599975	0.000270	20.844951
1539.428274	-3.013300	3.495200	-10.531000	25.620848	0.000270	20.858327
1540.438237	-2.988100	3.494500	-10.440000	25.657697	0.000270	20.871628
1541.432553	-2.995700	3.496000	-10.472000	25.657622	0.000271	20.854958
1542.432615	-3.003000	3.494000	-10.492000	25.627953	0.000269	20.856454
1543.436141	-3.006700	3.493300	-10.503000	25.630935	0.000270	20.855182
1544.430221	-3.003700	3.493200	-10.492000	25.640552	0.000269	20.862469
1545.436976	-2.995600	3.493300	-10.463000	25.689374	0.000269	20.883055
1546.433930	-2.999900	3.493000	-10.477000	25.730617	0.000270	20.870427
1547.433918	-3.006700	3.493800	-10.503000	25.756208	0.000268	20.872898
1548.431279	-3.005200	3.492600	-10.496000	25.737076	0.000267	20.867432
1549.431015	-2.992700	3.490700	-10.446000	25.685623	0.000267	20.860322
1550.430498	-2.998300	3.491900	-10.469000	25.660203	0.000266	20.870826
1551.430211	-3.001500	3.492100	-10.481000	25.624101	0.000267	20.883878
1552.430233	-2.993500	3.491500	-10.452000	25.618336	0.000266	20.876666
1553.435081	-3.003900	3.490800	-10.485000	25.605861	0.000266	20.862241
1554.433681	-3.005300	3.489900	-10.487000	25.597661	0.000267	20.862540
1555.432253	-3.008800	3.490500	-10.501000	25.620124	0.000267	20.864238
1556.435706	-3.010100	3.489300	-10.502000	25.609786	0.000265	20.865709
1557.435887	-3.005600	3.488800	-10.485000	25.631033	0.000265	20.859547
1558.436266	-3.010100	3.487500	-10.496000	25.595425	0.000265	20.882579
1559.436386	-2.983800	3.488900	-10.410000	25.584988	0.000266	20.865934
1560.439787	-2.994800	3.488500	-10.446000	25.598778	0.000265	20.880256
1561.437861	-2.993100	3.487100	-10.437000	25.617217	0.000264	20.878387
1562.440690	-2.984900	3.489100	-10.414000	25.600146	0.000266	20.873096
1563.433309	-2.999600	3.486700	-10.457000	25.551442	0.000263	20.901468
1564.437741	-2.973000	3.487700	-10.367000	25.569136	0.000262	20.879884
1565.433743	-2.986200	3.487000	-10.411000	25.542546	0.000262	20.873096
1566.432594	-3.005200	3.484900	-10.472000	25.609638	0.000264	20.878362
1567.461866	-2.995600	3.486700	-10.443000	25.620694	0.000263	20.889465
1568.435815	-3.014900	3.485000	-10.506000	25.643902	0.000264	20.905186
1569.446135	-3.012200	3.486300	-10.501000	25.652872	0.000265	20.881954
1570.453493	-2.994200	3.484800	-10.433000	25.622088	0.000262	20.891338
1571.436858	-3.005500	3.484100	-10.471000	25.650884	0.000261	20.883276
1572.438731	-3.001600	3.485100	-10.460000	25.666885	0.000261	20.889390
1573.438025	-2.997600	3.483700	-10.442000	25.644175	0.000260	20.893606
1574.442498	-3.015200	3.484000	-10.504000	25.643083	0.000261	20.880657
1575.438074	-2.979700	3.483100	-10.377000	25.614085	0.000262	20.900369
1576.436227	-2.988500	3.482500	-10.407000	25.609811	0.000261	20.887543
1577.440444	-2.976100	3.483900	-10.367000	25.629043	0.000261	20.870824
1578.438939	-2.962100	3.483300	-10.316000	25.622855	0.000261	20.894480
1579.439039	-3.005900	3.482800	-10.468000	25.656424	0.000262	20.901167
1580.444994	-2.974200	3.482200	-10.355000	25.680551	0.000259	20.889839
1581.439073	-2.995800	3.481300	-10.428000	25.671132	0.000259	20.881328
1582.439321	-2.973000	3.483400	-10.354000	25.662262	0.000259	20.900867
1583.455145	-2.991900	3.480300	-10.411000	25.647974	0.000257	20.891259
1584.441386	-2.994600	3.480200	-10.420000	25.591594	0.000257	20.897696
1585.442377	-3.002700	3.481000	-10.452000	25.602702	0.000258	20.911696
1586.448899	-2.988600	3.479400	-10.398000	25.654734	0.000257	20.883349
1587.442985	-2.988700	3.478400	-10.395000	25.646259	0.000256	20.887639
1588.447724	-3.010300	3.479500	-10.473000	25.604863	0.000259	20.893005
1589.445820	-2.992200	3.479600	-10.411000	25.594699	0.000257	20.912193
1590.438279	-3.005700	3.477900	-10.453000	25.616340	0.000257	20.896944
1591.452993	-3.014600	3.476300	-10.479000	25.584163	0.000257	20.894027
1592.441310	-3.004200	3.477200	-10.446000	25.623224	0.000257	20.892479
1593.441694	-3.019700	3.477600	-10.501000	25.656816	0.000254	20.902983
1594.444577	-2.983000	3.478600	-10.376000	25.668666	0.000256	20.912987
1595.439377	-3.001800	3.476700	-10.436000	25.689040	0.000255	20.916855
1596.445618	-3.014300	3.475000	-10.474000	25.712172	0.000254	20.915433
1597.447762	-3.014900	3.474800	-10.474000	25.714135	0.000253	20.898440
1598.442556	-2.979400	3.476300	-10.356000	25.696864	0.000255	20.888206
1599.443649	-3.004100	3.474900	-10.438000	25.623540	0.000253	20.911761
1600.447353	-3.032000	3.475300	-10.536000	25.571383	0.000252	20.888778
1601.449399	-3.012400	3.474000	-10.464000	25.571206	0.000251	20.890497
1602.443934	-3.003900	3.475000	-10.437000	25.530057	0.000253	20.909389
1603.452215	-3.001100	3.475000	-10.428000	25.556940	0.000251	20.894662
1604.445829	-2.993600	3.474900	-10.402000	25.567153	0.000252	20.906340
1605.450481	-2.991500	3.474000	-10.391000	25.577587	0.000252	20.907336
1606.457429	-2.987100	3.474300	-10.377000	25.621894	0.000251	20.925279
1607.447293	-2.981100	3.472200	-10.350000	25.611901	0.000252	20.911451
1608.455381	-2.988600	3.474400	-10.383000	25.588170	0.000252	20.892361
1609.462268	-2.992700	3.472700	-10.392000	25.625367	0.000251	20.902691
1610.451666	-2.996200	3.471800	-10.402000	25.635976	0.000252	20.890114
1611.450064	-2.989200	3.472300	-10.378000	25.637168	0.000252	20.916439
1612.462168	-2.990700	3.471600	-10.381000	25.621686	0.000250	20.934553
1613.463363	-3.013900	3.470300	-10.458000	25.664000	0.000249	20.909724
1614.452742	-2.987600	3.470700	-10.368000	25.689566	0.000251	20.908849
1615.453088	-2.978000	3.471200	-10.336000	25.698808	0.000248	20.908175
1616.452618	-2.985100	3.471800	-10.363000	25.707106	0.000248	20.914138
1617.455357	-3.012800	3.470400	-10.454000	25.723801	0.000248	20.924267
1618.456017	-3.024700	3.468600	-10.490000	25.707029	0.000248	20.924491
1619.464401	-2.990000	3.469400	-10.373000	25.768220	0.000249	20.922417
1620.453175	-2.983800	3.468500	-10.348000	25.692093	0.000249	20.924188
1621.458501	-3.004800	3.468200	-10.420000	25.684813	0.000244	20.932522
1622.468308	-2.998800	3.468200	-10.400000	25.674350	0.000248	20.916799
1623.454741	-3.009500	3.466900	-10.433000	25.692811	0.000245	20.928228
1624.455441	-2.983300	3.468000	-10.345000	25.699343	0.000245	20.909661
1625.452034	-2.976300	3.468400	-10.321000	25.668785	0.000245	20.920692
1626.453326	-2.967100	3.467600	-10.288000	25.690622	0.000247	20.930770
1627.464298	-2.974500	3.468000	-10.314000	25.722647	0.000246	20.932591
1628.455890	-3.001300	3.466100	-10.402000	25.734198	0.000246	20.928072
1629.460698	-3.021500	3.465200	-10.469000	25.751637	0.000243	20.923778
1630.455494	-2.988200	3.466500	-10.358000	25.730642	0.000244	20.937301
1631.454134	-3.009600	3.464400	-10.426000	25.686964	0.000244	20.922830
1632.458310	-3.005800	3.465400	-10.415000	25.719013	0.000245	20.934630
1633.456076	-3.002900	3.465200	-10.405000	25.756304	0.000242	20.938895
1634.456925	-3.001700	3.464500	-10.399000	25.727157	0.000245	20.930957
1635.460271	-3.013200	3.464100	-10.437000	25.747903	0.000245	20.921924
1636.459976	-2.990100	3.464000	-10.356000	25.691376	0.000240	20.931528
1637.464387	-2.985500	3.464600	-10.343000	25.716893	0.000243	20.947672
1638.458652	-2.977300	3.463900	-10.313000	25.702553	0.000242	20.941804
1639.463582	-2.990200	3.462400	-10.352000	25.699795	0.000243	20.918648
1640.455908	-2.986400	3.463100	-10.341000	25.694104	0.000242	20.955127
1641.459241	-3.006900	3.462200	-10.409000	25.711196	0.000242	20.935787
1642.460777	-3.024500	3.460200	-10.464000	25.700189	0.000242	20.934215
1643.454802	-3.003400	3.460500	-10.392000	25.684459	0.000241	20.946389
1644.463948	-2.986000	3.460300	-10.332000	25.723541	0.000241	20.934911
1645.466240	-2.981600	3.461600	-10.320000	25.717997	0.000239	20.927447
1646.461140	-2.994300	3.460900	-10.362000	25.737078	0.000242	20.932386
1647.458842	-2.989300	3.459800	-10.341000	25.767561	0.000241	20.917015
1648.464848	-3.029300	3.459900	-10.480000	25.777100	0.000240	20.934655
1649.461000	-3.007300	3.458500	-10.400000	25.753945	0.000241	20.933208
1650.457351	-3.008100	3.458300	-10.402000	25.754538	0.000238	20.946604
1651.464900	-2.987500	3.458400	-10.331000	25.758464	0.000239	20.952917
1652.459334	-3.034100	3.457500	-10.489000	25.723482	0.000241	20.938170
1653.458872	-3.007800	3.457700	-10.399000	25.702636	0.000238	20.941414
1654.476882	-3.003800	3.458200	-10.387000	25.696622	0.000240	20.923522
1655.464591	-2.975800	3.458200	-10.290000	25.710362	0.000239	20.927365
1656.462527	-2.957600	3.459000	-10.228000	25.749493	0.000236	20.946278
1657.463538	-3.007300	3.456000	-10.392000	25.768548	0.000237	20.943607
1658.465245	-2.996100	3.456800	-10.355000	25.809293	0.000237	20.928586
1659.468959	-3.007800	3.456500	-10.396000	25.788919	0.000238	20.923294
1660.466894	-3.035400	3.454400	-10.484000	25.783801	0.000236	20.911517
1661.469790	-2.966400	3.455600	-10.250000	25.728646	0.000237	20.931504
1662.467164	-3.014000	3.454900	-10.412000	25.703353	0.000237	20.929333
1663.473381	-3.011600	3.455500	-10.406000	25.672568	0.000235	20.929706
1664.473470	-2.985600	3.455100	-10.315000	25.649733	0.000235	20.935694
1665.470029	-2.988400	3.453700	-10.319000	25.655149	0.000234	20.943978
1666.474842	-3.000500	3.452700	-10.358000	25.654279	0.000235	20.936467
1667.471317	-2.997800	3.455100	-10.357000	25.672441	0.000235	20.935269
1668.480546	-2.991000	3.454700	-10.332000	25.689014	0.000235	20.936741
1669.481000	-2.990400	3.453000	-10.325000	25.712890	0.000234	20.942704
1670.472708	-3.009000	3.451700	-10.385000	25.669607	0.000234	20.931474
1671.477776	-3.009400	3.452500	-10.390000	25.711349	0.000234	20.938786
1672.467018	-2.996700	3.452500	-10.345000	25.665756	0.000234	20.929503
1673.468733	-3.017100	3.451400	-10.412000	25.677855	0.000235	20.921268
1674.469204	-3.001300	3.450800	-10.356000	25.660463	0.000234	20.927506
1675.482697	-3.018000	3.450800	-10.414000	25.609948	0.000235	20.917550
1676.479444	-3.002900	3.452900	-10.368000	25.643690	0.000233	20.924885
1677.470506	-3.014800	3.449700	-10.400000	25.644187	0.000232	20.923962
1678.474636	-3.000700	3.450600	-10.354000	25.689730	0.000233	20.918970
1679.473283	-3.005900	3.451500	-10.373000	25.735148	0.000233	20.904847
1680.475897	-2.997600	3.450000	-10.340000	25.760365	0.000234	20.928277
1681.468924	-3.006000	3.449800	-10.369000	25.784389	0.000232	20.925382
1682.467811	-2.990200	3.449600	-10.314000	25.797706	0.000232	20.914578
1683.468698	-3.004900	3.448500	-10.362000	25.786227	0.000231	20.915850
1684.470101	-2.976000	3.450000	-10.267000	25.757308	0.000231	20.913829
1685.477178	-2.991600	3.449900	-10.320000	25.730154	0.000231	20.912158
1686.471886	-3.000500	3.447000	-10.342000	25.731543	0.000230	20.907390
1687.468562	-2.997200	3.448800	-10.336000	25.747146	0.000231	20.912630
1688.480048	-2.995200	3.448300	-10.326000	25.706745	0.000230	20.912353
1689.477580	-3.019500	3.446000	-10.404000	25.732785	0.000231	20.909585
1690.480277	-3.024700	3.446800	-10.424000	25.743865	0.000230	20.919291
1691.473044	-2.984300	3.446800	-10.286000	25.706994	0.000229	20.932041
1692.489669	-2.984600	3.446000	-10.284000	25.714299	0.000229	20.900028
1693.481817	-3.023600	3.445700	-10.418000	25.742547	0.000229	20.917019
1694.474346	-3.017300	3.445100	-10.394000	25.740411	0.000230	20.912029
1695.479041	-3.003000	3.444700	-10.343000	25.771044	0.000228	20.900600
1696.475254	-3.010500	3.445100	-10.370000	25.800732	0.000231	20.908136
1697.492561	-3.017000	3.443700	-10.389000	25.819986	0.000227	20.904717
1698.476880	-3.001200	3.443000	-10.332000	25.757802	0.000227	20.917643
1699.476882	-3.016800	3.442600	-10.385000	25.734571	0.000228	20.881036
1700.477983	-2.997000	3.443300	-10.319000	25.713551	0.000229	20.895483
1701.480511	-2.973700	3.443500	-10.239000	25.694371	0.000227	20.905615
1702.491812	-3.011000	3.442500	-10.364000	25.730895	0.000227	20.901049
1703.480502	-2.995500	3.442600	-10.311000	25.753726	0.000226	20.912601
1704.476709	-3.015600	3.442500	-10.380000	25.761129	0.000226	20.900124
1705.487150	-3.001600	3.441200	-10.328000	25.726025	0.000226	20.883357
1706.476622	-2.980200	3.442600	-10.259000	25.689401	0.000225	20.907261
1707.482434	-3.004000	3.441400	-10.337000	25.694521	0.000224	20.910032
1708.490717	-2.964700	3.440200	-10.199000	25.725355	0.000225	20.875098
1709.477809	-2.982200	3.441600	-10.263000	25.764708	0.000225	20.885702
1710.490408	-3.016200	3.439600	-10.373000	25.788410	0.000223	20.886751
1711.481575	-2.989600	3.441300	-10.287000	25.792410	0.000222	20.901200
1712.488916	-2.972600	3.441400	-10.229000	25.780385	0.000222	20.882010
1713.480990	-3.009400	3.439800	-10.351000	25.773057	0.000223	20.884355
1714.488172	-2.987900	3.439400	-10.276000	25.787268	0.000221	20.907887
1715.481686	-3.015100	3.437600	-10.364000	25.789826	0.000222	20.904293
1716.481288	-3.031900	3.437500	-10.421000	25.771913	0.000223	20.904792
1717.495303	-2.991400	3.439600	-10.288000	25.771566	0.000221	20.863195
1718.481337	-2.977400	3.438800	-10.238000	25.741282	0.000225	20.878293
1719.481530	-2.969100	3.439200	-10.211000	25.705628	0.000218	20.890370
1720.493565	-3.006000	3.437500	-10.332000	25.681924	0.000221	20.888373
1721.489533	-2.975800	3.438100	-10.230000	25.724683	0.000219	20.874424
1722.486445	-3.015900	3.437200	-10.365000	25.742076	0.000220	20.876247
1723.495201	-2.995500	3.436900	-10.293000	25.801081	0.000221	20.892841
1724.494046	-3.013700	3.434200	-10.349000	25.831686	0.000222	20.897505
1725.486815	-2.992800	3.437100	-10.286000	25.800805	0.000220	20.879288
1726.495121	-3.005100	3.435900	-10.323000	25.752809	0.000221	20.886078
1727.486271	-3.000700	3.435600	-10.308000	25.760386	0.000219	20.902223
1728.499504	-2.998300	3.434400	-10.296000	25.743220	0.000218	20.881188
1729.487872	-3.004100	3.434700	-10.317000	25.750051	0.000219	20.888998
1730.486289	-3.012700	3.433900	-10.344000	25.761603	0.000218	20.878791
1731.501364	-3.014600	3.433800	-10.351000	25.779395	0.000218	20.872955
1732.488277	-3.009800	3.433400	-10.333000	25.865847	0.000217	20.886778
1733.495307	-2.978200	3.433800	-10.225000	25.865003	0.000217	20.875499
1734.496039	-3.022700	3.433200	-10.377000	25.851787	0.000218	20.873602
1735.500489	-3.028500	3.431300	-10.390000	25.861624	0.000219	20.887751
1736.487529	-2.983300	3.432300	-10.238000	25.838569	0.000216	20.886402
1737.492469	-2.995900	3.432900	-10.284000	25.859189	0.000218	20.890520
1738.498902	-3.005100	3.430500	-10.308000	25.862641	0.000216	20.870282
1739.492082	-3.006100	3.431200	-10.313000	25.833204	0.000214	20.875798
1740.508773	-3.003900	3.431200	-10.306000	25.756758	0.000214	20.881985
1741.495573	-3.008300	3.431500	-10.322000	25.771790	0.000215	20.863420
1742.497660	-3.016600	3.430300	-10.346000	25.790075	0.000216	20.879415
1743.494963	-2.992800	3.430700	-10.266000	25.800682	0.000216	20.866364
1744.506122	-2.992700	3.429700	-10.263000	25.792485	0.000212	20.886577
1745.502611	-3.026600	3.430700	-10.382000	25.791741	0.000214	20.853589
1746.505624	-3.005900	3.428900	-10.306000	25.730920	0.000215	20.875946
1747.479493	-3.005800	3.430300	-10.310000	25.716932	0.000215	20.861898
1748.497943	-2.983900	3.429500	-10.231000	25.716362	0.000215	20.871282
1749.499622	-3.001700	3.427100	-10.286000	25.746946	0.000213	20.870233
1750.507071	-2.997600	3.429100	-10.278000	25.747518	0.000213	20.876971
1751.501328	-3.006300	3.427300	-10.303000	25.784238	0.000210	20.855061
1752.503341	-2.992200	3.428500	-10.258000	25.827217	0.000212	20.874526
1753.506277	-3.014500	3.427900	-10.332000	25.855041	0.000213	20.860751
1754.504677	-2.998800	3.426200	-10.273000	25.862023	0.000210	20.878195
1755.481940	-2.991500	3.427100	-10.250000	25.881224	0.000211	20.873302
1756.496860	-3.021700	3.424600	-10.347000	25.850991	0.000211	20.866639
1757.497908	-2.991700	3.426400	-10.249000	25.827937	0.000210	20.856283
1758.503633	-3.018300	3.426100	-10.340000	25.831540	0.000209	20.877920
1759.488372	-3.032200	3.424200	-10.382000	25.802421	0.000209	20.866687
1760.483389	-3.010300	3.424800	-10.309000	25.793702	0.000209	20.859352
1761.487074	-3.020800	3.423300	-10.340000	25.770198	0.000208	20.860873
1762.488280	-2.991500	3.424300	-10.243000	25.758944	0.000209	20.854310
1763.484757	-2.991700	3.424900	-10.245000	25.756831	0.000207	20.856455
1764.488623	-3.003900	3.423800	-10.283000	25.743414	0.000205	20.843927
1765.490313	-3.001000	3.421400	-10.266000	25.716729	0.000206	20.863116
1766.489326	-2.990800	3.423100	-10.237000	25.720232	0.000206	20.850039
1767.508341	-2.998400	3.423400	-10.264000	25.725943	0.000205	20.847715
1768.490063	-3.001800	3.423000	-10.274000	25.736305	0.000205	20.859545
1769.492222	-2.986700	3.421900	-10.219000	25.750887	0.000206	20.847166
1770.490132	-3.009200	3.421700	-10.295000	25.740055	0.000205	20.862837
1771.508375	-3.024300	3.421100	-10.345000	25.792079	0.000206	20.855826
1772.512892	-3.005900	3.421600	-10.284000	25.818661	0.000206	20.837483
1773.508922	-2.993200	3.421700	-10.241000	25.808948	0.000205	20.850011
1774.510297	-3.021300	3.419400	-10.330000	25.851055	0.000203	20.856273
1775.495711	-3.016900	3.419000	-10.314000	25.861637	0.000201	20.839877
1776.511234	-3.006700	3.418500	-10.277000	25.890528	0.000205	20.851356
1777.508434	-3.011900	3.418500	-10.294000	25.922075	0.000205	20.840849
1778.510897	-2.986800	3.419600	-10.212000	25.912461	0.000203	20.880500
1779.508264	-2.985900	3.420100	-10.211000	25.841412	0.000203	20.853225
1780.513989	-3.012700	3.418200	-10.296000	25.810804	0.000202	20.840970
1781.515697	-2.994000	3.418800	-10.236000	25.811424	0.000201	20.849653
1782.493672	-3.009900	3.417300	-10.284000	25.822133	0.000204	20.854246
1783.494001	-3.014500	3.417500	-10.301000	25.788469	0.000203	20.856941
1784.500033	-3.026200	3.416300	-10.337000	25.832615	0.000201	20.838698
1785.495637	-3.002800	3.416800	-10.259000	25.801784	0.000201	20.838074
1786.514865	-3.001900	3.415500	-10.252000	25.798083	0.000201	20.841468
1787.519554	-2.984500	3.416000	-10.194000	25.833185	0.000200	20.850176
1788.522723	-3.015200	3.414900	-10.296000	25.856884	0.000198	20.831309
1789.520348	-2.977500	3.416200	-10.171000	25.808713	0.000199	20.853568
1790.528740	-3.002800	3.415500	-10.255000	25.810874	0.000199	20.833454
1791.515237	-3.014400	3.415000	-10.292000	25.791148	0.000200	20.851098
1792.519099	-3.010500	3.415200	-10.280000	25.777037	0.000199	20.856363
1793.517063	-2.996100	3.414700	-10.230000	25.777782	0.000198	20.849525
1794.514873	-2.979600	3.413900	-10.171000	25.855566	0.000199	20.829037
1795.498241	-3.014100	3.414000	-10.289000	25.911832	0.000199	20.840042
1796.502327	-2.999000	3.413100	-10.235000	25.921769	0.000201	20.842438
1797.500853	-2.981500	3.413800	-10.177000	25.906217	0.000197	20.830134
1798.496627	-2.998300	3.412900	-10.232000	25.880929	0.000198	20.832705
1799.498289	-2.991200	3.412400	-10.207000	25.896654	0.000200	20.829062
1800.512428	-2.968600	3.411800	-10.127000	25.840634	0.000198	20.848650
1801.524881	-2.986100	3.411900	-10.186000	25.871464	0.000199	20.821774
1802.525881	-3.004600	3.412100	-10.251000	25.870246	0.000196	20.826240
1803.518451	-3.007700	3.411500	-10.260000	25.820238	0.000196	20.824369
1804.522211	-2.999200	3.411200	-10.230000	25.837952	0.000199	20.840266
1805.518608	-2.977200	3.411400	-10.155000	25.849750	0.000196	20.843109
1806.528487	-3.020100	3.410800	-10.300000	25.838919	0.000196	20.824169
1807.524293	-2.982100	3.411800	-10.174000	25.822299	0.000196	20.812689
1808.518437	-3.009300	3.410200	-10.262000	25.868880	0.000195	20.854739
1809.518540	-3.003600	3.409000	-10.238000	25.875438	0.000195	20.846154
1810.525912	-3.012100	3.410200	-10.270000	25.847390	0.000194	20.830781
1811.503902	-2.990900	3.409300	-10.195000	25.851166	0.000196	20.825566
1812.505885	-2.976100	3.410100	-10.147000	25.859018	0.000195	20.820651
1813.501343	-2.982700	3.409200	-10.167000	25.887485	0.000195	20.817955
1814.498867	-3.035000	3.406400	-10.337000	25.904577	0.000195	20.847451
1815.502300	-3.011400	3.407600	-10.260000	25.900799	0.000193	20.816631
1816.502234	-3.000700	3.407500	-10.224000	25.937390	0.000194	20.804079
1817.531338	-3.027900	3.407400	-10.316000	25.959648	0.000195	20.835448
1818.523910	-3.007500	3.406100	-10.244000	25.906190	0.000193	20.824891
1819.524141	-3.002200	3.407000	-10.227000	25.855040	0.000193	20.808121
1820.519111	-2.998900	3.406300	-10.214000	25.910413	0.000191	20.808271
1821.535078	-3.015100	3.404700	-10.265000	25.910289	0.000194	20.813362
1822.508613	-2.999600	3.406500	-10.217000	25.885471	0.000193	20.828733
1823.552332	-2.999800	3.404800	-10.213000	25.887981	0.000192	20.806598
1824.526679	-3.010400	3.406600	-10.255000	25.845351	0.000190	20.823517
1825.522082	-3.007500	3.405100	-10.240000	25.820881	0.000191	20.806523
1826.527227	-2.990900	3.404900	-10.181000	25.827415	0.000192	20.814983
1827.536983	-2.991600	3.404400	-10.184000	25.863362	0.000191	20.805101
1828.509047	-2.989500	3.403300	-10.174000	25.882390	0.000190	20.797189
1829.508666	-2.980600	3.403000	-10.142000	25.846293	0.000189	20.811662
1830.506323	-2.977300	3.404300	-10.135000	25.862194	0.000190	20.807720
1831.508461	-2.997800	3.403300	-10.202000	25.885099	0.000191	20.807497
1832.508608	-3.001100	3.402200	-10.210000	25.884452	0.000187	20.793097
1833.510443	-3.006700	3.401300	-10.225000	25.868851	0.000186	20.818202
1834.506516	-3.003100	3.401900	-10.216000	25.928347	0.000188	20.796416
1835.507417	-2.998900	3.402000	-10.201000	25.938110	0.000188	20.808121
1836.506260	-2.976800	3.401900	-10.126000	25.930831	0.000187	20.785636
1837.506143	-2.980000	3.402400	-10.138000	25.894437	0.000187	20.804076
1838.521358	-2.979200	3.402100	-10.135000	25.894464	0.000188	20.804577
1839.530216	-3.008400	3.401200	-10.232000	25.905791	0.000186	20.798413
1840.522034	-3.014400	3.399500	-10.246000	25.923005	0.000187	20.807171
1841.510126	-2.966500	3.400200	-10.086000	25.892998	0.000188	20.807846
1842.509841	-2.979200	3.400500	-10.129000	25.871858	0.000184	20.805575
1843.508677	-2.992100	3.400000	-10.173000	25.865424	0.000185	20.808595
1844.511326	-3.003100	3.399700	-10.209000	25.847513	0.000187	20.813362
1845.509186	-3.006200	3.398600	-10.216000	25.848082	0.000185	20.802553
1846.510814	-2.994900	3.398600	-10.178000	25.839587	0.000185	20.796865
1847.533906	-2.985700	3.398300	-10.146000	25.826446	0.000184	20.801208
1848.513503	-3.007100	3.398100	-10.218000	25.871635	0.000184	20.822895
1849.539030	-3.005900	3.398200	-10.215000	25.912524	0.000184	20.806598
1850.528237	-3.010500	3.396500	-10.224000	25.924474	0.000184	20.802957
1851.530269	-3.003800	3.396100	-10.200000	25.957957	0.000182	20.793922
1852.510233	-2.994100	3.396200	-10.168000	25.926760	0.000183	20.800985
1853.509604	-2.990800	3.395900	-10.155000	25.905471	0.000182	20.809470
1854.513773	-2.978900	3.396600	-10.117000	25.867811	0.000183	20.789656
1855.509852	-2.994200	3.395500	-10.165000	25.892207	0.000180	20.807999
1856.509101	-2.992100	3.395400	-10.157000	25.902044	0.000181	20.810769
1857.509548	-2.986800	3.395000	-10.140000	25.874248	0.000181	20.811295
1858.509806	-2.988100	3.394200	-10.141000	25.843269	0.000182	20.808624
1859.509369	-2.994800	3.394400	-10.165000	25.875464	0.000180	20.798767
1860.510042	-3.011100	3.393800	-10.217000	25.895488	0.000181	20.801338
1861.511169	-2.986100	3.393600	-10.133000	25.872981	0.000183	20.794850
1862.509689	-3.020700	3.392800	-10.247000	25.927732	0.000182	20.789634
1863.511763	-3.016800	3.392300	-10.233000	25.915138	0.000182	20.810647
1864.512286	-3.004300	3.393000	-10.193000	25.928403	0.000179	20.797895
1865.513330	-3.000000	3.392100	-10.176000	25.959553	0.000179	20.792205
1866.516014	-3.000700	3.391100	-10.175000	26.023142	0.000181	20.808677
1867.517281	-2.988100	3.392900	-10.137000	26.010498	0.000176	20.796922
1868.513159	-3.001700	3.391900	-10.181000	26.042789	0.000179	20.793329
1869.530297	-2.990000	3.392900	-10.144000	25.960223	0.000178	20.794775
1870.532660	-3.000800	3.390600	-10.173000	25.960547	0.000179	20.791781
1871.530182	-3.006600	3.391300	-10.196000	25.982554	0.000178	20.801089
1872.547834	-2.984700	3.389700	-10.116000	26.006673	0.000177	20.805881
1873.542931	-2.999400	3.389000	-10.164000	25.973412	0.000177	20.778154
1874.532548	-2.985000	3.390300	-10.120000	26.009378	0.000178	20.809547
1875.538170	-3.002300	3.390100	-10.177000	26.009403	0.000177	20.792028
1876.534966	-3.020900	3.388300	-10.235000	25.975548	0.000176	20.810645
1877.533824	-3.003900	3.388700	-10.177000	25.923657	0.000175	20.800713
1878.543935	-3.001000	3.389300	-10.171000	25.933716	0.000175	20.801810
1879.545810	-3.001600	3.388300	-10.169000	25.987719	0.000178	20.782096
1880.543849	-3.012200	3.387200	-10.202000	25.977658	0.000178	20.790955
1881.516135	-3.008500	3.386800	-10.188000	25.997753	0.000174	20.796444
1882.515952	-3.024900	3.386000	-10.241000	26.034836	0.000175	20.780123
1883.528327	-3.003300	3.387900	-10.173000	26.037219	0.000176	20.807173
1884.548057	-2.981700	3.387300	-10.099000	26.010171	0.000172	20.784739
1885.539904	-3.014300	3.385200	-10.204000	25.976638	0.000173	20.782343
1886.536289	-3.010500	3.384300	-10.187000	25.960143	0.000172	20.786634
1887.520726	-2.990200	3.386500	-10.125000	25.985878	0.000173	20.799687
1888.518174	-3.005800	3.384700	-10.173000	25.960839	0.000174	20.783540
1889.518653	-3.006600	3.383800	-10.173000	25.935378	0.000173	20.778349
1890.519854	-2.999700	3.384700	-10.152000	25.923429	0.000173	20.800010
1891.516915	-3.000100	3.383200	-10.149000	25.937015	0.000172	20.801331
1892.519141	-3.004900	3.383500	-10.166000	25.973381	0.000171	20.787606
1893.520852	-3.003500	3.383000	-10.160000	25.979616	0.000172	20.796241
1894.517474	-3.022000	3.382800	-10.222000	25.975618	0.000170	20.793172
1895.520485	-2.972400	3.384200	-10.058000	25.985801	0.000170	20.758358
1896.522809	-2.970100	3.384000	-10.050000	25.975840	0.000169	20.802879
1897.518784	-2.988600	3.383900	-10.112000	25.981281	0.000170	20.775628
1898.522965	-3.005600	3.382500	-10.165000	25.969977	0.000171	20.785135
1899.529222	-3.020200	3.381600	-10.212000	25.947200	0.000172	20.813934
1900.519917	-2.986700	3.382100	-10.100000	25.980884	0.000169	20.787083
1901.523166	-3.003900	3.381400	-10.156000	25.997947	0.000172	20.795691
1902.522611	-2.995000	3.380300	-10.123000	26.026812	0.000168	20.794820
1903.519805	-3.019400	3.380100	-10.205000	25.994273	0.000169	20.792474
1904.520618	-3.007000	3.380200	-10.164000	25.962130	0.000169	20.797166
1905.524523	-2.987600	3.380300	-10.098000	25.919158	0.000167	20.807099
1906.519097	-2.976000	3.380700	-10.059000	25.918337	0.000165	20.788257
1907.537826	-3.017500	3.379400	-10.196000	25.940123	0.000163	20.795444
1908.531561	-3.023400	3.379900	-10.217000	25.973358	0.000167	20.789953
1909.520071	-3.013300	3.379500	-10.183000	26.010244	0.000166	20.805201
1910.523109	-3.010600	3.377300	-10.166000	25.980711	0.000163	20.799237
1911.521397	-3.002400	3.378200	-10.141000	25.976713	0.000166	20.799014
1912.526792	-2.993500	3.378800	-10.113000	25.945412	0.000166	20.796017
1913.521843	-3.005300	3.377100	-10.148000	25.957459	0.000166	20.809068
1914.522847	-2.998200	3.377700	-10.126000	25.996654	0.000164	20.800556
1915.524153	-3.007700	3.375800	-10.153000	26.040768	0.000166	20.786557
1916.525464	-3.003100	3.376700	-10.139000	26.060041	0.000164	20.779842
1917.545946	-3.009600	3.377000	-10.163000	26.052242	0.000165	20.800456
1918.537722	-2.980200	3.375900	-10.060000	26.063194	0.000165	20.795339
1919.544004	-3.025900	3.374900	-10.211000	26.074397	0.000165	20.802328
1920.547617	-3.005600	3.376100	-10.146000	26.083511	0.000165	20.805321
1921.547327	-2.994100	3.375400	-10.105000	26.068906	0.000164	20.789223
1922.538488	-3.002300	3.373300	-10.127000	26.074891	0.000163	20.797134
1923.543372	-2.994100	3.374000	-10.100000	26.125856	0.000163	20.800927
1924.557770	-2.979700	3.375100	-10.055000	26.091506	0.000163	20.801500
1925.540481	-3.018900	3.374300	-10.185000	26.041558	0.000163	20.792092
1926.521019	-3.004800	3.373600	-10.137000	26.069647	0.000160	20.814150
1927.525315	-3.024800	3.372400	-10.200000	26.095701	0.000162	20.799077
1928.525669	-3.015000	3.372700	-10.168000	26.097092	0.000162	20.796681
1929.522419	-3.010500	3.371500	-10.149000	26.068206	0.000163	20.800375
1930.522872	-2.987200	3.372800	-10.074000	26.040164	0.000161	20.801597
1931.524141	-3.009000	3.371800	-10.145000	26.080251	0.000162	20.805365
1932.524430	-3.009600	3.371700	-10.146000	26.081096	0.000163	20.782031
1933.545075	-3.008800	3.370100	-10.139000	26.112739	0.000162	20.793912
1934.543129	-3.008300	3.370700	-10.139000	26.140978	0.000161	20.811380
1935.543447	-3.004700	3.370100	-10.125000	26.155109	0.000161	20.802346
1936.545105	-2.993500	3.371000	-10.091000	26.177136	0.000162	20.798875
1937.533142	-2.996500	3.369100	-10.093000	26.153270	0.000160	20.808559
1938.530700	-3.001600	3.370000	-10.115000	26.159803	0.000161	20.808011
1939.528385	-3.012100	3.370200	-10.150000	26.126002	0.000158	20.800126
1940.547819	-2.986700	3.368800	-10.061000	26.130870	0.000159	20.803121
1941.548516	-2.969500	3.369400	-10.004000	26.074690	0.000158	20.804992
1942.549111	-2.982200	3.370000	-10.049000	26.038575	0.000159	20.804268
1943.542953	-2.995000	3.368900	-10.089000	26.054200	0.000160	20.816173
1944.560863	-3.001500	3.369400	-10.113000	26.108294	0.000156	20.799877
1945.530046	-2.998500	3.367800	-10.097000	26.135094	0.000160	20.795037
1946.532736	-3.013400	3.368400	-10.150000	26.143563	0.000156	20.825831
1947.532711	-2.985900	3.367600	-10.054000	26.170162	0.000156	20.819843
1948.544732	-3.009300	3.366100	-10.128000	26.185312	0.000156	20.798556
1949.532561	-3.001600	3.365200	-10.100000	26.183971	0.000154	20.808589
1950.538691	-3.008900	3.364800	-10.123000	26.221644	0.000155	20.805669
1951.531828	-2.999100	3.366700	-10.096000	26.180023	0.000155	20.810312
1952.532883	-3.000000	3.365500	-10.096000	26.139813	0.000154	20.817322
1953.534527	-3.019700	3.364000	-10.157000	26.170337	0.000154	20.836613
1954.536139	-3.017100	3.364700	-10.151000	26.160180	0.000152	20.833520
1955.532809	-3.019800	3.363200	-10.155000	26.172870	0.000153	20.814504
1956.532362	-2.994800	3.364600	-10.076000	26.198997	0.000152	20.819895
1957.534233	-3.013400	3.363700	-10.135000	26.187325	0.000155	20.825235
1958.533786	-2.994400	3.364300	-10.073000	26.211837	0.000155	20.818572
1959.535658	-2.981800	3.363500	-10.028000	26.180346	0.000152	20.830075
1960.535865	-3.014600	3.362100	-10.135000	26.166190	0.000153	20.803523
1961.535467	-2.994100	3.362000	-10.065000	26.200014	0.000153	20.815227
1962.553732	-2.996500	3.362200	-10.074000	26.226240	0.000151	20.828778
1963.550444	-3.011100	3.360600	-10.118000	26.186206	0.000153	20.811308
1964.557331	-2.996000	3.362600	-10.073000	26.133530	0.000153	20.809587
1965.558108	-3.015800	3.360800	-10.134000	26.111152	0.000151	20.826930
1966.559330	-2.991300	3.360900	-10.053000	26.122104	0.000151	20.811382
1967.558822	-3.000900	3.360300	-10.083000	26.128238	0.000151	20.806166
1968.564998	-2.990200	3.361800	-10.052000	26.167529	0.000151	20.818619
1969.559135	-3.007700	3.360400	-10.107000	26.118129	0.000148	20.833466
1970.558321	-3.023400	3.359300	-10.156000	26.084675	0.000150	20.829723
1971.555781	-3.005200	3.360400	-10.097000	26.063091	0.000149	20.828426
1972.561255	-2.987100	3.359500	-10.034000	26.070492	0.000148	20.825905
1973.557342	-3.013500	3.359400	-10.123000	26.107276	0.000150	20.834414
1974.559178	-2.982900	3.359100	-10.019000	26.144430	0.000147	20.812953
1975.557548	-3.012500	3.358600	-10.117000	26.181980	0.000148	20.822235
1976.562100	-3.011300	3.358000	-10.112000	26.171899	0.000148	20.837234
1977.557598	-3.010500	3.356400	-10.104000	26.213944	0.000148	20.848189
1978.558872	-3.001000	3.355900	-10.070000	26.200928	0.000145	20.818516
1979.566891	-3.025300	3.356200	-10.153000	26.186128	0.000149	20.802221
1980.562442	-3.010400	3.355400	-10.100000	26.168644	0.000147	20.832541
1981.559394	-2.995200	3.357000	-10.054000	26.186128	0.000147	20.834463
1982.563022	-3.005900	3.355500	-10.085000	26.202468	0.000147	20.848986
1983.562526	-3.016900	3.356000	-10.124000	26.194619	0.000147	20.835410
1984.561975	-2.993100	3.356500	-10.045000	26.180638	0.000146	20.847438
1985.563958	-2.991300	3.356100	-10.038000	26.136754	0.000145	20.830843
1986.558308	-2.997300	3.355300	-10.056000	26.150412	0.000145	20.845515
1987.567033	-2.992400	3.353900	-10.035000	26.188013	0.000143	20.833987
1988.564565	-3.006200	3.352800	-10.078000	26.200280	0.000144	20.844891
1989.568729	-2.993300	3.353400	-10.037000	26.261717	0.000145	20.846886
1990.578197	-3.009100	3.353800	-10.091000	26.266263	0.000145	20.860462
1991.563806	-3.008100	3.355100	-10.091000	26.240136	0.000145	20.826147
1992.568657	-3.019200	3.351700	-10.118000	26.214854	0.000142	20.824449
1993.570468	-2.972100	3.352600	-9.963100	26.184107	0.000145	20.846657
1994.570134	-3.012800	3.351000	-10.095000	26.151426	0.000145	20.835628
1995.566055	-3.008800	3.351200	-10.082000	26.203206	0.000141	20.835029
1996.561790	-3.018300	3.352200	-10.116000	26.243658	0.000144	20.852919
1997.569826	-3.011000	3.351900	-10.092000	26.262703	0.000140	20.854514
1998.572206	-2.998100	3.353100	-10.052000	26.266901	0.000143	20.844034
1999.575034	-3.013600	3.350500	-10.096000	26.301639	0.000143	20.856659
2000.567170	-3.010400	3.349500	-10.082000	26.320885	0.000142	20.860354
2001.569678	-2.987600	3.351000	-10.011000	26.345739	0.000142	20.864469
2002.578650	-2.992600	3.350100	-10.024000	26.367787	0.000142	20.843006
2003.580844	-2.990000	3.349600	-10.015000	26.325078	0.000141	20.858404
2004.573785	-2.997800	3.349600	-10.040000	26.353559	0.000139	20.867586
2005.578551	-2.995700	3.348600	-10.030000	26.333272	0.000139	20.836767
2006.573784	-3.001100	3.348600	-10.049000	26.354873	0.000138	20.840933
2007.569417	-3.008700	3.347300	-10.070000	26.315141	0.000138	20.860271
2008.569462	-2.992600	3.348300	-10.018000	26.343002	0.000138	20.838486
2009.570487	-3.002600	3.346800	-10.048000	26.330488	0.000139	20.844400
2010.577172	-3.033000	3.346400	-10.149000	26.308883	0.000138	20.852085
2011.566604	-2.989400	3.346900	-10.005000	26.345135	0.000136	20.861017
2012.590759	-3.011000	3.345300	-10.072000	26.347047	0.000139	20.838758
2013.567682	-3.016000	3.347100	-10.094000	26.344190	0.000137	20.850110
2014.575699	-2.967300	3.346500	-9.928400	26.366761	0.000135	20.855725
2015.584732	-2.985200	3.346300	-9.988400	26.338675	0.000136	20.871593
2016.573893	-3.010400	3.345800	-10.071000	26.281535	0.000136	20.852577
2017.575514	-3.022400	3.345200	-10.109000	26.213666	0.000134	20.852652
2018.574112	-3.003700	3.345400	-10.047000	26.227102	0.000137	20.838179
2019.576125	-2.984500	3.345100	-9.982600	26.250220	0.000136	20.857617
2020.573637	-3.001700	3.344200	-10.037000	26.274009	0.000134	20.863505
2021.583364	-2.996300	3.343500	-10.016000	26.303337	0.000135	20.857416
2022.585828	-2.988000	3.343900	-9.990900	26.350540	0.000137	20.869293
2023.578284	-2.977600	3.343700	-9.954600	26.354512	0.000135	20.855268
2024.576050	-3.002000	3.344600	-10.039000	26.313515	0.000135	20.864801
2025.563015	-2.999400	3.342100	-10.023000	26.339042	0.000134	20.876704
2026.558560	-3.013500	3.342500	-10.071000	26.283021	0.000135	20.856914
2027.560325	-2.989400	3.341200	-9.986900	26.273460	0.000135	20.846832
2028.559356	-2.987400	3.342500	-9.983600	26.297050	0.000133	20.841143
2029.560524	-3.020200	3.340600	-10.088000	26.298489	0.000133	20.852545
2030.565386	-3.008000	3.341100	-10.049000	26.352201	0.000134	20.879497
2031.575714	-3.012500	3.341800	-10.066000	26.399774	0.000132	20.874205
2032.561966	-2.979400	3.340500	-9.951900	26.390588	0.000132	20.865921
2033.561942	-2.984100	3.341200	-9.969500	26.347159	0.000132	20.854517
2034.562698	-3.015400	3.340200	-10.071000	26.357912	0.000132	20.861056
2035.562968	-2.987600	3.340800	-9.979700	26.385448	0.000130	20.868816
2036.564368	-3.007900	3.339100	-10.043000	26.405884	0.000131	20.891724
2037.564102	-2.992800	3.338000	-9.989300	26.377528	0.000132	20.864175
2038.566770	-3.012700	3.338900	-10.058000	26.371865	0.000131	20.840467
2039.584023	-3.001100	3.338400	-10.018000	26.364815	0.000132	20.862303
2040.580266	-3.006400	3.338000	-10.035000	26.367198	0.000130	20.867070
2041.583187	-3.008900	3.336200	-10.037000	26.402184	0.000130	20.889428
2042.580257	-3.005400	3.336500	-10.027000	26.381950	0.000129	20.872886
2043.583390	-3.018600	3.336400	-10.070000	26.353915	0.000128	20.871737
2044.567977	-2.976700	3.336900	-9.931500	26.333183	0.000131	20.884565
2045.562868	-3.031500	3.334600	-10.107000	26.382049	0.000127	20.852124
2046.567117	-2.986500	3.336000	-9.961800	26.377928	0.000127	20.888757
2047.569265	-2.995100	3.336200	-9.990800	26.374403	0.000128	20.898964
2048.566450	-3.000800	3.334700	-10.006000	26.336115	0.000127	20.875659
2049.565014	-3.007000	3.334600	-10.026000	26.349225	0.000129	20.873188
2050.569273	-2.996000	3.334000	-9.987800	26.377630	0.000129	20.888932
2051.568766	-3.000000	3.334800	-10.004000	26.364869	0.000128	20.894124
2052.567359	-2.968900	3.334900	-9.900000	26.345650	0.000127	20.892827
2053.569074	-2.991100	3.334000	-9.971400	26.438861	0.000128	20.878877
2054.571240	-2.941800	3.334900	-9.809700	26.467266	0.000127	20.903157
2055.568675	-2.985600	3.333400	-9.951600	26.487153	0.000126	20.885690
2056.567040	-2.981800	3.332100	-9.935000	26.520024	0.000126	20.899763
2057.572755	-3.012100	3.332400	-10.037000	26.503688	0.000127	20.899465
2058.586329	-3.004300	3.331800	-10.009000	26.472131	0.000125	20.904728
2059.587291	-3.004800	3.332100	-10.012000	26.444821	0.000124	20.888186
2060.590209	-3.024900	3.332200	-10.079000	26.389524	0.000123	20.872438
2061.568619	-2.993400	3.331500	-9.971600	26.406782	0.000126	20.873188
2062.568919	-2.997500	3.330300	-9.981100	26.409712	0.000124	20.874710
2063.568696	-3.014200	3.331200	-10.040000	26.437817	0.000125	20.887310
2064.569066	-2.993400	3.330400	-9.968300	26.467960	0.000123	20.896269
2065.569918	-3.014100	3.328900	-10.033000	26.418972	0.000124	20.896343
2066.572408	-2.996400	3.329200	-9.974500	26.451250	0.000125	20.877579
2067.572550	-3.005700	3.329700	-10.006000	26.485462	0.000125	20.911963
2068.570794	-3.034500	3.327400	-10.096000	26.543781	0.000125	20.886186
2069.577750	-2.986900	3.329500	-9.944100	26.592662	0.000123	20.915406
2070.572188	-2.996200	3.328500	-9.972700	26.577097	0.000122	20.878899
2071.571615	-2.988300	3.329100	-9.947300	26.589385	0.000123	20.886036
2072.569591	-2.978600	3.328900	-9.914100	26.505472	0.000120	20.888931
2073.572754	-3.001500	3.326700	-9.984100	26.492983	0.000120	20.883964
2074.572480	-3.016200	3.326100	-10.031000	26.470688	0.000119	20.903278
2075.577363	-2.981600	3.327000	-9.919400	26.473345	0.000121	20.911638
2076.600587	-3.015000	3.326100	-10.027000	26.472452	0.000120	20.906947
2077.594352	-2.989300	3.325700	-9.940300	26.536580	0.000121	20.904551
2078.596588	-2.989500	3.325300	-9.939400	26.569599	0.000121	20.911189
2079.574139	-2.976100	3.326100	-9.897900	26.526847	0.000118	20.890976
2080.597661	-2.999800	3.323800	-9.970300	26.508103	0.000119	20.911014
2081.601076	-2.990700	3.324500	-9.941900	26.557857	0.000122	20.920247
2082.597852	-3.004200	3.325100	-9.988200	26.557507	0.000120	20.913258
2083.606165	-3.010700	3.323900	-10.006000	26.570692	0.000118	20.919399
2084.600582	-2.990100	3.324800	-9.940300	26.571833	0.000119	20.910590
2085.602886	-3.009700	3.322600	-9.999200	26.590898	0.000117	20.908892
2086.597599	-2.999200	3.321900	-9.961800	26.616492	0.000118	20.911860
2087.594349	-2.985100	3.322300	-9.916600	26.569226	0.000118	20.915080
2088.600211	-3.005400	3.322500	-9.984100	26.598495	0.000118	20.894719
2089.598090	-2.983600	3.323500	-9.914900	26.604899	0.000118	20.920120
2090.592517	-2.987000	3.321100	-9.919200	26.566791	0.000116	20.917848
2091.578530	-3.013000	3.320900	-10.005000	26.509492	0.000117	20.899134
2092.578385	-2.986600	3.320400	-9.916000	26.502737	0.000117	20.920792
2093.579703	-3.002100	3.320000	-9.965500	26.487444	0.000116	20.925808
2094.603068	-3.011700	3.320000	-9.997900	26.502911	0.000117	20.924760
2095.604892	-2.995100	3.319100	-9.939800	26.519520	0.000114	20.924858
2096.606308	-2.981900	3.320800	-9.900800	26.562272	0.000117	20.917099
2097.600347	-2.996400	3.320400	-9.948000	26.558596	0.000116	20.914827
2098.578327	-3.000300	3.319100	-9.957100	26.580890	0.000118	20.924908
2099.604734	-3.001600	3.318100	-9.958400	26.600030	0.000116	20.932294
2100.581101	-2.997600	3.319000	-9.948000	26.593450	0.000114	20.950333
2101.578799	-2.994500	3.319500	-9.939000	26.556014	0.000114	20.908438
2102.583258	-3.002700	3.317600	-9.961100	26.565199	0.000114	20.922411
2103.583273	-3.016900	3.318800	-10.012000	26.561872	0.000113	20.943246
2104.583325	-2.986400	3.317300	-9.905500	26.586773	0.000115	20.926080
2105.600621	-3.008800	3.316100	-9.976500	26.585506	0.000112	20.938082
2106.596151	-2.977900	3.317700	-9.879200	26.645829	0.000113	20.935185
2107.600132	-2.989600	3.316800	-9.914600	26.701383	0.000114	20.934611
2108.580482	-2.994500	3.315500	-9.926500	26.734448	0.000115	20.946041
2109.603512	-3.024500	3.314800	-10.025000	26.716103	0.000112	20.922385
2110.583074	-3.027400	3.314100	-10.033000	26.754130	0.000110	20.937381
2111.583611	-2.993800	3.315100	-9.923900	26.663775	0.000111	20.931890
2112.584598	-2.996600	3.314200	-9.929900	26.677004	0.000111	20.943766
2113.584013	-3.012600	3.313600	-9.981600	26.698228	0.000110	20.932388
2114.583823	-3.019200	3.313600	-10.004000	26.652279	0.000110	20.926024
2115.584723	-3.029400	3.313000	-10.035000	26.680304	0.000112	20.921482
2116.585576	-3.025700	3.312400	-10.021000	26.668189	0.000111	20.935380
2117.606075	-3.016800	3.312800	-9.993300	26.698224	0.000112	20.940443
2118.605264	-3.006800	3.312400	-9.959200	26.703784	0.000112	20.923275
2119.605412	-3.009100	3.311900	-9.964100	26.702565	0.000111	20.926791
2120.606468	-2.993600	3.311000	-9.910900	26.691717	0.000109	20.936273
2121.619883	-2.973900	3.311800	-9.848000	26.682308	0.000109	20.953838
2122.605673	-2.981600	3.311600	-9.872800	26.646984	0.000109	20.937295
2123.610697	-3.011600	3.310100	-9.967600	26.612624	0.000110	20.957279
2124.605042	-3.000200	3.310100	-9.929900	26.575684	0.000109	20.932476
2125.588583	-3.019300	3.310100	-9.992100	26.548424	0.000110	20.924041
2126.609588	-2.981500	3.311300	-9.871800	26.583774	0.000108	20.938712
2127.589830	-2.984900	3.310600	-9.880500	26.618554	0.000108	20.925312
2128.589415	-3.001000	3.309100	-9.930400	26.676243	0.000109	20.952008
2129.589357	-3.006900	3.308400	-9.946600	26.729585	0.000109	20.933093
2130.591470	-2.986700	3.309200	-9.883300	26.702008	0.000107	20.921491
2131.591297	-2.985400	3.308000	-9.875200	26.706672	0.000105	20.912430
2132.591710	-2.998500	3.307500	-9.916200	26.716724	0.000106	20.925854
2133.596469	-3.022800	3.306200	-9.993000	26.726479	0.000107	20.911954
2134.590497	-3.018600	3.305900	-9.978800	26.669260	0.000105	20.906114
2135.591025	-3.014200	3.306200	-9.964900	26.666803	0.000108	20.919288
2136.592069	-3.006700	3.306600	-9.940400	26.646445	0.000105	20.909730
2137.591351	-3.037200	3.305100	-10.037000	26.678790	0.000104	20.934657
2138.592857	-3.010800	3.305300	-9.950800	26.709247	0.000104	20.913596
2139.594066	-2.998000	3.306000	-9.911200	26.783985	0.000103	20.912872
2140.594113	-3.001600	3.305300	-9.919900	26.763010	0.000105	20.918810
2141.593410	-3.014600	3.304800	-9.961900	26.737269	0.000105	20.911423
2142.626890	-3.009300	3.304100	-9.941800	26.740098	0.000106	20.939868
2143.610173	-2.989500	3.303600	-9.874500	26.806817	0.000104	20.922551
2144.614074	-2.997200	3.303900	-9.900700	26.825952	0.000104	20.917609
2145.627486	-3.010500	3.302900	-9.942300	26.782145	0.000103	20.918609
2146.595580	-3.005600	3.303300	-9.927400	26.727758	0.000104	20.914663
2147.611701	-2.996500	3.302800	-9.895900	26.711575	0.000101	20.908825
2148.623694	-2.997400	3.302000	-9.896300	26.749401	0.000102	20.889483
2149.616103	-3.012600	3.300700	-9.942400	26.809244	0.000101	20.897493
2150.647268	-3.000100	3.302100	-9.905900	26.784548	0.000103	20.919127
2151.611290	-3.013900	3.301400	-9.949300	26.779583	0.000101	20.900387
2152.612632	-3.014200	3.301300	-9.950200	26.737783	9.968381E-5	20.902931
2153.613662	-3.010900	3.300500	-9.936900	26.747512	0.000100	20.881895
2154.625994	-3.001100	3.300800	-9.904900	26.698364	0.000100	20.923991
2155.612830	-3.024800	3.298600	-9.976900	26.676742	9.836371E-5	20.903678
2156.601729	-2.994500	3.299900	-9.880500	26.695979	0.000101	20.917327
2157.597908	-3.013300	3.299900	-9.942800	26.756246	0.000100	20.910114
2158.598388	-3.022800	3.297400	-9.966200	26.754037	9.974981E-5	20.893196
2159.600872	-2.997300	3.297800	-9.883800	26.802239	9.908977E-5	20.890450
2160.597129	-3.008100	3.298700	-9.921800	26.837483	9.945279E-5	20.903126
2161.597322	-3.007600	3.297100	-9.915000	26.866149	9.743965E-5	20.890699
2162.598628	-2.995900	3.298900	-9.881700	26.886127	9.776967E-5	20.871908
2163.616212	-2.999300	3.297200	-9.887700	26.919210	9.674659E-5	20.874354
2164.616042	-3.013900	3.296900	-9.935900	26.934198	9.516248E-5	20.902699
2165.619949	-3.006000	3.296200	-9.906400	26.873865	9.849572E-5	20.900828
2166.622852	-3.004800	3.296400	-9.903900	26.866121	9.760466E-5	20.882137
2167.600769	-2.991900	3.296100	-9.861300	26.862994	9.602054E-5	20.889424
2168.604429	-3.013600	3.294800	-9.927900	26.831722	9.691161E-5	20.893541
2169.603374	-3.012000	3.295200	-9.924100	26.815612	9.856173E-5	20.876870
2170.600048	-2.986900	3.294000	-9.838100	26.848895	9.496446E-5	20.870981
2171.625443	-3.022200	3.293700	-9.953800	26.826383	9.740664E-5	20.891019
2172.601741	-2.992400	3.293400	-9.854300	26.812681	9.433742E-5	20.877717
2173.601069	-3.012500	3.293500	-9.921100	26.803102	9.648258E-5	20.881361
2174.604658	-3.022700	3.292400	-9.951100	26.805981	9.341335E-5	20.863395
2175.632634	-2.984000	3.292000	-9.822600	26.837650	9.532749E-5	20.866313
2176.601535	-3.011700	3.291800	-9.913600	26.808486	9.506347E-5	20.872076
2177.605959	-2.994000	3.292100	-9.855000	26.801238	9.341335E-5	20.869056
2178.608131	-2.983400	3.292200	-9.819800	26.787337	9.354536E-5	20.852711
2179.607687	-2.998400	3.291900	-9.870000	26.808262	9.324834E-5	20.867110
2180.601848	-2.992800	3.291600	-9.849600	26.792674	9.569052E-5	20.883679
2181.605269	-2.989700	3.290400	-9.836200	26.855393	9.268730E-5	20.874669
2182.604066	-3.017700	3.290500	-9.928400	26.840254	9.341335E-5	20.886000
2183.606376	-3.004900	3.290300	-9.885900	26.830300	9.248928E-5	20.871725
2184.630067	-2.980000	3.289300	-9.801200	26.806794	9.364437E-5	20.868954
2185.621761	-3.005800	3.289300	-9.885900	26.812826	9.314933E-5	20.874069
2186.627137	-3.002700	3.288200	-9.872100	26.824268	9.080616E-5	20.877987
2187.632684	-2.998400	3.288500	-9.859400	26.879765	9.354536E-5	20.859347
2188.624127	-2.990300	3.288600	-9.833100	26.881550	9.120219E-5	20.872996
2189.624625	-2.987600	3.286700	-9.818400	26.903415	8.892502E-5	20.870800
2190.633616	-3.038500	3.286900	-9.985400	26.909197	9.034413E-5	20.872820
2191.624935	-3.021500	3.285400	-9.925500	26.905275	9.120219E-5	20.835688
2192.641997	-2.982100	3.287900	-9.804400	26.946621	9.219226E-5	20.844072
2193.624001	-3.011700	3.285800	-9.894400	26.941732	9.083916E-5	20.871397
2194.614980	-3.009700	3.286500	-9.890200	26.956400	8.965108E-5	20.857224
2195.609525	-3.011400	3.285900	-9.894400	26.952452	9.017911E-5	20.867479
2196.614485	-3.006600	3.284600	-9.874700	26.931408	8.859500E-5	20.842525
2197.611927	-3.000400	3.285700	-9.857300	26.924458	8.955207E-5	20.875364
2198.609990	-2.987000	3.285100	-9.811400	26.956670	9.163122E-5	20.866030
2199.611058	-3.006800	3.283300	-9.871500	26.923910	8.717590E-5	20.848262
2200.611711	-2.997100	3.283100	-9.839000	26.986946	8.800096E-5	20.877035
2201.615501	-3.010300	3.283900	-9.884800	26.961285	8.757192E-5	20.860240
2202.610272	-3.011900	3.283300	-9.887400	26.905420	8.747292E-5	20.859066
2203.611844	-3.000400	3.282100	-9.846600	26.920459	8.780294E-5	20.876558
2204.626602	-3.015600	3.280900	-9.891900	26.938402	8.674686E-5	20.854773
2205.610079	-3.011900	3.281700	-9.882400	26.970439	8.585580E-5	20.849532
2206.610554	-3.011600	3.280500	-9.878600	27.017988	8.661485E-5	20.847087
2207.617984	-3.005200	3.280300	-9.856700	27.043796	8.565778E-5	20.857394
2208.610852	-2.987600	3.280900	-9.801200	26.969174	8.813297E-5	20.856794
2209.628056	-3.005200	3.280600	-9.857800	27.031015	8.892502E-5	20.854498
2210.639902	-2.996600	3.280300	-9.829100	27.027566	8.909004E-5	20.833012
2211.614355	-2.980500	3.279900	-9.775000	27.077766	8.836398E-5	20.855996
2212.611387	-2.981100	3.279000	-9.774000	27.108014	8.674686E-5	20.837579
2213.614497	-2.998800	3.280200	-9.836300	27.025407	8.555878E-5	20.854074
2214.615198	-3.011700	3.278700	-9.874000	27.009650	8.529476E-5	20.830643
2215.613818	-3.006900	3.278300	-9.856900	26.982775	8.565778E-5	20.836332
2216.614677	-3.000200	3.278800	-9.836700	26.975652	8.658185E-5	20.839127
2217.618773	-2.995900	3.278100	-9.820300	26.967960	8.542677E-5	20.843245
2218.615831	-2.987500	3.277500	-9.790400	26.953962	8.374364E-5	20.867575
2219.613703	-3.000700	3.276700	-9.831200	27.012753	8.443669E-5	20.854625
2220.616819	-3.009700	3.276100	-9.859500	27.037594	8.453570E-5	20.869648
2221.615234	-2.972900	3.275800	-9.737400	27.062383	8.466771E-5	20.858069
2222.614448	-3.009900	3.274500	-9.855100	27.043451	8.268757E-5	20.843771
2223.635731	-2.993000	3.275800	-9.802100	27.058015	8.404067E-5	20.848935
2224.635209	-2.992200	3.274600	-9.797900	27.019901	8.252256E-5	20.835261
2225.634573	-2.987000	3.273900	-9.778200	26.965826	8.351263E-5	20.838729
2226.623794	-3.013500	3.274500	-9.866800	26.973744	8.077343E-5	20.861389
2227.620269	-3.011100	3.274100	-9.858100	27.008064	8.097144E-5	20.838056
2228.617886	-3.011100	3.272500	-9.853000	26.978583	8.265456E-5	20.847764
2229.624838	-2.998600	3.272500	-9.811800	26.991562	8.192851E-5	20.839953
2230.619072	-2.997300	3.273400	-9.810400	27.028065	8.130147E-5	20.846790
2231.620546	-2.987600	3.272700	-9.776800	27.032434	8.116946E-5	20.852131
2232.625938	-2.984500	3.271300	-9.762200	27.028338	8.103745E-5	20.836634
2233.619082	-3.000300	3.270600	-9.811000	26.994613	7.879328E-5	20.846815
2234.619217	-3.002100	3.270600	-9.818200	26.984266	8.123546E-5	20.851582
2235.622983	-3.006100	3.269800	-9.828300	27.019777	7.866127E-5	20.848886
2236.620101	-2.986800	3.269400	-9.764600	26.987938	7.915631E-5	20.853377
2237.620650	-3.002900	3.268100	-9.813600	26.977739	7.988236E-5	20.830794
2238.624629	-3.008100	3.269700	-9.834800	27.020916	8.034440E-5	20.844342
2239.622825	-2.993700	3.269300	-9.785900	27.040051	7.912331E-5	20.838929
2240.622514	-2.998600	3.268200	-9.798500	27.027816	7.833125E-5	20.828522
2241.652818	-3.030300	3.267400	-9.899400	27.009849	7.668113E-5	20.826101
2242.643436	-3.022900	3.265800	-9.870900	26.975406	7.978335E-5	20.837931
2243.638751	-2.979200	3.268700	-9.737500	27.030942	7.747319E-5	20.844468
2244.620680	-2.995600	3.266600	-9.784500	27.068240	7.839725E-5	20.835984
2245.622783	-2.997900	3.265600	-9.789400	27.129478	7.605408E-5	20.834511
2246.621361	-3.016200	3.264100	-9.843400	27.124491	7.849626E-5	20.831392
2247.622282	-3.008400	3.263900	-9.817700	27.040769	7.714316E-5	20.823530
2248.623164	-2.985000	3.264800	-9.744400	27.039328	7.730817E-5	20.837254
2249.626921	-2.999900	3.264600	-9.791900	27.026672	7.651612E-5	20.842545
2250.638275	-2.985600	3.264200	-9.744800	26.983990	7.691214E-5	20.833287
2251.649244	-3.018400	3.263800	-9.850300	26.970416	7.608708E-5	20.826749
2252.645320	-3.002700	3.263300	-9.797300	27.018038	7.628510E-5	20.835758
2253.639656	-2.979200	3.263700	-9.722100	27.094862	7.598808E-5	20.832413
2254.664127	-2.993100	3.262200	-9.764000	27.071265	7.526202E-5	20.833811
2255.649559	-2.996300	3.261500	-9.771600	27.057169	7.496500E-5	20.834808
2256.642199	-3.007000	3.262200	-9.808700	27.090693	7.212679E-5	20.823953
2257.645113	-3.015000	3.261600	-9.833000	27.128658	7.453597E-5	20.830841
2258.641270	-2.990800	3.262000	-9.755000	27.144141	7.189578E-5	20.829344
2259.647216	-3.018500	3.260600	-9.841600	27.174213	7.146675E-5	20.828296
2260.643747	-2.984200	3.260300	-9.728300	27.198603	7.209379E-5	20.830541
2261.625657	-3.003500	3.260800	-9.792700	27.196742	7.417294E-5	20.822980
2262.626830	-2.987700	3.260900	-9.741300	27.204854	7.334788E-5	20.841096
2263.651666	-2.995400	3.260400	-9.765200	27.165129	7.420595E-5	20.819633
2264.624649	-2.998500	3.257000	-9.765100	27.147837	7.308386E-5	20.828793
2265.625346	-2.992900	3.257700	-9.749600	27.128309	7.374391E-5	20.833335
2266.626506	-3.003200	3.257500	-9.782500	27.126249	7.156575E-5	20.820832
2267.624428	-2.996300	3.256100	-9.755200	27.131062	7.308386E-5	20.816663
2268.626381	-3.002800	3.256900	-9.779100	27.136644	7.027866E-5	20.809002
2269.626321	-3.005700	3.256900	-9.787700	27.171827	7.024566E-5	20.824474
2270.624373	-3.013900	3.255800	-9.812000	27.192172	7.097171E-5	20.819332
2271.626252	-2.983700	3.256700	-9.715100	27.139075	7.034466E-5	20.837050
2272.644771	-2.996200	3.254700	-9.751000	27.120489	6.866154E-5	20.817410
2273.645118	-3.003100	3.254300	-9.772300	27.127510	7.008064E-5	20.818307
2274.651038	-3.006900	3.253800	-9.782500	27.111778	6.998164E-5	20.823348
2275.659554	-3.009700	3.253700	-9.792100	27.128750	6.889256E-5	20.807701
2276.640197	-3.024000	3.253200	-9.836900	27.143017	6.899157E-5	20.834851
2277.644589	-2.997800	3.253300	-9.751400	27.234744	7.341389E-5	20.815211
2278.643642	-2.984900	3.252000	-9.705400	27.308253	7.001464E-5	20.807124
2279.627217	-2.969900	3.255100	-9.666500	27.277638	7.189578E-5	20.799561
2280.629860	-2.992700	3.253700	-9.736200	27.257616	6.938759E-5	20.816406
2281.632888	-2.984500	3.254000	-9.711300	27.221641	6.859554E-5	20.829532
2282.639918	-3.003700	3.251000	-9.763700	27.216628	6.994864E-5	20.804102
2283.629786	-3.001100	3.252000	-9.758600	27.286021	6.829851E-5	20.807519
2284.628540	-2.976100	3.251800	-9.675700	27.299863	6.852953E-5	20.820495
2285.652108	-3.012500	3.249800	-9.789100	27.303112	6.767147E-5	20.809539
2286.657026	-2.985400	3.249500	-9.699600	27.286042	6.932159E-5	20.814653
2287.643295	-2.986700	3.248900	-9.702800	27.248577	6.694542E-5	20.809211
2288.646292	-3.039200	3.248300	-9.870400	27.251233	6.615336E-5	20.832744
2289.647459	-3.026800	3.248300	-9.830700	27.210244	6.684641E-5	20.813327
2290.632614	-3.016100	3.248100	-9.795600	27.227883	6.341416E-5	20.798353
2291.633505	-3.017500	3.248500	-9.802000	27.229792	6.483326E-5	20.796005
2292.651825	-2.988100	3.246900	-9.700800	27.234928	6.572433E-5	20.811129
2293.630814	-2.999800	3.246100	-9.736900	27.218800	6.605435E-5	20.802493
2294.632813	-3.031000	3.246300	-9.838200	27.176918	6.390919E-5	20.809205
2295.628327	-2.974800	3.247800	-9.661000	27.137962	6.470125E-5	20.801793
2296.631243	-3.014900	3.245300	-9.783700	27.145653	6.605435E-5	20.808105
2297.631947	-3.020300	3.246300	-9.803900	27.192744	6.529529E-5	20.808527
2298.658524	-3.017100	3.245200	-9.789900	27.250278	6.585634E-5	20.796697
2299.630358	-2.996100	3.243900	-9.718400	27.225965	6.407421E-5	20.795949
2300.661892	-3.021500	3.242800	-9.796600	27.221794	6.641738E-5	20.801712
2301.633079	-2.976900	3.244800	-9.658400	27.273970	6.519629E-5	20.801562
2302.632919	-3.028900	3.242300	-9.819600	27.316788	6.466825E-5	20.787261
2303.654830	-2.990100	3.242400	-9.694400	27.300984	6.410721E-5	20.803131
2304.634419	-3.014800	3.241800	-9.772600	27.320904	6.427222E-5	20.805151
2305.633970	-2.999100	3.242000	-9.722600	27.344595	6.539430E-5	20.793421
2306.634871	-2.989800	3.242200	-9.692800	27.324525	6.496527E-5	20.810690
2307.633413	-3.019600	3.239100	-9.780200	27.274039	6.308413E-5	20.800208
2308.634841	-3.009000	3.241100	-9.751400	27.284184	6.245709E-5	20.808043
2309.634903	-2.980500	3.241300	-9.659300	27.284035	6.113699E-5	20.803151
2310.634292	-2.999700	3.240300	-9.718700	27.190797	5.998191E-5	20.793293
2311.635971	-3.014700	3.238600	-9.762300	27.176306	6.077396E-5	20.791046
2312.635970	-3.023800	3.239800	-9.795700	27.176652	6.199505E-5	20.792342
2313.637167	-3.022200	3.237400	-9.783400	27.252746	6.387619E-5	20.801550
2314.654487	-2.995500	3.239200	-9.701800	27.223842	6.143401E-5	20.756829
2315.656570	-3.009300	3.237000	-9.739600	27.209848	6.100498E-5	20.782583
2316.658942	-3.015600	3.237600	-9.762100	27.245227	5.958588E-5	20.802996
2317.667512	-3.004000	3.237400	-9.724700	27.301171	6.120299E-5	20.804268
2318.666102	-2.978800	3.235800	-9.638100	27.343196	6.143401E-5	20.797704
2319.658053	-3.015700	3.235800	-9.756500	27.391196	6.252309E-5	20.803316
2320.659656	-2.991300	3.235900	-9.679100	27.346196	5.971789E-5	20.791238
2321.654181	-2.983100	3.235800	-9.652300	27.321535	5.928885E-5	20.772595
2322.661489	-3.005000	3.234300	-9.717300	27.354777	5.737471E-5	20.792285
2323.657043	-2.967300	3.234800	-9.598000	27.374770	5.783675E-5	20.792483
2324.671360	-3.001700	3.234100	-9.706100	27.366881	5.958588E-5	20.779804
2325.653559	-2.990400	3.233300	-9.667800	27.363457	5.625263E-5	20.778731
2326.656763	-2.992200	3.232000	-9.669400	27.384890	6.083997E-5	20.789387
2327.668165	-3.008800	3.231700	-9.723300	27.336738	5.691268E-5	20.793104
2328.666164	-3.014500	3.231800	-9.741500	27.370947	5.998191E-5	20.783420
2329.658816	-2.994900	3.233500	-9.683500	27.423734	5.829878E-5	20.792903
2330.662892	-3.009500	3.231700	-9.724600	27.470790	5.760573E-5	20.776706
2331.678465	-2.976600	3.229700	-9.612700	27.511543	5.786975E-5	20.779775
2332.676823	-3.002400	3.231100	-9.700400	27.526698	5.836479E-5	20.782221
2333.665237	-3.002800	3.229600	-9.697000	27.534783	5.866181E-5	20.799365
2334.659982	-2.980600	3.230700	-9.629200	27.495964	5.895883E-5	20.770739
2335.660384	-2.993100	3.229600	-9.665200	27.460891	5.701169E-5	20.786661
2336.644436	-3.024200	3.229700	-9.766300	27.461238	5.760573E-5	20.782743
2337.648052	-2.998500	3.227400	-9.676800	27.408674	5.697869E-5	20.777751
2338.648141	-3.000800	3.228600	-9.687200	27.422068	5.783675E-5	20.789804
2339.645422	-2.994200	3.227200	-9.662200	27.425590	5.796876E-5	20.783390
2340.651277	-3.004600	3.227200	-9.695800	27.473217	5.803476E-5	20.813761
2341.650084	-3.030500	3.225200	-9.773400	27.487752	5.793576E-5	20.781918
2342.646968	-3.006300	3.225300	-9.694500	27.466519	5.625263E-5	20.789479
2343.647007	-3.004100	3.224900	-9.687500	27.441267	5.744072E-5	20.821446
2344.647704	-2.985100	3.225700	-9.627200	27.452628	5.473452E-5	20.768391
2345.649932	-2.992900	3.224200	-9.648300	27.458556	5.678067E-5	20.771984
2346.648633	-2.993600	3.224900	-9.653400	27.427921	5.572459E-5	20.784313
2347.648090	-3.013000	3.223900	-9.712600	27.422365	5.503154E-5	20.794844
2348.649022	-2.993300	3.223300	-9.647800	27.429459	5.522956E-5	20.800085
2349.652203	-3.030500	3.221800	-9.762700	27.424126	5.595561E-5	20.788081
2350.676809	-3.022800	3.221600	-9.736700	27.472843	5.522956E-5	20.781142
2351.671963	-2.988800	3.222600	-9.630700	27.524312	5.724270E-5	20.784562
2352.666478	-2.991700	3.221400	-9.636500	27.508017	5.565859E-5	20.779073
2353.680078	-3.003500	3.220700	-9.672500	27.461432	5.447050E-5	20.789577
2354.677022	-3.004800	3.220300	-9.676300	27.482144	5.453651E-5	20.786707
2355.679578	-3.001100	3.219700	-9.661900	27.493381	5.592261E-5	20.801331
2356.669188	-3.002800	3.218400	-9.662900	27.528354	5.777074E-5	20.792422
2357.668035	-3.019700	3.219800	-9.721500	27.489215	5.658266E-5	20.790027
2358.677468	-2.994900	3.220000	-9.642700	27.463542	5.239135E-5	20.799761
2359.668794	-3.018600	3.217700	-9.711800	27.432833	5.569159E-5	20.799686
2360.658033	-2.978000	3.218100	-9.583100	27.409665	5.450350E-5	20.804827
2361.655191	-2.999500	3.217100	-9.648700	27.442011	5.423948E-5	20.787107
2362.651410	-3.014000	3.216300	-9.693100	27.461259	5.668166E-5	20.798886
2363.652596	-2.996200	3.216200	-9.635200	27.421025	5.447050E-5	20.784013
2364.657372	-2.986300	3.215400	-9.601300	27.434818	5.463551E-5	20.802631
2365.651624	-2.986600	3.214800	-9.600400	27.501543	5.288639E-5	20.802431
2366.653223	-3.002600	3.215600	-9.653400	27.577714	5.169830E-5	20.793722
2367.656476	-2.984800	3.214500	-9.594000	27.562634	5.206132E-5	20.817429
2368.655257	-3.010300	3.215100	-9.678100	27.592496	5.443750E-5	20.800061
2369.654399	-2.972000	3.214900	-9.554200	27.560055	5.433849E-5	20.788756
2370.657941	-2.975900	3.213500	-9.562400	27.621812	5.311740E-5	20.804902
2371.655766	-2.971900	3.213200	-9.548500	27.686270	5.275438E-5	20.795320
2372.655677	-2.994000	3.212600	-9.617600	27.648796	4.928912E-5	20.807398
2373.658672	-2.986700	3.212100	-9.592700	27.582527	5.014718E-5	20.806151
2374.655971	-3.006900	3.211900	-9.657100	27.569828	5.117026E-5	20.800486
2375.656522	-3.012400	3.213000	-9.678000	27.524959	5.087324E-5	20.801334
2376.660717	-2.995700	3.209700	-9.613600	27.540982	5.120326E-5	20.810817
2377.658703	-3.011200	3.209600	-9.663700	27.581411	5.262237E-5	20.799339
2378.680426	-3.003800	3.207700	-9.634800	27.607132	5.074123E-5	20.817631
2379.675632	-3.006700	3.208200	-9.646000	27.647781	4.978416E-5	20.815860
2380.678574	-3.018900	3.209000	-9.687000	27.620425	4.971815E-5	20.806352
2381.675318	-2.977900	3.208900	-9.554800	27.582131	5.064222E-5	20.824718
2382.687883	-3.004100	3.206600	-9.631800	27.620623	5.120326E-5	20.811766
2383.676376	-3.000100	3.206900	-9.619900	27.607777	5.054321E-5	20.815910
2384.663113	-3.019100	3.205600	-9.677600	27.590168	4.922312E-5	20.825693
2385.658737	-2.993600	3.204400	-9.591000	27.582331	5.077423E-5	20.832506
2386.657243	-2.983800	3.205900	-9.565400	27.564846	5.014718E-5	20.806379
2387.660582	-3.011400	3.205000	-9.650300	27.538481	4.740798E-5	20.811145
2388.690886	-3.009600	3.204400	-9.643100	27.553560	4.846406E-5	20.826791
2389.659669	-2.979500	3.205400	-9.550100	27.574916	4.720997E-5	20.807976
2390.683778	-3.011300	3.202700	-9.643600	27.539944	4.909111E-5	20.848178
2391.685964	-2.993500	3.202200	-9.583900	27.592005	4.843106E-5	20.836076
2392.679268	-2.991400	3.203500	-9.581500	27.635161	4.958614E-5	20.817385
2393.661193	-2.991700	3.200600	-9.574300	27.658423	4.687994E-5	20.822301
2394.662613	-3.015700	3.199600	-9.648400	27.686200	4.711096E-5	20.817061
2395.691481	-2.996500	3.199900	-9.587200	27.697260	4.806803E-5	20.831035
2396.690104	-3.009900	3.198800	-9.627500	27.699294	4.753999E-5	20.831660
2397.683715	-3.007700	3.198800	-9.619900	27.676503	4.826605E-5	20.822950
2398.681706	-2.989800	3.199400	-9.563700	27.686000	4.740798E-5	20.801687
2399.682915	-3.006700	3.199600	-9.619300	27.656364	4.641791E-5	20.826867
2400.701900	-3.006900	3.198100	-9.615600	27.590492	4.546084E-5	20.833605
2401.665425	-3.025400	3.198100	-9.675100	27.594411	4.711096E-5	20.844186
2402.668805	-2.976600	3.196400	-9.512900	27.580223	4.747399E-5	20.813316
2403.665839	-2.994400	3.196100	-9.569800	27.535554	4.757300E-5	20.831434
2404.665130	-3.006800	3.196200	-9.609900	27.464489	4.549384E-5	20.833903
2405.669046	-3.003900	3.195000	-9.596700	27.478827	4.572486E-5	20.835052
2406.665971	-2.995600	3.193800	-9.566700	27.494081	4.453677E-5	20.828588
2407.684326	-2.990000	3.196500	-9.556600	27.534981	4.410774E-5	20.828012
2408.670686	-3.016000	3.192300	-9.627300	27.567398	4.367871E-5	20.809895
2409.666647	-2.983900	3.193700	-9.528900	27.644408	4.348070E-5	20.841388
2410.668135	-2.987700	3.192800	-9.537500	27.702390	4.334869E-5	20.834300
2411.670473	-3.017200	3.190600	-9.625400	27.738248	4.598888E-5	20.839091
2412.691614	-2.997600	3.193000	-9.569500	27.723939	4.377772E-5	20.813786
2413.669432	-3.013200	3.190500	-9.612500	27.770485	4.334869E-5	20.842134
2414.672955	-2.991100	3.189600	-9.539600	27.807854	4.110452E-5	20.826163
2415.670946	-2.970600	3.190400	-9.476200	27.768599	4.476779E-5	20.841185
2416.670102	-2.988400	3.190200	-9.532700	27.773360	4.206159E-5	20.837915
2417.671312	-3.020400	3.189900	-9.633600	27.755951	4.004844E-5	20.832724
2418.673826	-3.006400	3.186400	-9.578800	27.688448	4.196258E-5	20.832599
2419.670818	-2.993900	3.187800	-9.543100	27.677609	4.192958E-5	20.849667
2420.672432	-3.030600	3.185900	-9.653200	27.721380	3.994944E-5	20.843453
2421.672718	-3.026500	3.185700	-9.641000	27.722396	4.192958E-5	20.853958
2422.672183	-3.000200	3.187000	-9.560800	27.760238	4.186358E-5	20.847469
2423.676652	-2.997700	3.185200	-9.547400	27.787292	4.024646E-5	20.841030
2424.675172	-3.017200	3.185000	-9.607800	27.718005	4.123653E-5	20.836738
2425.701450	-2.996800	3.183800	-9.540200	27.748035	3.853033E-5	20.848939
2426.678524	-3.015300	3.183600	-9.598700	27.773552	4.110452E-5	20.840479
2427.675346	-2.990900	3.182300	-9.516600	27.695013	4.044447E-5	20.840154
2428.674777	-2.987300	3.183400	-9.508900	27.681721	3.965241E-5	20.839106
2429.679366	-2.980100	3.182400	-9.482400	27.636930	4.159956E-5	20.835286
2430.674425	-3.004100	3.180200	-9.553200	27.586061	4.004844E-5	20.850483
2431.680113	-3.010300	3.179400	-9.569400	27.615152	3.899237E-5	20.829495
2432.675938	-2.986300	3.180100	-9.495700	27.624900	4.090651E-5	20.841673
2433.696678	-2.985700	3.179600	-9.492700	27.603123	3.909137E-5	20.854848
2434.679548	-2.995800	3.179400	-9.523300	27.647691	3.945440E-5	20.851329
2435.674578	-2.997400	3.177700	-9.523600	27.735357	3.816731E-5	20.852777
2436.712850	-3.001300	3.176400	-9.531900	27.789516	3.912438E-5	20.850381
2437.694883	-2.981700	3.176800	-9.471300	27.779744	3.810130E-5	20.843866
2438.694455	-2.998000	3.175800	-9.520200	27.779347	3.737525E-5	20.870966
2439.699450	-3.007200	3.175800	-9.549300	27.758169	3.810130E-5	20.836378
2440.699337	-2.997900	3.175300	-9.517000	27.729825	3.938840E-5	20.852899
2441.694922	-3.008500	3.174100	-9.548700	27.705794	3.757326E-5	20.848156
2442.714429	-3.021500	3.172500	-9.584500	27.718168	3.833232E-5	20.850177
2443.703446	-2.999900	3.173200	-9.518400	27.703238	3.605515E-5	20.828990
2444.693708	-3.006900	3.173600	-9.542100	27.726648	3.506508E-5	20.852547
2445.678458	-3.003000	3.173200	-9.528600	27.673502	3.688021E-5	20.876826
2446.686225	-3.035300	3.169300	-9.619100	27.648080	3.655019E-5	20.849824
2447.690487	-2.986600	3.170200	-9.468100	27.608076	3.420702E-5	20.846555
2448.699607	-3.015900	3.169000	-9.556400	27.655842	3.559312E-5	20.849100
2449.685945	-3.001400	3.169800	-9.512000	27.677591	3.697922E-5	20.861976
2450.685990	-3.015900	3.169100	-9.556100	27.702613	3.678120E-5	20.830258
2451.682307	-2.981200	3.166800	-9.439600	27.734951	3.615416E-5	20.867539
2452.685332	-3.005700	3.167200	-9.519000	27.681707	3.440503E-5	20.849522
2453.684554	-2.990200	3.165700	-9.464800	27.672976	3.410801E-5	20.846428
2454.684021	-3.009400	3.164800	-9.523200	27.745092	3.645118E-5	20.859727
2455.687846	-2.999500	3.165900	-9.495500	27.780107	3.417401E-5	20.848498
2456.685168	-3.022700	3.164100	-9.563000	27.805871	3.509808E-5	20.852615
2457.683076	-3.018300	3.162000	-9.543100	27.847702	3.499907E-5	20.867687
2458.700660	-3.017000	3.162100	-9.538400	27.883482	3.549411E-5	20.862446
2459.703502	-3.000900	3.161200	-9.485000	27.916582	3.414101E-5	20.861622
2460.701486	-3.004000	3.161600	-9.496600	27.929748	3.384399E-5	20.851640
2461.716589	-2.988900	3.159500	-9.442500	27.881125	3.539510E-5	20.863393
2462.690189	-3.014000	3.158600	-9.518800	27.889506	3.371198E-5	20.870405
2463.684285	-2.995500	3.159700	-9.464300	27.924243	3.523009E-5	20.860798
2464.690332	-2.995200	3.158500	-9.459800	27.927342	3.357997E-5	20.876718
2465.688994	-3.008400	3.156500	-9.495300	27.889257	3.394300E-5	20.857827
2466.694377	-3.007200	3.157300	-9.493200	27.864709	3.387699E-5	20.872949
2467.688669	-3.010500	3.155200	-9.497900	27.795155	3.117079E-5	20.894459
2468.700511	-2.981700	3.156500	-9.410400	27.790839	3.150082E-5	20.885849
2469.690469	-2.997900	3.154100	-9.455100	27.786376	3.202886E-5	20.855281
2470.693999	-3.015500	3.154100	-9.510200	27.830341	3.216086E-5	20.867758
2471.688538	-2.996200	3.153300	-9.447600	27.847028	3.371198E-5	20.877914
2472.690417	-3.011300	3.151000	-9.486600	27.829174	3.196285E-5	20.875592
2473.688275	-2.978300	3.152700	-9.387600	27.825082	3.146781E-5	20.865785
2474.691229	-3.008500	3.150500	-9.477500	27.783895	3.341496E-5	20.876965
2475.692763	-3.001300	3.149800	-9.451800	27.817023	3.348096E-5	20.858623
2476.711802	-3.023200	3.148900	-9.519500	27.858284	3.021372E-5	20.868854
2477.716073	-3.000800	3.148100	-9.446100	27.876409	3.100578E-5	20.866707
2478.712965	-2.994600	3.147800	-9.424900	27.836611	3.371198E-5	20.888292
2479.750171	-2.999700	3.146800	-9.438700	27.834974	3.265590E-5	20.874791
2480.713702	-2.963800	3.148000	-9.329300	27.863961	2.942166E-5	20.874093
2481.710670	-2.994500	3.145400	-9.418100	27.860415	3.140181E-5	20.877636
2482.732477	-3.001300	3.144500	-9.436700	27.857315	3.374498E-5	20.871672
2483.721437	-3.008800	3.143800	-9.457700	27.855876	3.163283E-5	20.901515
2484.709898	-3.006000	3.142400	-9.445500	27.857737	3.008171E-5	20.880630
2485.718012	-2.989000	3.142600	-9.392000	27.911170	3.021372E-5	20.870398
2486.719627	-2.994300	3.141600	-9.405900	27.871845	3.117079E-5	20.877285
2487.698658	-3.009600	3.139800	-9.448400	27.870654	2.952067E-5	20.886518
2488.715140	-2.991300	3.139400	-9.389600	27.861059	2.998270E-5	20.893455
2489.710080	-2.990200	3.139000	-9.384900	27.936037	3.206186E-5	20.887839
2490.729248	-2.997200	3.138600	-9.405900	28.021697	3.044474E-5	20.896299
2491.722307	-3.002100	3.137700	-9.418200	28.036448	2.876162E-5	20.891708
2492.713010	-3.005600	3.135900	-9.424100	28.010789	3.034573E-5	20.883898
2493.729552	-2.967600	3.135800	-9.304900	27.975237	2.938866E-5	20.887467
2494.697732	-3.024700	3.132600	-9.474300	27.978583	2.902563E-5	20.906006
2495.695055	-2.979000	3.133500	-9.333600	28.005930	2.843159E-5	20.874266
2496.700963	-2.978800	3.133800	-9.334100	28.025590	2.856360E-5	20.903536
2497.711857	-3.014300	3.132600	-9.442000	27.973055	2.965268E-5	20.890486
2498.711314	-3.005700	3.131200	-9.411000	27.926641	2.770554E-5	20.913468
2499.727110	-2.987400	3.130100	-9.348700	27.906955	2.760653E-5	20.882751
2500.715221	-2.982600	3.131000	-9.337500	27.905666	2.536237E-5	20.895203
2501.713016	-3.009500	3.127400	-9.410900	27.999609	2.948767E-5	20.906307
2502.718831	-2.989600	3.127300	-9.348200	27.989395	2.671546E-5	20.919732
2503.711535	-2.994100	3.126100	-9.358600	28.037665	3.008171E-5	20.904311
2504.710686	-2.994100	3.126700	-9.361000	27.994675	2.787055E-5	20.903238
2505.696413	-3.011800	3.124600	-9.409800	27.956123	2.866261E-5	20.913744
2506.700285	-3.015200	3.124400	-9.420100	27.909733	2.694648E-5	20.914468
2507.715593	-3.009200	3.122800	-9.396300	27.936659	2.694648E-5	20.898422
2508.713398	-2.996500	3.122400	-9.355700	27.928155	2.846459E-5	20.899820
2509.718528	-2.982200	3.121500	-9.306900	27.976899	2.862961E-5	20.904312
2510.718816	-2.977800	3.120400	-9.291100	28.009949	2.892663E-5	20.909129
2511.712286	-3.011400	3.120200	-9.394700	28.017609	2.433929E-5	20.916838
2512.726836	-3.005800	3.118300	-9.372200	27.984660	2.721050E-5	20.928716
2513.718329	-2.987600	3.116900	-9.310700	27.967355	2.638544E-5	20.894705
2514.733148	-3.001200	3.117200	-9.354400	28.005759	2.978469E-5	20.910127
2515.714537	-2.999900	3.115600	-9.345700	28.039179	2.565939E-5	20.925273
2516.704151	-2.973800	3.116100	-9.264800	28.064788	2.787055E-5	20.915966
2517.702034	-3.015400	3.113700	-9.388400	28.110874	2.552738E-5	20.925373
2518.698863	-3.014000	3.112100	-9.378800	28.081100	2.836559E-5	20.919584
2519.723816	-2.979000	3.112400	-9.270500	28.074605	2.562638E-5	20.910202
2520.707969	-2.996300	3.111000	-9.321100	28.073441	2.542837E-5	20.920882
2521.700842	-2.966700	3.110500	-9.227100	28.101280	2.503234E-5	20.935154
2522.700085	-2.996200	3.109300	-9.315900	28.108767	2.424028E-5	20.906659
2523.704581	-2.996800	3.108800	-9.315600	28.144910	2.575839E-5	20.922179
2524.701532	-3.017600	3.107700	-9.376800	28.151603	2.440530E-5	20.922279
2525.702098	-3.010700	3.106100	-9.350600	28.178078	2.562638E-5	20.934707
2526.705916	-3.030500	3.105300	-9.409300	28.202866	2.209513E-5	20.927894
2527.702512	-3.019700	3.104600	-9.373700	28.146796	2.212813E-5	20.925500
2528.702628	-3.022500	3.102500	-9.376700	28.144936	2.361324E-5	20.935006
2529.723063	-3.014000	3.102600	-9.350300	28.172749	2.391026E-5	20.922231
2530.701305	-2.992800	3.103000	-9.285800	28.255811	2.503234E-5	20.932835
2531.721069	-2.961100	3.102100	-9.184300	28.255638	2.513135E-5	20.921282
2532.720713	-3.014800	3.099400	-9.342900	28.276285	2.470232E-5	20.915518
2533.718260	-3.005500	3.099400	-9.314700	28.297155	2.252416E-5	20.946010
2534.730069	-2.985700	3.097100	-9.245300	28.324965	2.367924E-5	20.916642
2535.705761	-2.998500	3.097800	-9.287800	28.330838	2.371224E-5	20.942941
2536.717722	-3.004200	3.095500	-9.298800	28.287910	2.387726E-5	20.936703
2537.721822	-2.986500	3.094700	-9.241800	28.231000	2.397626E-5	20.938675
2538.723293	-2.987800	3.093000	-9.239900	28.199471	2.407527E-5	20.915943
2539.729432	-2.998100	3.092200	-9.269900	28.211071	2.457031E-5	20.921931
2540.727355	-2.999000	3.089800	-9.265900	28.167172	2.239215E-5	20.926099
2541.732832	-3.021500	3.088800	-9.331800	28.145234	2.440530E-5	20.931987
2542.719320	-3.005200	3.089900	-9.285200	28.193423	2.308520E-5	20.911751
2543.705964	-2.970800	3.088400	-9.174000	28.208915	2.321721E-5	20.906011
2544.705423	-2.990100	3.086900	-9.229200	28.239428	2.361324E-5	20.931513
2545.705549	-2.986900	3.085800	-9.216000	28.297353	2.206212E-5	20.918238
2546.730201	-2.998000	3.085200	-9.247900	28.299510	2.453730E-5	20.900971
2547.706751	-2.997600	3.084300	-9.244600	28.363455	2.414128E-5	20.906561
2548.711866	-3.004200	3.082900	-9.260400	28.328558	2.387726E-5	20.919311
2549.708650	-2.993700	3.083300	-9.229900	28.265157	2.292019E-5	20.900996
2550.708707	-3.017700	3.080800	-9.296300	28.251352	2.367924E-5	20.918863
2551.711614	-3.022200	3.078200	-9.301800	28.226861	2.275517E-5	20.890890
2552.725822	-2.992000	3.079400	-9.212400	28.204181	2.348123E-5	20.887496
2553.735012	-2.999900	3.076900	-9.228900	28.266768	2.160009E-5	20.914945
2554.728448	-2.976100	3.077900	-9.159000	28.269594	2.196312E-5	20.906411
2555.729985	-3.005000	3.075000	-9.239100	28.238436	2.021399E-5	20.908232
2556.732513	-3.020400	3.073600	-9.282800	28.207502	2.021399E-5	20.910278
2557.725114	-2.989400	3.073700	-9.187800	28.185862	2.179810E-5	20.907933
2558.730403	-3.007400	3.071800	-9.237300	28.162958	2.199612E-5	20.907634
2559.738795	-3.002800	3.070600	-9.219300	28.125601	2.133607E-5	20.912225
2560.726642	-3.003800	3.069800	-9.220300	28.149299	2.183111E-5	20.892461
2561.712369	-3.021300	3.068100	-9.267800	28.233280	2.107205E-5	20.876965
2562.710856	-2.992200	3.068700	-9.181100	28.279754	2.235914E-5	20.903839
2563.712347	-2.995600	3.066800	-9.186400	28.262527	2.143508E-5	20.897875
2564.716366	-3.006200	3.064600	-9.212000	28.276780	1.988396E-5	20.916016
2565.734288	-3.003300	3.064800	-9.203500	28.323500	2.183111E-5	20.906160
2566.727025	-2.997100	3.063600	-9.181200	28.395398	1.905890E-5	20.917387
2567.732634	-2.999400	3.061900	-9.183400	28.443898	2.107205E-5	20.883251
2568.711483	-2.994000	3.059400	-9.159400	28.424418	2.067602E-5	20.900619
2569.728333	-3.003400	3.058200	-9.184200	28.483076	1.998297E-5	20.893306
2570.734365	-3.030600	3.057000	-9.263900	28.438146	2.077503E-5	20.897847
2571.728974	-2.997400	3.056700	-9.160900	28.438518	1.796982E-5	20.896325
2572.735727	-2.984400	3.055500	-9.117600	28.387291	1.889389E-5	20.881727
2573.718834	-3.024300	3.052800	-9.231600	28.374131	1.932292E-5	20.889812
2574.713049	-3.013000	3.053300	-9.198900	28.364811	2.064302E-5	20.891332
2575.712801	-3.019300	3.051600	-9.212400	28.326941	1.826684E-5	20.901564
2576.718466	-3.010900	3.051200	-9.185900	28.293852	1.981796E-5	20.882474
2577.711946	-3.012300	3.049300	-9.184900	28.275882	1.958694E-5	20.877184
2578.712862	-2.973900	3.050400	-9.069900	28.211709	1.942193E-5	20.883696
2579.713425	-3.043400	3.047300	-9.272400	28.229283	2.051101E-5	20.888113
2580.713533	-3.013500	3.047000	-9.180600	28.258482	1.839885E-5	20.883371
2581.713117	-3.030000	3.043700	-9.221400	28.292537	1.968595E-5	20.896796
2582.723866	-3.001800	3.042300	-9.131700	28.310729	1.836585E-5	20.893302
2583.728859	-3.014500	3.042600	-9.170200	28.278929	1.975195E-5	20.885466
2584.731114	-2.989500	3.041100	-9.090400	28.244228	2.008198E-5	20.897469
2585.735367	-3.024700	3.039900	-9.193600	28.248937	1.813483E-5	20.892727
2586.731324	-2.992500	3.038600	-9.091900	28.276474	2.054401E-5	20.863082
2587.730854	-2.982700	3.037400	-9.058700	28.372888	2.087404E-5	20.866276
2588.740752	-2.993000	3.037300	-9.090700	28.468772	1.994997E-5	20.885540
2589.714480	-3.013900	3.032800	-9.139900	28.484037	1.869588E-5	20.869620
2590.715539	-3.007600	3.033100	-9.121600	28.447757	1.869588E-5	20.868647
2591.733876	-2.993800	3.031800	-9.075800	28.436605	1.971895E-5	20.887287
2592.716297	-2.994900	3.032100	-9.079900	28.436654	1.602268E-5	20.873587
2593.715389	-3.014100	3.029700	-9.131400	28.420843	2.067602E-5	20.876632
2594.735835	-2.982700	3.029600	-9.034700	28.476032	1.978496E-5	20.853973
2595.736933	-3.002700	3.026700	-9.087500	28.383668	1.905890E-5	20.886139
2596.737546	-2.998400	3.026900	-9.075000	28.417051	2.084103E-5	20.854322
2597.716498	-2.985100	3.024100	-9.026400	28.462080	1.536263E-5	20.869794
2598.736581	-2.991400	3.023700	-9.043900	28.386247	1.767280E-5	20.891106
2599.723679	-3.020500	3.021600	-9.126200	28.326269	1.777181E-5	20.869121
2600.741199	-3.009100	3.019200	-9.084700	28.312389	1.892689E-5	20.860362
2601.719940	-3.002400	3.020400	-9.066700	28.253845	1.655072E-5	20.877281
2602.735036	-3.004800	3.017100	-9.064600	28.256025	1.453757E-5	20.857666
2603.744065	-2.986800	3.016900	-9.009100	28.337893	1.681474E-5	20.874661
2604.721311	-3.011500	3.014100	-9.076400	28.403917	1.810183E-5	20.880924
2605.723822	-2.993300	3.014600	-9.022600	28.441388	1.836585E-5	20.878828
2606.720998	-2.985400	3.013600	-8.995800	28.417325	1.717776E-5	20.857917
2607.720745	-2.995200	3.012100	-9.021000	28.415267	1.595667E-5	20.856793
2608.724034	-3.003900	3.010900	-9.043400	28.410756	1.615469E-5	20.864579
2609.721739	-2.997700	3.008200	-9.016900	28.357100	1.813483E-5	20.862707
2610.723773	-3.036700	3.006300	-9.128400	28.391177	1.747479E-5	20.867148
2611.726144	-3.002500	3.006300	-9.025400	28.336826	1.681474E-5	20.862208
2612.727859	-3.028300	3.004700	-9.098000	28.355290	1.569265E-5	20.867997
2613.723295	-3.006000	3.003000	-9.026200	28.418686	1.787081E-5	20.865451
2614.726226	-3.000900	3.001900	-9.006900	28.421512	1.701275E-5	20.867349
2615.724466	-3.010500	2.999500	-9.028900	28.449219	1.820084E-5	20.896669
2616.727360	-2.990600	2.999200	-8.968600	28.433704	1.483459E-5	20.864927
2617.747951	-3.016700	2.996000	-9.036600	28.377001	1.638571E-5	20.868047
2618.752799	-3.003200	2.996500	-8.998000	28.445426	1.714476E-5	20.871989
2619.751323	-2.961600	2.995700	-8.870600	28.437992	1.569265E-5	20.866874
2620.747657	-3.028700	2.992500	-9.062700	28.467184	1.820084E-5	20.866399
2621.743436	-3.000500	2.992000	-8.976300	28.518531	1.701275E-5	20.866899
2622.745353	-3.008100	2.988900	-8.990200	28.613460	1.704575E-5	20.850129
2623.754426	-2.988800	2.988900	-8.932100	28.593860	1.820084E-5	20.881122
2624.754492	-2.980500	2.988100	-8.905300	28.621935	1.691374E-5	20.838277
2625.742217	-3.005500	2.986500	-8.975400	28.652386	1.773881E-5	20.863730
2626.745509	-2.987800	2.985900	-8.920200	28.656722	1.810183E-5	20.851977
2627.746785	-2.978500	2.983800	-8.886300	28.612643	1.740878E-5	20.874436
2628.726696	-2.996900	2.981600	-8.934100	28.594555	1.602268E-5	20.864279
2629.748653	-2.990500	2.981000	-8.914000	28.525817	1.681474E-5	20.835357
2630.742427	-2.998200	2.979000	-8.930900	28.467557	1.542864E-5	20.841646
2631.742030	-2.986900	2.977000	-8.890400	28.530946	1.750779E-5	20.859488
2632.728048	-2.997400	2.977000	-8.922700	28.582116	1.529663E-5	20.856968
2633.726510	-2.982600	2.975600	-8.874300	28.563258	1.595667E-5	20.846037
2634.726822	-3.011800	2.973400	-8.954700	28.554412	1.526362E-5	20.858939
2635.728967	-2.988600	2.972400	-8.882400	28.595892	1.440556E-5	20.861833
2636.727005	-3.031500	2.969500	-9.000800	28.623546	1.714476E-5	20.848908
2637.728488	-2.978700	2.970200	-8.846200	28.602136	1.694675E-5	20.861483
2638.727528	-2.961100	2.968900	-8.790600	28.650750	1.747479E-5	20.857340
2639.733441	-3.033900	2.964500	-8.992300	28.613014	1.813483E-5	20.842568
2640.730867	-3.008800	2.965100	-8.920500	28.661850	1.668273E-5	20.835805
2641.729513	-2.994400	2.962900	-8.871800	28.687197	1.909190E-5	20.849006
2642.728029	-3.013000	2.962000	-8.923500	28.706522	1.457057E-5	20.846660
2643.730615	-3.027300	2.959800	-8.959100	28.701765	1.562665E-5	20.829067
2644.731472	-3.023500	2.958200	-8.943400	28.655358	1.572566E-5	20.848232
2645.748784	-2.983900	2.957300	-8.823700	28.608627	1.565965E-5	20.840521
2646.735640	-3.041400	2.954000	-8.982700	28.640219	1.628670E-5	20.840097
2647.731896	-2.972000	2.955100	-8.781600	28.585286	1.697975E-5	20.863479
2648.730041	-3.011700	2.953200	-8.893000	28.590663	1.691374E-5	20.852773
2649.730597	-3.010400	2.951100	-8.883100	28.662195	1.602268E-5	20.838998
2650.734931	-2.995600	2.949100	-8.834000	28.711153	1.737578E-5	20.835679
2651.732563	-2.989100	2.948000	-8.810400	28.735062	1.800282E-5	20.845062
2652.734723	-2.983600	2.947000	-8.791800	28.670867	1.694675E-5	20.827344
2653.734356	-2.996900	2.944700	-8.823900	28.639895	1.589067E-5	20.846883
2654.731334	-2.988800	2.943400	-8.796400	28.686824	1.843186E-5	20.828242
2655.737672	-3.002300	2.941100	-8.829200	28.709543	1.938893E-5	20.848755
2656.730305	-2.983500	2.940300	-8.771300	28.706743	1.833285E-5	20.833133
2657.731844	-3.003600	2.937900	-8.824100	28.753445	1.740878E-5	20.853621
2658.748672	-2.997000	2.938100	-8.804800	28.744947	1.648471E-5	20.828941
2659.740047	-2.978900	2.935100	-8.742200	28.800069	1.849786E-5	20.856490
2660.746414	-2.990500	2.933700	-8.772400	28.859748	1.787081E-5	20.844537
2661.731951	-3.023900	2.931800	-8.864800	28.896955	1.694675E-5	20.844562
2662.733185	-2.992300	2.931700	-8.771700	28.899879	1.648471E-5	20.821904
2663.737802	-2.971800	2.930000	-8.706800	28.907731	1.829985E-5	20.824124
2664.735077	-2.990800	2.927500	-8.754300	28.858064	1.707876E-5	20.848530
2665.736116	-2.997100	2.927400	-8.772800	28.848353	1.836585E-5	20.825473
2666.751505	-3.017100	2.923800	-8.820800	28.794200	1.826684E-5	20.844414
2667.734578	-2.997500	2.922600	-8.759700	28.736970	1.592367E-5	20.839398
2668.761104	-2.971400	2.921700	-8.680200	28.669803	1.641871E-5	20.831487
2669.753871	-2.998100	2.918900	-8.748700	28.690491	1.625370E-5	20.804910
2670.762751	-3.030800	2.916700	-8.839500	28.753223	1.740878E-5	20.827320
2671.753679	-2.973900	2.916800	-8.672900	28.732437	1.740878E-5	20.824875
2672.752179	-2.985900	2.914800	-8.702900	28.705432	1.770580E-5	20.835131
2673.756875	-3.041500	2.910800	-8.852300	28.651369	1.592367E-5	20.830465
2674.762287	-2.978600	2.911900	-8.672400	28.645224	1.625370E-5	20.830914
2675.760857	-2.997900	2.908900	-8.719100	28.693068	1.691374E-5	20.817937
2676.740361	-3.014700	2.906500	-8.761100	28.726070	1.612169E-5	20.835056
2677.739387	-3.007600	2.906600	-8.741100	28.759838	1.730977E-5	20.829716
2678.739352	-3.006100	2.903400	-8.727100	28.756122	1.674873E-5	20.827395
2679.741737	-2.983600	2.903400	-8.661300	28.729017	1.783781E-5	20.825698
2680.758908	-3.002500	2.899100	-8.703400	28.674857	1.684774E-5	20.817612
2681.763897	-3.007800	2.897800	-8.715300	28.740190	1.994997E-5	20.824624
2682.762227	-2.995600	2.896600	-8.675900	28.859847	1.862987E-5	20.828990
2683.742806	-3.012300	2.895200	-8.719600	28.909614	1.994997E-5	20.822702
2684.743070	-2.996600	2.893400	-8.669600	28.889103	1.961994E-5	20.833806
2685.742827	-3.006300	2.892200	-8.694000	28.879491	1.945493E-5	20.834555
2686.748411	-3.010300	2.889700	-8.697600	28.856254	1.569265E-5	20.837699
2687.771991	-2.961500	2.887500	-8.550200	28.839235	1.859687E-5	20.828141
2688.771897	-3.030600	2.884900	-8.741000	28.888260	1.823384E-5	20.811621
2689.761674	-3.014200	2.883600	-8.690500	28.937827	1.806883E-5	20.822202
2690.760150	-2.973700	2.882700	-8.571600	28.980629	1.783781E-5	20.824547
2691.761485	-2.984600	2.879300	-8.592900	28.934977	1.998297E-5	20.812693
2692.765253	-3.013900	2.878400	-8.674500	28.939510	1.889389E-5	20.835751
2693.762809	-3.009600	2.875600	-8.653900	28.943077	1.787081E-5	20.809948
2694.770231	-3.016700	2.874000	-8.668700	28.851274	1.796982E-5	20.812293
2695.777787	-2.985400	2.872700	-8.575500	28.876021	1.945493E-5	20.815412
2696.767613	-2.997800	2.871700	-8.608000	28.808069	1.770580E-5	20.825194
2697.750113	-3.030700	2.866900	-8.687800	28.862420	1.787081E-5	20.804556
2698.761933	-3.016400	2.865400	-8.642000	28.884790	1.800282E-5	20.833255
2699.779731	-3.006200	2.865600	-8.613200	28.915804	1.787081E-5	20.816136
2700.764977	-2.989100	2.863300	-8.556900	28.937428	1.783781E-5	20.806154
2701.764298	-2.997600	2.861600	-8.577300	28.887143	1.622069E-5	20.806703
2702.766399	-2.983400	2.860400	-8.532400	28.876714	1.820084E-5	20.813266
2703.747498	-3.005900	2.858200	-8.590500	28.879785	1.721077E-5	20.812567
2704.748385	-2.991100	2.856600	-8.543400	28.907357	1.820084E-5	20.799566
2705.749370	-3.020700	2.853400	-8.618500	28.957467	1.651772E-5	20.806428
2706.751797	-2.999500	2.851700	-8.552600	28.943347	1.711176E-5	20.811643
2707.749579	-2.994400	2.848900	-8.529800	28.958160	1.681474E-5	20.804281
2708.755250	-2.986400	2.847700	-8.503400	28.978494	1.638571E-5	20.805801
2709.756011	-3.016600	2.844600	-8.579500	29.017580	1.674873E-5	20.784964
2710.752062	-3.004400	2.843600	-8.542100	28.944089	1.658372E-5	20.810493
2711.755544	-2.984200	2.841700	-8.479100	28.881665	1.714476E-5	20.800710
2712.754986	-2.976700	2.839800	-8.452100	28.913273	1.688074E-5	20.819276
2713.753020	-2.972400	2.836300	-8.428900	28.975793	1.618769E-5	20.788855
2714.757684	-3.010700	2.833500	-8.530700	29.026717	1.509861E-5	20.793221
2715.755800	-2.993000	2.832100	-8.475500	28.974479	1.503261E-5	20.769039
2716.769273	-3.006100	2.828700	-8.502100	28.938214	1.476859E-5	20.797462
2717.752486	-2.998300	2.827800	-8.477900	28.886219	1.622069E-5	20.814781
2718.756773	-3.019600	2.825500	-8.530200	28.906283	1.717776E-5	20.791372
2719.751195	-2.989900	2.823600	-8.440300	28.972247	1.625370E-5	20.788602
2720.775022	-3.017100	2.819900	-8.507100	28.970413	1.770580E-5	20.797185
2721.771104	-3.030700	2.816200	-8.534700	29.020223	1.816784E-5	20.787153
2722.776575	-3.021900	2.815300	-8.506300	29.116717	1.757379E-5	20.798083
2723.779404	-3.026600	2.812300	-8.510900	29.053882	1.618769E-5	20.794513
2724.774069	-3.026200	2.810400	-8.503400	29.114586	1.615469E-5	20.792616
2725.757695	-2.976200	2.809400	-8.360100	29.142497	1.688074E-5	20.769532
2726.772911	-2.987400	2.805700	-8.380800	29.116442	1.562665E-5	20.792116
2727.777046	-2.967000	2.804900	-8.321600	29.102523	1.684774E-5	20.792789
2728.779425	-3.001600	2.800600	-8.405600	29.043106	1.589067E-5	20.785552
2729.773220	-2.987800	2.798800	-8.361300	29.040578	1.714476E-5	20.781109
2730.781559	-3.001400	2.796000	-8.391100	29.028838	1.585767E-5	20.771176
2731.778715	-2.985000	2.793100	-8.336600	29.076614	1.876188E-5	20.788020
2732.793995	-3.022800	2.790700	-8.435200	29.053357	1.754079E-5	20.764586
2733.760309	-2.997700	2.787200	-8.353300	29.042335	1.674873E-5	20.790465
2734.760745	-2.977000	2.785900	-8.292200	29.097788	1.645171E-5	20.778535
2735.763882	-3.007900	2.782300	-8.367900	29.193779	1.641871E-5	20.781854
2736.760917	-3.003300	2.779600	-8.347400	29.099967	1.820084E-5	20.784998
2737.760060	-2.995200	2.776400	-8.315200	29.074011	1.754079E-5	20.770698
2738.764473	-3.023900	2.774500	-8.387900	29.105737	1.625370E-5	20.743870
2739.761736	-3.003900	2.771200	-8.323500	29.159825	1.938893E-5	20.781304
2740.764358	-3.008600	2.768300	-8.327000	29.208562	1.879488E-5	20.771620
2741.764393	-3.021200	2.765000	-8.352600	29.293178	1.674873E-5	20.778184
2742.760650	-3.011000	2.761300	-8.313400	29.297807	1.730977E-5	20.780953
2743.783006	-2.983300	2.760000	-8.233600	29.315958	1.846486E-5	20.778382
2744.781968	-2.987500	2.757200	-8.236600	29.296891	1.919091E-5	20.770546
2745.761960	-3.014800	2.753000	-8.298600	29.292260	2.014798E-5	20.765879
2746.764222	-3.003000	2.749000	-8.253700	29.288521	1.846486E-5	20.779181
2747.764826	-3.024700	2.746000	-8.304800	29.210541	1.711176E-5	20.757493
2748.761855	-2.991400	2.743000	-8.203900	29.211260	2.041200E-5	20.790461
2749.781426	-2.986800	2.739800	-8.182500	29.312416	1.694675E-5	20.763907
2750.780442	-2.993800	2.737500	-8.194000	29.229015	2.057701E-5	20.770894
2751.778366	-3.003000	2.733000	-8.206400	29.235131	1.826684E-5	20.766153
2752.798530	-3.005400	2.728100	-8.198800	29.212695	1.823384E-5	20.773415
2753.762398	-3.011900	2.725500	-8.207700	29.228891	1.813483E-5	20.752752
2754.764557	-3.001000	2.724600	-8.176000	29.299118	1.843186E-5	20.788912
2755.764714	-2.997800	2.719300	-8.151400	29.385857	1.803583E-5	20.771069
2756.762763	-3.006100	2.714800	-8.159300	29.390685	1.955394E-5	20.766927
2757.765474	-2.994700	2.711900	-8.120400	29.433222	1.437256E-5	20.782301
2758.764676	-2.978900	2.708700	-8.068300	29.410691	1.889389E-5	20.768125
2759.765921	-3.032000	2.703500	-8.195800	29.404006	1.810183E-5	20.759964
2760.789963	-3.008500	2.699700	-8.121200	29.462388	1.763980E-5	20.759066
2761.785770	-2.986200	2.697600	-8.054900	29.508388	1.912491E-5	20.774140
2762.795995	-3.021500	2.691100	-8.130200	29.465507	1.810183E-5	20.780229
2763.771473	-3.003200	2.689300	-8.074500	29.416782	1.691374E-5	20.753876
2764.766443	-2.978600	2.685500	-7.997900	29.417228	1.849786E-5	20.752428
2765.766541	-2.993100	2.680600	-8.022100	29.409726	2.001597E-5	20.765256
2766.770752	-3.034300	2.675200	-8.115700	29.413119	1.839885E-5	20.769624
2767.765938	-2.995000	2.670700	-7.997800	29.405245	1.734278E-5	20.752204
2768.767205	-2.990700	2.667500	-7.976800	29.484969	2.064302E-5	20.782302
2769.766760	-3.007000	2.663500	-8.008400	29.525570	1.965295E-5	20.774865
2770.770302	-2.982700	2.659100	-7.930200	29.443523	1.952094E-5	20.744793
2771.766279	-2.977100	2.654200	-7.900100	29.423246	1.866287E-5	20.761813
2772.767725	-2.996100	2.649400	-7.936300	29.439562	1.909190E-5	20.779682
2773.793017	-3.048600	2.644100	-8.060100	29.479943	1.971895E-5	20.772494
2774.783276	-2.995400	2.640300	-7.907900	29.533617	1.780481E-5	20.764010
2775.793281	-2.984400	2.636100	-7.866700	29.529780	1.787081E-5	20.772944
2776.789827	-3.020200	2.629500	-7.940500	29.500171	2.044500E-5	20.747838
2777.784015	-3.017700	2.625000	-7.919600	29.444713	1.773881E-5	20.765433
2778.789572	-2.962000	2.622600	-7.767500	29.433399	2.166609E-5	20.787220
2779.800035	-2.995800	2.616000	-7.835600	29.495442	1.836585E-5	20.778635
2780.794544	-3.019000	2.611000	-7.881900	29.534361	2.004897E-5	20.779459
2781.787220	-3.011000	2.604900	-7.842500	29.550626	1.849786E-5	20.771672
2782.792425	-3.009800	2.601300	-7.828400	29.590532	1.968595E-5	20.782030
2783.805435	-3.007000	2.595100	-7.802900	29.617763	1.853086E-5	20.765859
2784.796492	-2.978600	2.589800	-7.713300	29.513046	1.938893E-5	20.797802
2785.791193	-3.011300	2.583900	-7.779800	29.528742	1.773881E-5	20.765260
2786.794292	-2.983400	2.577500	-7.688200	29.528891	2.103905E-5	20.791014
2787.770827	-3.007100	2.572800	-7.735600	29.591696	1.773881E-5	20.773720
2788.792508	-2.980100	2.566900	-7.648700	29.610139	1.800282E-5	20.773820
2789.806697	-3.003600	2.560500	-7.689200	29.587241	1.724377E-5	20.805739
2790.787947	-3.022000	2.554600	-7.718800	29.633631	1.902590E-5	20.781856
2791.790172	-2.986300	2.548500	-7.609400	29.600337	1.678173E-5	20.790017
2792.789825	-2.990000	2.541900	-7.599300	29.579295	1.971895E-5	20.768805
2793.773433	-2.975000	2.539400	-7.554200	29.537085	1.879488E-5	20.789792
2794.769773	-3.026100	2.530300	-7.656300	29.540874	1.879488E-5	20.795507
2795.798272	-2.996300	2.524400	-7.562600	29.569788	2.084103E-5	20.785774
2796.790242	-2.940800	2.520100	-7.410100	29.617789	1.829985E-5	20.784377
2797.809298	-2.990700	2.512800	-7.514300	29.647421	1.770580E-5	20.788171
2798.799520	-3.005800	2.506000	-7.531000	29.667520	1.886089E-5	20.778562
2799.799211	-3.002600	2.500000	-7.505600	29.668684	1.869588E-5	20.793486
