LabVIEW Measurement	
Writer_Version	2
Reader_Version	2
Separator	Tab
Decimal_Separator	.
Multi_Headings	No
X_Columns	One
Time_Pref	Absolute
Operator	admin
Description	Clolumns are: time, Current, Voltage, Power, Battery Temp, and Chamber Temp
Date	2024/08/16
Time	13:07:17.8513970375061035156
***End_of_Header***	
	
Channels	6						
Samples	1	1	1	1	1	1	
Date	2024/09/12	2024/09/12	2024/09/12	2024/09/12	2024/09/12	2024/09/12	
Time	19:02:19.6578397750854492187	19:02:19.6648511886596679687	19:02:19.669849395751953125	19:02:19.6418433189392089844	19:02:19.6418433189392089844	19:02:19.6418433189392089844	
X_Dimension	Time	Time	Time	Time	Time	Time	
X0	0.0000000000000000E+0	0.0000000000000000E+0	0.0000000000000000E+0	0.0000000000000000E+0	0.0000000000000000E+0	0.0000000000000000E+0	
Delta_X	1.000000	1.000000	1.000000	1.000000	1.000000	1.000000	
***End_of_Header***							
X_Value	Untitled	Untitled 1	Untitled 2	Untitled 3	Untitled 4	Untitled 5	Comment
0.000000	0.018791	4.085300	0.076795	20.777473	0.000462	20.815879
1.000730	-2.987500	3.915900	-11.697000	20.781539	0.000461	20.834644
2.000601	-2.997700	3.912000	-11.726000	20.777773	0.000461	20.841309
3.000891	-3.007900	3.905900	-11.748000	20.808941	0.000458	20.828381
4.002215	-3.003300	3.903400	-11.721000	20.793023	0.000459	20.834748
5.003512	-3.019300	3.898500	-11.769000	20.783091	0.000459	20.846152
6.000587	-3.023200	3.897300	-11.782000	20.801859	0.000459	20.832204
7.002944	-3.001300	3.896200	-11.692000	20.802333	0.000459	20.835523
8.002107	-3.000100	3.894200	-11.682000	20.798964	0.000456	20.837844
9.003016	-3.013700	3.891100	-11.726000	20.833428	0.000458	20.825367
10.002300	-2.985100	3.890300	-11.612000	20.828736	0.000457	20.840115
11.001528	-3.009700	3.887600	-11.700000	20.834952	0.000457	20.835426
12.001614	-3.020200	3.886300	-11.736000	20.860580	0.000455	20.842563
13.000950	-3.004700	3.886000	-11.675000	20.867119	0.000456	20.843886
14.000343	-3.000100	3.885400	-11.655000	20.841990	0.000456	20.850050
15.006640	-3.019100	3.883600	-11.724000	20.863825	0.000455	20.848178
16.002291	-3.019100	3.882400	-11.721000	20.888030	0.000453	20.819281
17.002562	-3.015300	3.881900	-11.705000	20.879898	0.000452	20.843390
18.004086	-3.025600	3.880900	-11.741000	20.904924	0.000454	20.833806
19.002780	-3.019500	3.881100	-11.718000	20.887081	0.000454	20.843936
20.003936	-2.997900	3.879600	-11.629000	20.881491	0.000454	20.847828
21.002836	-3.000900	3.878400	-11.638000	20.913133	0.000452	20.837273
22.002722	-2.997300	3.877700	-11.622000	20.918670	0.000452	20.842337
23.002872	-2.983400	3.878100	-11.569000	20.929798	0.000451	20.837819
24.004456	-3.004300	3.876500	-11.645000	20.931072	0.000452	20.831981
25.007405	-2.987000	3.876800	-11.579000	20.946491	0.000450	20.853565
26.018783	-2.983400	3.876700	-11.565000	20.951532	0.000452	20.872356
27.006336	-2.975300	3.877300	-11.535000	20.982995	0.000449	20.846453
28.005836	-2.993400	3.874700	-11.598000	20.964630	0.000452	20.847525
29.006770	-3.002200	3.873500	-11.628000	20.999935	0.000449	20.845378
30.007322	-2.993600	3.873600	-11.594000	20.977055	0.000449	20.842409
31.008975	-2.974700	3.874100	-11.523000	21.002702	0.000450	20.850516
32.010125	-3.009700	3.873300	-11.657000	21.028977	0.000447	20.863045
33.008193	-2.998900	3.871600	-11.610000	21.024209	0.000448	20.851164
34.010084	-3.002300	3.872800	-11.627000	21.040550	0.000445	20.844275
35.008506	-2.985000	3.872100	-11.557000	21.036733	0.000447	20.848992
36.012705	-3.014600	3.870000	-11.665000	21.059664	0.000446	20.862918
37.011202	-2.998800	3.871000	-11.607000	21.061634	0.000445	20.851613
38.011399	-3.022200	3.868000	-11.689000	21.067593	0.000447	20.854728
39.009766	-2.984900	3.871100	-11.554000	21.086932	0.000446	20.844201
40.010398	-3.034300	3.869500	-11.740000	21.062031	0.000447	20.863389
41.011079	-3.016300	3.868400	-11.667000	21.089900	0.000443	20.876091
42.012334	-3.011600	3.868200	-11.648000	21.097612	0.000445	20.876218
43.014582	-3.001700	3.868100	-11.610000	21.109884	0.000444	20.868580
44.012066	-2.975600	3.868400	-11.510000	21.124455	0.000444	20.869878
45.015136	-2.987700	3.868300	-11.556000	21.127150	0.000442	20.871626
46.012817	-2.979400	3.867700	-11.523000	21.157636	0.000445	20.867508
47.018374	-3.021000	3.867100	-11.681000	21.134911	0.000444	20.878440
48.014677	-3.001600	3.866800	-11.606000	21.152050	0.000443	20.887048
49.014553	-3.015800	3.867200	-11.661000	21.170638	0.000443	20.872453
50.015218	-2.995200	3.866500	-11.580000	21.163230	0.000445	20.882586
51.015703	-2.985800	3.866900	-11.544000	21.189049	0.000443	20.877119
52.018514	-3.009800	3.865600	-11.633000	21.207011	0.000444	20.857157
53.018028	-3.011800	3.866200	-11.643000	21.208383	0.000445	20.881287
54.017994	-2.982200	3.866800	-11.530000	21.212054	0.000446	20.872632
55.018834	-3.008800	3.864500	-11.627000	21.215298	0.000443	20.870187
56.020382	-3.001600	3.866200	-11.604000	21.220291	0.000443	20.874708
57.018703	-2.996900	3.864200	-11.579000	21.258531	0.000443	20.875978
58.018592	-2.992800	3.864600	-11.564000	21.260229	0.000445	20.866771
59.017955	-3.012600	3.864000	-11.640000	21.267366	0.000445	20.853998
60.018421	-3.012200	3.863400	-11.636000	21.261777	0.000444	20.883493
61.020663	-2.990100	3.863800	-11.553000	21.266864	0.000445	20.884314
62.022240	-2.982800	3.864500	-11.526000	21.277994	0.000446	20.883595
63.026159	-3.007200	3.862700	-11.616000	21.303984	0.000446	20.879724
64.020819	-3.009900	3.863200	-11.627000	21.304337	0.000444	20.880077
65.020911	-3.022600	3.863200	-11.676000	21.326262	0.000446	20.877831
66.020693	-3.011500	3.863300	-11.633000	21.327761	0.000446	20.886442
67.021078	-3.004400	3.864000	-11.608000	21.316836	0.000445	20.869349
68.028214	-3.000100	3.863400	-11.590000	21.340083	0.000447	20.878856
69.021976	-2.995800	3.862800	-11.571000	21.355775	0.000446	20.872271
70.021499	-3.001600	3.862500	-11.593000	21.379818	0.000447	20.877359
71.022515	-2.974400	3.863200	-11.490000	21.385282	0.000446	20.877610
72.025343	-3.021300	3.863400	-11.671000	21.374159	0.000448	20.881654
73.020720	-2.985700	3.862800	-11.531000	21.403018	0.000444	20.892983
74.026154	-2.990600	3.861100	-11.546000	21.392319	0.000445	20.890340
75.022996	-2.989300	3.861400	-11.543000	21.406087	0.000444	20.897950
76.022705	-2.993300	3.861900	-11.559000	21.429435	0.000447	20.885750
77.024850	-3.003800	3.862600	-11.602000	21.427666	0.000446	20.885403
78.024997	-2.999100	3.861200	-11.580000	21.430857	0.000444	20.891914
79.028784	-2.997500	3.860300	-11.570000	21.436122	0.000446	20.878691
80.025176	-2.991600	3.860300	-11.548000	21.440464	0.000447	20.906267
81.026479	-2.999100	3.860600	-11.578000	21.477576	0.000445	20.888873
82.026536	-2.995800	3.862000	-11.569000	21.464784	0.000446	20.891247
83.027805	-2.996000	3.860400	-11.564000	21.475510	0.000445	20.905296
84.027348	-2.996800	3.859000	-11.564000	21.480502	0.000444	20.889904
85.030714	-3.005300	3.859200	-11.597000	21.492002	0.000447	20.875333
86.027759	-2.993700	3.859700	-11.553000	21.495393	0.000446	20.915708
87.027168	-2.999500	3.859300	-11.575000	21.490731	0.000447	20.897294
88.026387	-3.027300	3.858800	-11.680000	21.511907	0.000445	20.896197
89.029233	-3.022900	3.857900	-11.661000	21.540514	0.000447	20.916286
90.026884	-3.018800	3.858500	-11.647000	21.528147	0.000448	20.914817
91.027426	-3.036300	3.857800	-11.713000	21.557102	0.000447	20.895903
92.028223	-2.979100	3.859400	-11.497000	21.566705	0.000449	20.895555
93.027802	-2.990400	3.858100	-11.536000	21.595011	0.000450	20.899224
94.029635	-2.981700	3.858100	-11.503000	21.570019	0.000449	20.899345
95.041131	-2.955400	3.858600	-11.402000	21.582317	0.000448	20.887471
96.028978	-2.970800	3.858400	-11.461000	21.574215	0.000448	20.917767
97.028576	-2.997500	3.856800	-11.560000	21.612196	0.000449	20.902196
98.028458	-2.995100	3.857900	-11.554000	21.594190	0.000451	20.900773
99.027763	-2.996100	3.858100	-11.558000	21.632424	0.000449	20.900627
100.029560	-2.988500	3.857100	-11.525000	21.633440	0.000452	20.897851
101.028339	-2.972600	3.857100	-11.464000	21.649128	0.000451	20.918765
102.031082	-2.979900	3.856000	-11.490000	21.635536	0.000453	20.913698
103.029840	-2.999500	3.856500	-11.567000	21.658629	0.000452	20.899351
104.029979	-3.016000	3.856200	-11.629000	21.658904	0.000450	20.920487
105.032693	-3.013600	3.856200	-11.620000	21.675587	0.000453	20.912053
106.029254	-3.015800	3.854300	-11.623000	21.682043	0.000453	20.904291
107.029721	-2.999100	3.855600	-11.563000	21.687877	0.000453	20.904439
108.030150	-3.011800	3.854500	-11.608000	21.688500	0.000452	20.920708
109.029681	-2.980600	3.855000	-11.490000	21.706600	0.000453	20.918908
110.031653	-3.014700	3.855000	-11.621000	21.709468	0.000454	20.926044
111.031665	-2.976100	3.856100	-11.475000	21.705476	0.000455	20.900715
112.029078	-2.981200	3.855400	-11.493000	21.723427	0.000451	20.929583
113.033030	-2.987000	3.855100	-11.514000	21.729438	0.000454	20.920901
114.035194	-2.987700	3.855300	-11.517000	21.752652	0.000454	20.923745
115.031321	-3.008800	3.854200	-11.596000	21.745042	0.000453	20.927982
116.033919	-3.001300	3.853800	-11.566000	21.744868	0.000451	20.931601
117.032075	-3.001000	3.854100	-11.566000	21.765884	0.000454	20.919445
118.032092	-2.989900	3.854700	-11.525000	21.772319	0.000454	20.919247
119.033302	-3.013800	3.853400	-11.613000	21.777502	0.000456	20.928701
120.038781	-3.004900	3.854000	-11.580000	21.775883	0.000455	20.910013
121.032393	-2.993300	3.853700	-11.535000	21.770098	0.000454	20.903276
122.032428	-2.998900	3.853500	-11.556000	21.808097	0.000454	20.945570
123.032311	-3.013000	3.852100	-11.605000	21.827443	0.000453	20.908987
124.031641	-3.020100	3.852600	-11.634000	21.807646	0.000454	20.909561
125.031930	-3.021400	3.853400	-11.641000	21.843696	0.000455	20.928097
126.033399	-3.009100	3.854000	-11.596000	21.852099	0.000458	20.932240
127.033144	-2.993600	3.852500	-11.532000	21.855487	0.000456	20.921882
128.034224	-3.012200	3.852300	-11.603000	21.840253	0.000455	20.916592
129.035815	-2.984700	3.853100	-11.499000	21.878277	0.000455	20.902022
130.035207	-3.000000	3.851900	-11.553000	21.876856	0.000454	20.936631
131.032848	-2.991100	3.852100	-11.522000	21.879497	0.000456	20.907984
132.035187	-2.996100	3.852300	-11.541000	21.886804	0.000456	20.910556
133.034030	-3.006600	3.852900	-11.583000	21.907699	0.000457	20.908237
134.034811	-3.009400	3.851700	-11.590000	21.916820	0.000456	20.886550
135.033276	-2.996600	3.851700	-11.541000	21.936490	0.000457	20.904814
136.034629	-3.003100	3.850700	-11.563000	21.934421	0.000457	20.902744
137.036165	-3.009400	3.851400	-11.589000	21.927467	0.000456	20.898154
138.038608	-3.009700	3.851000	-11.589000	21.919591	0.000456	20.902598
139.036550	-3.024200	3.849100	-11.639000	21.927071	0.000459	20.874052
140.036416	-3.008200	3.851400	-11.585000	21.941405	0.000460	20.901200
141.040682	-3.033400	3.849900	-11.678000	21.961776	0.000455	20.890773
142.035916	-3.014000	3.849500	-11.602000	21.972820	0.000458	20.901826
143.039380	-2.989400	3.850600	-11.509000	21.999122	0.000459	20.894491
144.035038	-2.988500	3.850300	-11.506000	21.988652	0.000458	20.904872
145.035350	-2.988100	3.849100	-11.500000	22.018142	0.000459	20.898832
146.041191	-2.989500	3.848500	-11.504000	22.021312	0.000460	20.891575
147.042602	-2.988000	3.849400	-11.502000	22.035196	0.000457	20.877026
148.037916	-2.993900	3.850000	-11.525000	22.014507	0.000460	20.871014
149.037372	-2.986800	3.849100	-11.496000	22.037865	0.000460	20.889179
150.036225	-3.003300	3.848200	-11.557000	22.021089	0.000459	20.884714
151.036339	-2.993400	3.847900	-11.517000	22.039839	0.000461	20.881673
152.038343	-2.996100	3.850000	-11.533000	22.060555	0.000461	20.893402
153.035938	-2.988400	3.847600	-11.496000	22.050482	0.000462	20.867199
154.040431	-3.016600	3.848100	-11.607000	22.074588	0.000461	20.892752
155.048124	-3.003800	3.848600	-11.558000	22.074244	0.000460	20.887192
156.037995	-3.008500	3.848300	-11.577000	22.103658	0.000460	20.888190
157.038732	-2.998400	3.847500	-11.536000	22.110063	0.000461	20.882274
158.038461	-2.979700	3.848600	-11.467000	22.111409	0.000464	20.876036
159.042185	-2.969600	3.847900	-11.425000	22.102634	0.000465	20.870096
160.039082	-2.999400	3.846800	-11.537000	22.110861	0.000464	20.876436
161.038747	-3.020600	3.845800	-11.616000	22.134891	0.000464	20.879631
162.037962	-3.018100	3.844400	-11.602000	22.154807	0.000463	20.869699
163.040158	-3.005200	3.846200	-11.558000	22.145759	0.000466	20.882451
164.043398	-3.027000	3.845100	-11.638000	22.134594	0.000466	20.878385
165.040716	-2.977800	3.846000	-11.451000	22.136888	0.000466	20.885897
166.039606	-3.003700	3.845800	-11.551000	22.127487	0.000467	20.868426
167.038826	-2.992400	3.846400	-11.509000	22.141073	0.000465	20.879182
168.040770	-2.989800	3.845300	-11.496000	22.190054	0.000468	20.868004
169.041306	-3.014700	3.843700	-11.586000	22.196931	0.000466	20.874416
170.041803	-3.002000	3.844700	-11.541000	22.219886	0.000467	20.878432
171.040872	-3.013700	3.843900	-11.583000	22.228859	0.000468	20.874614
172.042428	-3.013200	3.844000	-11.582000	22.232771	0.000469	20.854351
173.042887	-3.007000	3.843600	-11.557000	22.257473	0.000469	20.865807
174.042364	-2.983600	3.845800	-11.473000	22.275190	0.000469	20.878804
175.042547	-3.011500	3.843200	-11.573000	22.271726	0.000468	20.894775
176.047082	-2.977700	3.844800	-11.448000	22.253657	0.000467	20.870995
177.043375	-3.005700	3.844400	-11.555000	22.275462	0.000468	20.880025
178.045250	-3.019400	3.843400	-11.604000	22.286233	0.000470	20.873266
179.044586	-3.021000	3.842700	-11.607000	22.280974	0.000469	20.862312
180.046343	-2.997800	3.843300	-11.520000	22.289768	0.000467	20.860211
181.047570	-3.001100	3.844400	-11.536000	22.291392	0.000469	20.877484
182.045357	-3.015400	3.842600	-11.586000	22.283590	0.000469	20.874887
183.047951	-2.983800	3.842600	-11.464000	22.305573	0.000468	20.858968
184.047095	-2.983000	3.843800	-11.465000	22.298000	0.000468	20.865609
185.048220	-3.007300	3.842100	-11.553000	22.305973	0.000469	20.881177
186.047578	-2.992000	3.840900	-11.491000	22.325613	0.000471	20.854852
187.046573	-2.999100	3.841400	-11.520000	22.338373	0.000471	20.858147
188.046629	-3.024300	3.840800	-11.615000	22.343133	0.000471	20.852482
189.048305	-3.009300	3.840500	-11.556000	22.313304	0.000471	20.864812
190.046911	-2.987000	3.841100	-11.472000	22.325368	0.000469	20.861719
191.050008	-2.991000	3.839900	-11.484000	22.350115	0.000471	20.872274
192.048100	-3.003800	3.840900	-11.537000	22.389716	0.000472	20.859773
193.058027	-3.002000	3.840500	-11.528000	22.358093	0.000473	20.861297
194.051426	-2.988800	3.841100	-11.479000	22.379224	0.000472	20.858276
195.047879	-2.995800	3.840100	-11.503000	22.390941	0.000470	20.865741
196.059522	-2.978900	3.840800	-11.440000	22.383816	0.000472	20.848176
197.049194	-2.983400	3.840900	-11.458000	22.383395	0.000474	20.852496
198.050040	-2.999400	3.839700	-11.515000	22.400642	0.000474	20.851749
199.051076	-2.996500	3.840900	-11.509000	22.425811	0.000474	20.862254
200.050788	-3.003700	3.839800	-11.533000	22.445273	0.000474	20.858037
201.051156	-3.005600	3.839800	-11.540000	22.449763	0.000474	20.851154
202.055627	-2.999400	3.838000	-11.511000	22.482683	0.000476	20.858991
203.051342	-2.998000	3.837700	-11.505000	22.479269	0.000474	20.853676
204.051727	-2.997300	3.838700	-11.505000	22.488169	0.000476	20.851209
205.054536	-3.013700	3.837400	-11.564000	22.478675	0.000478	20.856400
206.051045	-3.004900	3.836900	-11.529000	22.483286	0.000475	20.836836
207.052420	-2.992900	3.838600	-11.488000	22.473296	0.000475	20.837738
208.052597	-3.020500	3.836800	-11.588000	22.492284	0.000478	20.853434
209.051970	-3.014300	3.837300	-11.566000	22.476514	0.000477	20.866089
210.052528	-3.003200	3.837600	-11.524000	22.502554	0.000477	20.863718
211.052562	-2.995400	3.836800	-11.491000	22.495034	0.000480	20.839593
212.055221	-2.994100	3.837400	-11.488000	22.519552	0.000479	20.840913
213.056558	-3.013100	3.837100	-11.560000	22.516491	0.000480	20.849227
214.054475	-3.019500	3.836500	-11.583000	22.510633	0.000479	20.843361
215.054507	-2.998400	3.836500	-11.502000	22.510735	0.000479	20.851050
216.053569	-3.016600	3.835700	-11.570000	22.523846	0.000481	20.851852
217.054627	-2.993200	3.837000	-11.483000	22.551079	0.000483	20.844040
218.056843	-2.992600	3.837200	-11.483000	22.573308	0.000481	20.856819
219.055269	-3.017300	3.834700	-11.569000	22.570941	0.000481	20.844018
220.057332	-2.995900	3.834900	-11.488000	22.570517	0.000484	20.844067
221.057475	-2.998100	3.836000	-11.500000	22.586591	0.000484	20.838356
222.057331	-2.962500	3.835500	-11.362000	22.594064	0.000483	20.838254
223.060662	-2.988300	3.835900	-11.462000	22.604906	0.000484	20.822086
224.058139	-3.000400	3.834400	-11.504000	22.622422	0.000484	20.854328
225.059947	-2.985600	3.834400	-11.447000	22.639736	0.000486	20.838954
226.058067	-2.998800	3.834000	-11.496000	22.631964	0.000483	20.831644
227.059413	-2.998700	3.833100	-11.493000	22.636249	0.000485	20.833091
228.060954	-2.984200	3.834600	-11.443000	22.649628	0.000485	20.828948
229.061351	-3.010300	3.832500	-11.536000	22.620154	0.000485	20.814599
230.063410	-2.982600	3.832100	-11.429000	22.649900	0.000487	20.849608
231.059987	-3.006800	3.832400	-11.522000	22.651320	0.000487	20.825901
232.061979	-3.004500	3.833000	-11.515000	22.666617	0.000487	20.830317
233.059227	-2.993700	3.833200	-11.475000	22.658322	0.000489	20.840026
234.065553	-3.020300	3.831900	-11.572000	22.641052	0.000486	20.837427
235.062284	-2.986000	3.832400	-11.443000	22.648477	0.000489	20.825898
236.066435	-3.003000	3.831500	-11.503000	22.674359	0.000487	20.825744
237.064672	-3.002500	3.830700	-11.501000	22.698451	0.000489	20.818108
238.065053	-3.003800	3.832300	-11.510000	22.678916	0.000489	20.845955
239.067976	-3.019900	3.830500	-11.567000	22.698724	0.000489	20.825967
240.065895	-3.000200	3.830800	-11.492000	22.698671	0.000489	20.827337
241.066216	-3.016000	3.829300	-11.549000	22.701685	0.000489	20.834623
242.069962	-2.992400	3.831500	-11.464000	22.691367	0.000493	20.811486
243.070423	-2.976800	3.832300	-11.407000	22.704473	0.000492	20.858751
244.070810	-2.967400	3.831200	-11.367000	22.707013	0.000491	20.828580
245.069006	-3.000200	3.829900	-11.490000	22.703798	0.000491	20.815877
246.067408	-2.971200	3.829300	-11.377000	22.710797	0.000494	20.839957
247.068456	-2.992800	3.829400	-11.459000	22.714531	0.000493	20.816671
248.067189	-2.960800	3.830000	-11.339000	22.725289	0.000492	20.835507
249.070992	-2.996800	3.830400	-11.478000	22.736949	0.000493	20.836756
250.068472	-3.020600	3.827300	-11.560000	22.741033	0.000493	20.827571
251.069294	-3.003900	3.828500	-11.499000	22.758272	0.000494	20.832511
252.071672	-3.014700	3.829200	-11.543000	22.783381	0.000494	20.834429
253.070156	-3.008900	3.828000	-11.517000	22.801617	0.000495	20.820930
254.077571	-3.010500	3.828900	-11.526000	22.808120	0.000493	20.834556
255.071102	-2.992000	3.828400	-11.454000	22.808390	0.000494	20.846679
256.072107	-3.000300	3.827700	-11.483000	22.818357	0.000492	20.832009
257.071969	-2.995500	3.827400	-11.464000	22.829441	0.000495	20.810397
258.074572	-2.995600	3.828200	-11.467000	22.794988	0.000491	20.816660
259.074004	-3.000600	3.827200	-11.482000	22.818830	0.000494	20.821578
260.076730	-3.022000	3.826800	-11.564000	22.842691	0.000496	20.822722
261.073274	-3.010100	3.825400	-11.514000	22.838781	0.000493	20.830658
262.074683	-3.010400	3.825900	-11.517000	22.852757	0.000495	20.816211
263.076338	-2.999600	3.825700	-11.475000	22.860803	0.000495	20.835176
264.076183	-3.009400	3.825600	-11.511000	22.856942	0.000496	20.826093
265.077557	-2.991800	3.825700	-11.444000	22.833175	0.000496	20.826465
266.076326	-3.001700	3.825500	-11.482000	22.871114	0.000497	20.798091
267.076561	-2.999800	3.825800	-11.475000	22.858139	0.000496	20.815439
268.076159	-3.013500	3.824900	-11.525000	22.869171	0.000498	20.815585
269.076895	-3.013300	3.824500	-11.523000	22.891892	0.000498	20.816536
270.079600	-2.993800	3.824700	-11.449000	22.923081	0.000497	20.805109
271.079819	-2.992400	3.824200	-11.443000	22.923026	0.000496	20.818330
272.076967	-2.999600	3.824300	-11.470000	22.937700	0.000498	20.831609
273.077140	-2.995800	3.822500	-11.451000	22.965972	0.000497	20.803985
274.079002	-3.023600	3.822900	-11.558000	22.966495	0.000499	20.823000
275.078291	-2.971000	3.824500	-11.362000	22.956782	0.000497	20.831761
276.079635	-2.976500	3.823900	-11.381000	22.963581	0.000499	20.792580
277.077536	-3.030500	3.820900	-11.579000	22.944103	0.000499	20.832808
278.076108	-3.024900	3.821600	-11.559000	22.939621	0.000498	20.822154
279.079897	-3.018500	3.821600	-11.534000	22.973222	0.000498	20.807930
280.077852	-3.027600	3.821400	-11.568000	22.982492	0.000500	20.806786
281.081013	-2.985000	3.821200	-11.405000	22.957632	0.000500	20.804638
282.078949	-2.982700	3.821200	-11.396000	22.966525	0.000500	20.811651
283.079251	-2.995400	3.820300	-11.442000	22.987747	0.000500	20.810154
284.078520	-2.992700	3.821000	-11.435000	23.023740	0.000502	20.799277
285.078109	-2.999400	3.819700	-11.456000	23.025955	0.000499	20.795332
286.079752	-2.994600	3.820500	-11.440000	23.014873	0.000502	20.799875
287.086246	-3.000900	3.819700	-11.462000	23.009720	0.000500	20.827428
288.080191	-2.989400	3.819800	-11.418000	23.016920	0.000502	20.811883
289.078452	-2.994600	3.820300	-11.439000	23.027006	0.000501	20.809187
290.082103	-2.988200	3.819800	-11.414000	23.042997	0.000503	20.785380
291.078870	-3.006900	3.818700	-11.481000	23.036471	0.000502	20.817247
292.079074	-3.009700	3.819400	-11.494000	23.009076	0.000503	20.795015
293.083286	-3.001400	3.819900	-11.465000	23.010075	0.000505	20.796016
294.080755	-3.015800	3.817600	-11.513000	23.011492	0.000505	20.815453
295.081020	-3.004600	3.818500	-11.472000	23.019564	0.000505	20.811213
296.081357	-3.033500	3.817600	-11.580000	23.021729	0.000505	20.781614
297.082675	-3.002800	3.818300	-11.464000	23.049473	0.000506	20.789499
298.082098	-3.002900	3.819200	-11.467000	23.038169	0.000507	20.780068
299.082119	-3.013100	3.817300	-11.501000	23.064019	0.000509	20.799332
300.083326	-2.989000	3.819400	-11.416000	23.103171	0.000507	20.790199
301.083642	-3.012300	3.815200	-11.492000	23.084092	0.000507	20.766813
302.082535	-2.992600	3.817600	-11.424000	23.110041	0.000505	20.792341
303.085485	-2.983700	3.816900	-11.387000	23.110539	0.000507	20.786676
304.083829	-2.991400	3.816600	-11.416000	23.121818	0.000508	20.793711
305.084481	-2.997800	3.815900	-11.438000	23.137353	0.000509	20.796950
306.084255	-3.009900	3.815600	-11.484000	23.137183	0.000507	20.811478
307.083743	-2.982900	3.816200	-11.383000	23.148338	0.000509	20.783301
308.087668	-2.983700	3.814900	-11.382000	23.125746	0.000509	20.792431
309.087494	-3.005700	3.815200	-11.466000	23.139144	0.000510	20.786416
310.087395	-3.002300	3.816000	-11.456000	23.118324	0.000511	20.788313
311.087709	-3.013500	3.814300	-11.493000	23.142877	0.000511	20.791105
312.088560	-2.985400	3.816200	-11.392000	23.189421	0.000510	20.776580
313.091029	-2.990500	3.814500	-11.407000	23.156770	0.000511	20.791750
314.092388	-2.999100	3.813500	-11.436000	23.185008	0.000512	20.798711
315.089475	-2.993700	3.815500	-11.421000	23.169941	0.000512	20.773655
316.089361	-3.002800	3.813500	-11.450000	23.158063	0.000510	20.779295
317.091079	-3.018100	3.812700	-11.506000	23.167223	0.000512	20.788475
318.089455	-2.989400	3.814100	-11.401000	23.201241	0.000515	20.777994
319.092685	-2.987500	3.813400	-11.391000	23.207689	0.000514	20.768808
320.089083	-2.992000	3.813600	-11.409000	23.206916	0.000514	20.779414
321.090057	-2.997200	3.811100	-11.422000	23.209604	0.000513	20.769779
322.089752	-2.967100	3.813600	-11.314000	23.178447	0.000514	20.772695
323.090187	-3.000500	3.811200	-11.434000	23.195904	0.000515	20.784026
324.091635	-2.992300	3.812700	-11.407000	23.191195	0.000512	20.771719
325.091126	-3.000000	3.811200	-11.432000	23.198190	0.000514	20.796748
326.091157	-3.003200	3.810400	-11.442000	23.215647	0.000516	20.792905
327.096016	-3.011500	3.810300	-11.473000	23.206977	0.000515	20.790380
328.091834	-3.002200	3.811700	-11.443000	23.255732	0.000517	20.784712
329.095688	-2.998400	3.810500	-11.424000	23.279886	0.000517	20.785685
330.093015	-3.012600	3.811600	-11.482000	23.276126	0.000515	20.768640
331.093789	-2.985700	3.810700	-11.377000	23.285984	0.000517	20.776149
332.092140	-3.023400	3.810000	-11.518000	23.265811	0.000517	20.782010
333.094058	-2.974800	3.811200	-11.337000	23.290834	0.000517	20.790967
334.102678	-3.014200	3.807900	-11.476000	23.327310	0.000517	20.787220
335.095190	-3.005300	3.808300	-11.444000	23.315955	0.000517	20.754029
336.094986	-2.981900	3.810600	-11.362000	23.350711	0.000518	20.765630
337.093850	-2.990300	3.808800	-11.388000	23.354147	0.000518	20.775711
338.094600	-3.004100	3.807000	-11.436000	23.376401	0.000519	20.799438
339.094357	-2.976300	3.808200	-11.333000	23.371444	0.000518	20.796841
340.095877	-3.002600	3.807400	-11.431000	23.404010	0.000517	20.773056
341.094996	-2.993900	3.808500	-11.401000	23.423628	0.000518	20.803152
342.094719	-2.978100	3.807800	-11.339000	23.446431	0.000516	20.792343
343.096070	-3.021700	3.807800	-11.504000	23.434552	0.000519	20.778065
344.097166	-2.986500	3.808500	-11.373000	23.411471	0.000519	20.784329
345.098337	-2.999200	3.808000	-11.420000	23.390280	0.000518	20.781580
346.098335	-2.984200	3.808200	-11.363000	23.392744	0.000518	20.765084
347.097637	-3.002400	3.805100	-11.423000	23.394059	0.000519	20.802438
348.096809	-3.011100	3.806100	-11.459000	23.389325	0.000519	20.797219
349.097392	-3.001500	3.805600	-11.421000	23.407176	0.000519	20.795670
350.096422	-3.017300	3.805300	-11.481000	23.407497	0.000519	20.782242
351.097439	-3.026400	3.804400	-11.512000	23.435680	0.000518	20.786308
352.099122	-3.008900	3.805800	-11.450000	23.462592	0.000520	20.789101
353.096325	-3.005500	3.805800	-11.437000	23.493586	0.000518	20.788401
354.097708	-3.031700	3.803500	-11.530000	23.506504	0.000517	20.767210
355.099125	-3.012800	3.804300	-11.461000	23.473265	0.000519	20.789843
356.100564	-3.008700	3.803600	-11.442000	23.454666	0.000519	20.773096
357.099051	-2.988800	3.803700	-11.368000	23.424440	0.000516	20.786422
358.098526	-2.993900	3.802700	-11.384000	23.427179	0.000517	20.786797
359.097537	-3.012200	3.803300	-11.455000	23.444055	0.000518	20.783323
360.098514	-3.032100	3.802800	-11.530000	23.463747	0.000519	20.779354
361.098263	-2.983900	3.803600	-11.349000	23.470796	0.000519	20.784048
362.102454	-2.987100	3.802800	-11.357000	23.483491	0.000522	20.770695
363.101480	-2.997800	3.802200	-11.398000	23.488593	0.000519	20.758264
364.100496	-2.979800	3.802600	-11.329000	23.474998	0.000519	20.788735
365.103343	-2.989500	3.801500	-11.363000	23.477515	0.000521	20.768023
366.104943	-3.010300	3.801800	-11.444000	23.493944	0.000519	20.797295
367.105090	-3.009200	3.801800	-11.439000	23.531761	0.000520	20.800115
368.102615	-3.005600	3.801900	-11.426000	23.521058	0.000523	20.778480
369.101890	-3.001200	3.800400	-11.405000	23.545776	0.000522	20.782394
370.105009	-2.995500	3.802600	-11.390000	23.532883	0.000522	20.797446
371.103471	-3.031900	3.800000	-11.520000	23.512417	0.000522	20.801587
372.104608	-3.015000	3.801200	-11.460000	23.535895	0.000521	20.774860
373.109273	-3.005100	3.799900	-11.418000	23.521954	0.000522	20.781275
374.104496	-3.004600	3.800200	-11.416000	23.535895	0.000522	20.761584
375.105528	-3.007400	3.798400	-11.423000	23.552351	0.000522	20.782822
376.105440	-3.004800	3.798100	-11.411000	23.579540	0.000523	20.793956
377.104999	-2.993100	3.798400	-11.368000	23.539882	0.000522	20.766055
378.106803	-2.993800	3.798700	-11.372000	23.540259	0.000523	20.800098
379.104139	-3.009200	3.798900	-11.430000	23.559228	0.000522	20.798725
380.106223	-3.009300	3.797900	-11.428000	23.548770	0.000522	20.777336
381.106606	-3.000300	3.798400	-11.395000	23.548124	0.000523	20.784748
382.106363	-3.004000	3.798200	-11.409000	23.561695	0.000526	20.769429
383.109242	-3.012000	3.797000	-11.436000	23.560848	0.000524	20.774744
384.111194	-3.006600	3.798500	-11.420000	23.574763	0.000524	20.786797
385.114213	-3.025800	3.797400	-11.489000	23.555397	0.000525	20.777341
386.109289	-3.028800	3.795100	-11.494000	23.592093	0.000522	20.780462
387.109765	-3.015600	3.796900	-11.449000	23.589778	0.000525	20.765812
388.111702	-2.998200	3.796100	-11.379000	23.572750	0.000523	20.788572
389.112525	-3.017400	3.795700	-11.452000	23.582259	0.000524	20.790992
390.109739	-3.001600	3.794600	-11.389000	23.632893	0.000526	20.791965
391.109517	-3.002900	3.795700	-11.397000	23.637345	0.000528	20.785049
392.111153	-3.010600	3.795400	-11.425000	23.626494	0.000526	20.801672
393.110409	-3.011500	3.795400	-11.428000	23.662711	0.000527	20.793884
394.110733	-2.990700	3.794100	-11.346000	23.653448	0.000527	20.784123
395.110799	-3.001500	3.795300	-11.391000	23.660864	0.000530	20.797248
396.111276	-3.001900	3.794900	-11.392000	23.659398	0.000528	20.780605
397.111688	-3.003900	3.794600	-11.398000	23.700094	0.000528	20.795800
398.112211	-2.986400	3.793400	-11.327000	23.745223	0.000527	20.797898
399.114786	-2.988200	3.794800	-11.339000	23.712390	0.000526	20.800542
400.115586	-3.023700	3.791800	-11.463000	23.684883	0.000529	20.773438
401.113344	-2.983900	3.793200	-11.318000	23.692725	0.000528	20.770868
402.114095	-3.015500	3.792200	-11.435000	23.710369	0.000527	20.798516
403.114758	-3.015600	3.792600	-11.436000	23.727098	0.000528	20.797744
404.117171	-3.018200	3.792100	-11.444000	23.741904	0.000530	20.805477
405.114194	-3.003400	3.792000	-11.388000	23.735930	0.000528	20.783839
406.114532	-2.988300	3.790500	-11.327000	23.710191	0.000528	20.803078
407.114455	-3.018700	3.791100	-11.444000	23.682713	0.000529	20.789755
408.115103	-3.007400	3.791600	-11.401000	23.702423	0.000529	20.776324
409.117608	-2.990400	3.792600	-11.341000	23.690850	0.000530	20.785110
410.116828	-3.008700	3.790000	-11.402000	23.710886	0.000528	20.787180
411.116788	-3.016700	3.790200	-11.433000	23.726119	0.000531	20.793918
412.117327	-3.017100	3.788800	-11.429000	23.726614	0.000533	20.803897
413.117037	-3.010300	3.788300	-11.404000	23.753049	0.000532	20.798158
414.118000	-3.004000	3.790400	-11.385000	23.803424	0.000532	20.789871
415.122388	-2.981100	3.790600	-11.299000	23.788063	0.000532	20.803393
416.117719	-2.988100	3.789500	-11.323000	23.814048	0.000532	20.800997
417.118171	-2.968600	3.788900	-11.246000	23.815090	0.000533	20.800620
418.118752	-3.022100	3.788700	-11.449000	23.825543	0.000532	20.806359
419.118068	-2.990300	3.788300	-11.327000	23.849984	0.000532	20.804314
420.120861	-2.990000	3.788000	-11.326000	23.830220	0.000533	20.794453
421.118462	-3.008600	3.787200	-11.393000	23.822475	0.000533	20.782895
422.119100	-2.984300	3.788000	-11.303000	23.823619	0.000535	20.802533
423.120927	-3.004000	3.787200	-11.375000	23.805798	0.000533	20.785613
424.119139	-2.975500	3.787300	-11.269000	23.814458	0.000535	20.822271
425.120458	-2.992000	3.787100	-11.330000	23.839370	0.000533	20.801731
426.119417	-2.978800	3.785800	-11.277000	23.864930	0.000534	20.829731
427.119082	-3.002300	3.786700	-11.368000	23.861568	0.000535	20.794592
428.119163	-3.021300	3.784400	-11.433000	23.863759	0.000535	20.812910
429.119678	-3.015400	3.784600	-11.410000	23.831821	0.000536	20.811231
430.121361	-3.019900	3.784700	-11.428000	23.852529	0.000534	20.807813
431.122720	-3.007500	3.783900	-11.379000	23.887095	0.000536	20.834886
432.120960	-3.019200	3.784100	-11.423000	23.917308	0.000536	20.818242
433.121227	-3.005800	3.783900	-11.373000	23.942316	0.000535	20.795905
434.121133	-3.001100	3.784800	-11.357000	23.912975	0.000535	20.811053
435.120589	-3.013100	3.783300	-11.398000	23.894952	0.000536	20.807679
436.123543	-3.001400	3.783000	-11.353000	23.883205	0.000535	20.807753
437.121182	-3.003700	3.783900	-11.364000	23.878774	0.000536	20.821801
438.119886	-2.998600	3.784100	-11.347000	23.871279	0.000539	20.821873
439.122656	-3.027000	3.781400	-11.446000	23.862919	0.000537	20.822499
440.121038	-2.996300	3.784000	-11.337000	23.896987	0.000536	20.813986
441.129476	-2.980700	3.783600	-11.277000	23.858982	0.000533	20.826612
442.124454	-2.971500	3.782800	-11.240000	23.887827	0.000536	20.838940
443.125079	-3.014500	3.781100	-11.397000	23.918236	0.000535	20.820595
444.125074	-2.993900	3.781600	-11.321000	23.900691	0.000536	20.812010
445.125403	-3.002600	3.781600	-11.353000	23.914799	0.000536	20.810037
446.125443	-3.040300	3.780400	-11.492000	23.968381	0.000537	20.818723
447.129526	-3.011000	3.781000	-11.384000	23.970069	0.000537	20.819942
448.124602	-3.022400	3.780200	-11.423000	23.973302	0.000537	20.807537
449.131166	-2.998700	3.779600	-11.333000	24.004434	0.000538	20.829747
450.127147	-3.025400	3.779300	-11.433000	24.008513	0.000540	20.819614
451.125286	-2.984500	3.780700	-11.283000	24.003015	0.000539	20.822635
452.127835	-2.997700	3.779000	-11.327000	23.987110	0.000539	20.835134
453.125835	-3.001200	3.778900	-11.340000	24.007689	0.000540	20.824477
454.125549	-2.999200	3.779000	-11.333000	24.004827	0.000538	20.791736
455.127475	-2.980100	3.778100	-11.258000	23.986038	0.000539	20.819835
456.124874	-2.994600	3.779900	-11.319000	23.997010	0.000538	20.819931
457.136919	-3.003800	3.778100	-11.347000	24.016667	0.000539	20.847230
458.125035	-2.987200	3.777400	-11.283000	23.998101	0.000537	20.834302
459.126011	-2.995100	3.777900	-11.313000	24.047520	0.000538	20.821274
460.125905	-2.957200	3.778200	-11.172000	24.047045	0.000540	20.841186
461.126102	-2.985800	3.777800	-11.279000	24.077003	0.000540	20.838040
462.125515	-3.002200	3.776700	-11.338000	24.087080	0.000538	20.831077
463.128028	-3.001400	3.776100	-11.333000	24.057397	0.000538	20.832602
464.127125	-2.974600	3.777300	-11.236000	24.056548	0.000540	20.829853
465.125747	-3.007400	3.775600	-11.354000	24.028777	0.000540	20.829978
466.128877	-3.005200	3.776200	-11.347000	24.047587	0.000536	20.831772
467.126852	-3.009200	3.775600	-11.360000	24.036886	0.000541	20.821515
468.129980	-3.015200	3.774600	-11.380000	24.044797	0.000539	20.822337
469.131764	-2.994100	3.775800	-11.304000	24.056194	0.000540	20.839929
470.128395	-3.011100	3.775400	-11.367000	24.041834	0.000538	20.827900
471.129982	-3.005900	3.773300	-11.342000	24.025608	0.000541	20.833912
472.128179	-3.023400	3.772600	-11.405000	24.041609	0.000540	20.839053
473.132151	-3.003800	3.772600	-11.331000	24.060144	0.000539	20.840098
474.127978	-3.002800	3.773300	-11.330000	24.097917	0.000539	20.842419
475.128443	-3.005500	3.773100	-11.339000	24.087714	0.000539	20.844514
476.127747	-3.002500	3.773200	-11.328000	24.053572	0.000540	20.844887
477.128620	-2.990500	3.773300	-11.283000	24.064867	0.000542	20.851947
478.129885	-3.010500	3.773100	-11.358000	24.097164	0.000541	20.855889
479.130456	-3.016700	3.772900	-11.381000	24.122595	0.000538	20.838246
480.129805	-2.976100	3.773100	-11.228000	24.137943	0.000540	20.857433
481.130015	-2.989400	3.771700	-11.275000	24.147346	0.000541	20.837941
482.133199	-3.000000	3.772400	-11.316000	24.136522	0.000540	20.845103
483.129414	-2.984900	3.772800	-11.260000	24.127339	0.000540	20.854384
484.132271	-3.003700	3.772800	-11.332000	24.134555	0.000540	20.839810
485.130079	-2.992600	3.771400	-11.285000	24.135399	0.000537	20.840183
486.137256	-3.004400	3.770200	-11.327000	24.120963	0.000539	20.848464
487.130353	-2.996600	3.769900	-11.296000	24.155997	0.000540	20.831445
488.142704	-2.993500	3.770100	-11.285000	24.174607	0.000539	20.842050
489.136034	-2.993100	3.769200	-11.281000	24.197370	0.000541	20.870095
490.130528	-2.999900	3.769000	-11.306000	24.161392	0.000542	20.854874
491.129694	-2.986300	3.770600	-11.260000	24.140938	0.000540	20.845264
492.130471	-2.988300	3.768800	-11.261000	24.128048	0.000540	20.869318
493.130871	-2.982300	3.768400	-11.237000	24.133295	0.000538	20.866521
494.131896	-2.996000	3.768600	-11.290000	24.145487	0.000539	20.864525
495.134898	-3.009500	3.768200	-11.339000	24.191761	0.000540	20.873005
496.132415	-2.999400	3.768200	-11.301000	24.166308	0.000538	20.856959
497.133015	-2.985500	3.768100	-11.249000	24.185118	0.000538	20.850222
498.134673	-2.993600	3.767900	-11.278000	24.213282	0.000540	20.853340
499.132471	-3.000700	3.766800	-11.302000	24.251346	0.000540	20.853114
500.134882	-3.000400	3.766300	-11.300000	24.254628	0.000538	20.870155
501.131002	-2.991500	3.766400	-11.266000	24.227062	0.000538	20.864317
502.135861	-2.997100	3.766400	-11.287000	24.226986	0.000539	20.866610
503.132447	-3.003600	3.766100	-11.311000	24.181530	0.000541	20.868907
504.132656	-3.016000	3.765700	-11.356000	24.175629	0.000539	20.860144
505.135046	-3.003200	3.766400	-11.310000	24.175431	0.000541	20.866109
506.135163	-2.985700	3.765100	-11.241000	24.150423	0.000539	20.872320
507.134685	-2.993300	3.764600	-11.268000	24.174459	0.000540	20.871771
508.135553	-2.999300	3.765800	-11.293000	24.195207	0.000540	20.873142
509.135467	-2.996400	3.763800	-11.277000	24.173709	0.000539	20.870071
510.136452	-2.993900	3.763000	-11.265000	24.185827	0.000540	20.874164
511.137432	-2.982900	3.764700	-11.229000	24.188312	0.000539	20.863855
512.135811	-2.990500	3.763600	-11.254000	24.205852	0.000540	20.873388
513.136640	-3.006300	3.762800	-11.310000	24.176370	0.000539	20.873214
514.137158	-2.969200	3.763000	-11.173000	24.185921	0.000540	20.879000
515.136321	-3.012900	3.762400	-11.335000	24.238391	0.000539	20.872360
516.142745	-2.976800	3.763200	-11.201000	24.232594	0.000539	20.862753
517.137414	-2.992700	3.761600	-11.256000	24.252869	0.000538	20.869813
518.140566	-2.996100	3.762000	-11.271000	24.226548	0.000539	20.874706
519.139311	-2.999500	3.761500	-11.282000	24.268517	0.000538	20.867018
520.137281	-2.992400	3.761800	-11.256000	24.286029	0.000540	20.887428
521.141759	-2.990400	3.761600	-11.248000	24.286329	0.000538	20.873979
522.142792	-2.987100	3.761500	-11.235000	24.283119	0.000539	20.862699
523.141955	-2.986100	3.761500	-11.231000	24.284809	0.000537	20.871032
524.138724	-2.988000	3.759200	-11.232000	24.333819	0.000540	20.869935
525.140551	-2.994800	3.761300	-11.263000	24.341530	0.000540	20.871980
526.140471	-3.016100	3.758700	-11.335000	24.326504	0.000539	20.890570
527.140836	-2.984200	3.760300	-11.220000	24.339189	0.000537	20.891442
528.139028	-2.994300	3.759100	-11.255000	24.313564	0.000539	20.895133
529.143000	-3.010000	3.759700	-11.316000	24.298886	0.000540	20.887997
530.143443	-3.013400	3.759000	-11.327000	24.328791	0.000539	20.884330
531.139228	-2.986700	3.758600	-11.225000	24.358668	0.000539	20.903394
532.148467	-3.022800	3.757900	-11.358000	24.338318	0.000539	20.922333
533.146109	-3.012200	3.757000	-11.316000	24.298936	0.000540	20.888046
534.140063	-2.983100	3.758500	-11.210000	24.296998	0.000538	20.916920
535.141059	-3.017200	3.757400	-11.335000	24.304113	0.000538	20.905566
536.142632	-3.004200	3.757400	-11.287000	24.315927	0.000540	20.881858
537.142317	-3.004000	3.757600	-11.286000	24.323718	0.000541	20.892991
538.141175	-2.974900	3.758100	-11.179000	24.362577	0.000538	20.877921
539.142025	-2.995000	3.757800	-11.254000	24.371954	0.000539	20.886378
540.141466	-3.021000	3.755700	-11.346000	24.360387	0.000539	20.894214
541.141550	-2.999900	3.757200	-11.271000	24.386532	0.000539	20.914750
542.141773	-3.005900	3.756200	-11.289000	24.419492	0.000538	20.902299
543.143213	-3.011600	3.755900	-11.310000	24.433223	0.000540	20.907065
544.145856	-3.018700	3.754000	-11.332000	24.425538	0.000539	20.899355
545.142486	-2.975300	3.755300	-11.172000	24.453944	0.000540	20.896086
546.143556	-2.996600	3.753400	-11.246000	24.444393	0.000540	20.884608
547.143963	-2.991200	3.755300	-11.231000	24.437029	0.000540	20.874850
548.151100	-3.002800	3.754800	-11.274000	24.467054	0.000540	20.915400
549.147362	-2.994300	3.754100	-11.240000	24.498520	0.000540	20.893393
550.145060	-3.000700	3.753700	-11.263000	24.477926	0.000538	20.900705
551.150941	-3.006000	3.754100	-11.284000	24.457381	0.000538	20.922291
552.145509	-3.015000	3.753400	-11.316000	24.464594	0.000540	20.895391
553.148088	-3.017800	3.752900	-11.324000	24.500588	0.000539	20.911113
554.148432	-2.999000	3.753800	-11.257000	24.467484	0.000540	20.915832
555.146664	-3.008800	3.752500	-11.290000	24.475293	0.000539	20.900909
556.147363	-2.987700	3.752100	-11.210000	24.428581	0.000539	20.894348
557.148079	-3.015700	3.751800	-11.313000	24.394950	0.000539	20.893325
558.149002	-3.027200	3.751700	-11.356000	24.397338	0.000539	20.910418
559.151065	-3.000400	3.751000	-11.254000	24.416367	0.000538	20.916232
560.155106	-3.001300	3.750700	-11.256000	24.438459	0.000538	20.909946
561.151579	-3.029200	3.749600	-11.357000	24.497510	0.000538	20.919404
562.147063	-3.010300	3.750400	-11.288000	24.473059	0.000537	20.925217
563.153018	-3.000000	3.751600	-11.254000	24.478633	0.000540	20.900467
564.161520	-3.012100	3.750700	-11.297000	24.475699	0.000540	20.910798
565.149863	-3.016900	3.748300	-11.307000	24.484629	0.000537	20.903636
566.150948	-3.020100	3.749800	-11.324000	24.479257	0.000539	20.917212
567.155502	-3.004100	3.750600	-11.265000	24.470876	0.000539	20.917338
568.156413	-3.013500	3.749000	-11.296000	24.513707	0.000538	20.923325
569.147836	-3.013300	3.748400	-11.293000	24.508209	0.000540	20.920181
570.152998	-2.985300	3.748900	-11.191000	24.488662	0.000540	20.924750
571.153464	-2.988600	3.748400	-11.201000	24.461899	0.000541	20.916867
572.152312	-3.006600	3.748700	-11.270000	24.456722	0.000540	20.945809
573.150563	-2.993400	3.749500	-11.223000	24.473165	0.000540	20.905885
574.152173	-3.025600	3.746100	-11.333000	24.462070	0.000541	20.924150
575.155258	-3.023200	3.746800	-11.326000	24.444635	0.000540	20.910453
576.159887	-2.991800	3.747200	-11.210000	24.487840	0.000540	20.907332
577.152893	-3.018600	3.746400	-11.308000	24.531566	0.000542	20.927019
578.158167	-2.982600	3.747200	-11.175000	24.548379	0.000541	20.948152
579.153290	-2.985000	3.747100	-11.183000	24.535146	0.000540	20.919232
580.158066	-3.005400	3.747800	-11.263000	24.520424	0.000540	20.932435
581.166356	-3.018600	3.745600	-11.305000	24.517812	0.000539	20.906583
582.157935	-3.006800	3.745200	-11.259000	24.508803	0.000539	20.925991
583.157200	-2.996600	3.744700	-11.221000	24.531814	0.000538	20.931060
584.162955	-2.979800	3.745400	-11.159000	24.496194	0.000541	20.912394
585.160774	-3.006700	3.744400	-11.257000	24.493432	0.000540	20.923373
586.160428	-3.019000	3.744500	-11.303000	24.465371	0.000540	20.928409
587.162137	-3.013300	3.743200	-11.278000	24.497656	0.000540	20.934247
588.160083	-3.006400	3.744100	-11.256000	24.535213	0.000540	20.926411
589.158219	-2.991300	3.743800	-11.197000	24.568568	0.000540	20.910567
590.159357	-3.019500	3.742500	-11.299000	24.620196	0.000540	20.909264
591.161224	-3.024800	3.742600	-11.320000	24.570506	0.000540	20.929104
592.161384	-2.995000	3.742400	-11.208000	24.550804	0.000540	20.923088
593.160478	-3.022100	3.742600	-11.310000	24.543938	0.000539	20.944171
594.161940	-2.995000	3.741600	-11.206000	24.576815	0.000538	20.929745
595.160421	-2.995100	3.741800	-11.206000	24.561022	0.000542	20.931443
596.162384	-2.995100	3.742500	-11.208000	24.532044	0.000538	20.947885
597.161942	-2.988700	3.742500	-11.184000	24.567933	0.000539	20.935057
598.167799	-3.002900	3.741400	-11.234000	24.548882	0.000540	20.934908
599.163171	-2.993600	3.742100	-11.201000	24.545819	0.000539	20.953644
600.170120	-2.998900	3.740000	-11.215000	24.554548	0.000538	20.942489
601.165908	-3.032000	3.741100	-11.342000	24.569744	0.000538	20.944460
602.167704	-3.001800	3.741500	-11.231000	24.599117	0.000542	20.950698
603.163334	-2.972000	3.741900	-11.120000	24.625130	0.000539	20.945979
604.163665	-2.979600	3.740600	-11.144000	24.607942	0.000538	20.930158
605.164760	-2.966000	3.740000	-11.092000	24.595904	0.000541	20.923295
606.171621	-2.980500	3.740200	-11.147000	24.599932	0.000539	20.935870
607.167209	-2.997300	3.738600	-11.205000	24.600130	0.000538	20.955506
608.165190	-3.026500	3.739300	-11.315000	24.610204	0.000536	20.933375
609.175131	-2.994200	3.740100	-11.198000	24.588813	0.000537	20.955531
610.167534	-3.016800	3.739100	-11.279000	24.560734	0.000536	20.937791
611.169333	-3.006400	3.737100	-11.233000	24.580505	0.000535	20.953833
612.171189	-3.011200	3.738200	-11.255000	24.598712	0.000534	20.937965
613.167453	-3.001600	3.736900	-11.215000	24.606819	0.000536	20.919549
614.169379	-3.003200	3.738400	-11.225000	24.591324	0.000537	20.941457
615.173319	-3.008900	3.737500	-11.245000	24.575482	0.000535	20.929830
616.169154	-3.004000	3.738600	-11.229000	24.626768	0.000534	20.924392
617.171507	-2.998100	3.736400	-11.201000	24.669719	0.000536	20.916282
618.168344	-2.997100	3.738000	-11.202000	24.678521	0.000537	20.928907
619.169280	-2.986700	3.737000	-11.161000	24.665117	0.000535	20.927785
620.171286	-3.017000	3.734900	-11.267000	24.647213	0.000537	20.944905
621.173523	-3.017600	3.736400	-11.273000	24.652336	0.000536	20.925392
622.173242	-2.999300	3.736700	-11.206000	24.602247	0.000535	20.933926
623.171742	-2.998900	3.734900	-11.199000	24.621050	0.000535	20.904432
624.172909	-3.010700	3.735500	-11.245000	24.647188	0.000534	20.903633
625.173131	-2.982200	3.735000	-11.137000	24.702077	0.000535	20.917459
626.175512	-2.973500	3.734900	-11.104000	24.683775	0.000533	20.913318
627.173540	-3.019400	3.733600	-11.272000	24.657836	0.000534	20.921902
628.174335	-3.022100	3.734100	-11.284000	24.682310	0.000535	20.906634
629.174273	-3.018500	3.733200	-11.268000	24.691536	0.000533	20.912571
630.173333	-3.003600	3.734500	-11.215000	24.697431	0.000534	20.903789
631.174872	-2.991600	3.733100	-11.167000	24.706309	0.000533	20.909379
632.174630	-2.990800	3.733300	-11.165000	24.697109	0.000533	20.904888
633.179047	-3.001600	3.734000	-11.207000	24.715886	0.000531	20.897653
634.182300	-3.022100	3.732900	-11.280000	24.732173	0.000534	20.921107
635.182365	-3.021800	3.731700	-11.275000	24.749833	0.000533	20.888572
636.175448	-3.010600	3.732000	-11.235000	24.696938	0.000532	20.915147
637.175853	-3.011800	3.731700	-11.238000	24.721857	0.000532	20.906489
638.179254	-3.018500	3.731500	-11.263000	24.707855	0.000532	20.898129
639.179812	-3.022600	3.730400	-11.274000	24.681546	0.000532	20.905392
640.178216	-2.992100	3.731200	-11.163000	24.690625	0.000531	20.896960
641.177624	-2.974100	3.731600	-11.096000	24.681276	0.000532	20.899906
642.176590	-3.020800	3.730300	-11.268000	24.670655	0.000530	20.909162
643.179407	-2.987500	3.730400	-11.144000	24.681303	0.000532	20.890925
644.183590	-2.986300	3.731000	-11.141000	24.675858	0.000532	20.899211
645.179246	-2.988400	3.730800	-11.148000	24.693366	0.000532	20.899236
646.179286	-3.007300	3.729900	-11.215000	24.669094	0.000532	20.911863
647.179302	-3.008000	3.729600	-11.217000	24.652432	0.000532	20.890404
648.180376	-2.987600	3.729700	-11.141000	24.633555	0.000534	20.882843
649.178427	-2.992700	3.728800	-11.159000	24.649797	0.000533	20.897716
650.188732	-2.979000	3.729300	-11.108000	24.705680	0.000531	20.900214
651.181095	-3.002000	3.730000	-11.196000	24.719232	0.000531	20.863555
652.180051	-3.003100	3.728100	-11.195000	24.758201	0.000531	20.876582
653.179755	-2.993800	3.728200	-11.161000	24.787671	0.000533	20.869172
654.182051	-3.012000	3.727500	-11.226000	24.767005	0.000533	20.876408
655.180525	-3.017600	3.728500	-11.250000	24.773820	0.000533	20.879928
656.180835	-2.974800	3.727900	-11.088000	24.738560	0.000532	20.865407
657.183655	-2.989400	3.727500	-11.142000	24.733214	0.000533	20.891808
658.183116	-2.994400	3.727300	-11.160000	24.680786	0.000532	20.870493
659.186011	-2.996300	3.726300	-11.164000	24.698917	0.000531	20.892005
660.182404	-3.019700	3.726300	-11.250000	24.702598	0.000532	20.876259
661.187783	-3.004300	3.725900	-11.193000	24.711100	0.000532	20.871042
662.185702	-3.008200	3.724900	-11.204000	24.745046	0.000532	20.872390
663.184406	-2.982100	3.725800	-11.109000	24.813604	0.000532	20.877181
664.187418	-2.980700	3.726300	-11.106000	24.808031	0.000531	20.881070
665.188752	-2.980600	3.724700	-11.100000	24.776923	0.000532	20.891101
666.185863	-2.996700	3.725500	-11.163000	24.768816	0.000530	20.884389
667.186818	-2.996300	3.723700	-11.157000	24.763394	0.000531	20.859509
668.193040	-3.002800	3.723900	-11.181000	24.762773	0.000531	20.871687
669.186702	-2.997100	3.724100	-11.161000	24.733029	0.000529	20.877399
670.189385	-3.000700	3.723700	-11.172000	24.679435	0.000531	20.858233
671.186573	-3.004400	3.724100	-11.188000	24.714525	0.000530	20.856461
672.187790	-3.019400	3.723300	-11.242000	24.723277	0.000532	20.870459
673.189988	-3.018800	3.722200	-11.236000	24.737299	0.000532	20.879788
674.189809	-3.008700	3.721600	-11.196000	24.742372	0.000533	20.863543
675.193102	-2.984600	3.722400	-11.109000	24.744361	0.000530	20.903468
676.196467	-2.995300	3.723100	-11.152000	24.769700	0.000530	20.866785
677.190835	-3.010500	3.722300	-11.204000	24.779098	0.000531	20.847768
678.191942	-2.998400	3.721300	-11.157000	24.812692	0.000532	20.867257
679.191254	-2.995200	3.722100	-11.147000	24.791605	0.000531	20.862690
680.191115	-2.986400	3.722000	-11.115000	24.809284	0.000531	20.883750
681.193965	-3.020300	3.721900	-11.240000	24.824153	0.000531	20.859319
682.199237	-3.005900	3.720800	-11.184000	24.860853	0.000530	20.853952
683.197225	-3.022700	3.719300	-11.242000	24.866445	0.000530	20.864780
684.196703	-2.972400	3.721500	-11.061000	24.899266	0.000529	20.865952
685.200130	-2.981900	3.720500	-11.093000	24.911645	0.000529	20.864626
686.197126	-2.978200	3.720000	-11.078000	24.869003	0.000528	20.868295
687.192892	-2.983900	3.721600	-11.104000	24.829563	0.000530	20.851947
688.192857	-2.980800	3.720100	-11.088000	24.872902	0.000530	20.871259
689.198924	-3.023500	3.719100	-11.243000	24.871331	0.000529	20.871580
690.194361	-3.011700	3.718300	-11.197000	24.901913	0.000529	20.853437
691.195386	-3.009900	3.718200	-11.190000	24.848728	0.000530	20.866913
692.197743	-3.009300	3.719700	-11.193000	24.842013	0.000527	20.853062
693.194568	-3.015200	3.718100	-11.209000	24.818215	0.000527	20.859049
694.198579	-2.998400	3.719800	-11.152000	24.793719	0.000527	20.866708
695.197545	-3.007800	3.718900	-11.185000	24.848521	0.000526	20.870498
696.200584	-3.011200	3.716400	-11.190000	24.864580	0.000525	20.861959
697.196069	-2.993100	3.717700	-11.126000	24.868733	0.000528	20.868024
698.200731	-2.985100	3.716900	-11.094000	24.883799	0.000527	20.864653
699.198277	-2.983400	3.717500	-11.089000	24.898120	0.000528	20.854845
700.199473	-2.980100	3.717700	-11.079000	24.949710	0.000526	20.861580
701.196404	-2.983400	3.716800	-11.088000	24.909481	0.000527	20.872885
702.202349	-2.997900	3.715400	-11.137000	24.908407	0.000528	20.867066
703.197916	-2.995700	3.716100	-11.131000	24.897591	0.000528	20.862375
704.196653	-3.005200	3.716500	-11.168000	24.893137	0.000526	20.858853
705.201863	-2.979900	3.717100	-11.074000	24.865511	0.000527	20.877118
706.197114	-2.994400	3.717000	-11.129000	24.879284	0.000524	20.862966
707.198997	-3.008000	3.715500	-11.174000	24.908401	0.000525	20.866585
708.198640	-3.012000	3.715100	-11.188000	24.895666	0.000525	20.855227
709.198199	-2.998400	3.714500	-11.136000	24.926672	0.000525	20.872121
710.198478	-3.003700	3.714300	-11.156000	24.925327	0.000524	20.863185
711.198754	-2.998600	3.711800	-11.129000	24.949518	0.000523	20.844794
712.200690	-3.017700	3.712100	-11.201000	24.962919	0.000524	20.844967
713.199596	-2.993800	3.713500	-11.116000	24.943055	0.000523	20.842100
714.198467	-3.018500	3.712000	-11.204000	24.896583	0.000522	20.853303
715.200880	-2.989300	3.713400	-11.100000	24.861572	0.000524	20.846613
716.198125	-2.986500	3.712800	-11.088000	24.899020	0.000522	20.856222
717.203749	-2.994000	3.713000	-11.115000	24.949887	0.000523	20.871715
718.201053	-3.007200	3.712800	-11.164000	24.946677	0.000523	20.879398
719.201267	-2.998400	3.711900	-11.129000	24.914034	0.000522	20.866075
720.202320	-2.986100	3.713500	-11.088000	24.937279	0.000522	20.833931
721.201756	-2.985500	3.712100	-11.081000	24.929547	0.000521	20.848930
722.211553	-3.010300	3.711300	-11.171000	24.946329	0.000522	20.870040
723.207323	-3.005500	3.710800	-11.152000	24.939989	0.000521	20.869841
724.217015	-3.005300	3.711100	-11.152000	24.888741	0.000522	20.866768
725.204418	-2.996000	3.712400	-11.122000	24.916094	0.000522	20.832584
726.208871	-3.023900	3.710300	-11.219000	24.912810	0.000523	20.845408
727.205301	-2.992600	3.709900	-11.102000	24.929394	0.000521	20.826492
728.208541	-3.000800	3.710500	-11.134000	24.965121	0.000522	20.844807
729.206301	-2.990100	3.710500	-11.094000	24.996024	0.000520	20.842161
730.206122	-2.971800	3.711000	-11.027000	24.977228	0.000519	20.845105
731.206356	-3.004700	3.708800	-11.143000	25.028044	0.000520	20.833525
732.217672	-2.985800	3.709900	-11.075000	25.053453	0.000519	20.835322
733.208183	-2.953600	3.710700	-10.959000	24.987818	0.000521	20.819701
734.206450	-3.006200	3.708800	-11.148000	24.981227	0.000518	20.836792
735.207096	-3.006300	3.707900	-11.146000	25.059715	0.000518	20.832600
736.206301	-3.015300	3.708300	-11.180000	25.052529	0.000520	20.828705
737.208228	-2.989100	3.707200	-11.080000	25.073685	0.000519	20.831450
738.206983	-3.007500	3.707200	-11.148000	25.064040	0.000517	20.832200
739.208636	-3.017800	3.706700	-11.184000	25.032539	0.000518	20.838036
740.207278	-3.003000	3.707500	-11.133000	25.017598	0.000519	20.826359
741.208078	-3.018500	3.705900	-11.185000	25.001290	0.000517	20.849817
742.219234	-3.013700	3.705600	-11.166000	25.000242	0.000518	20.834067
743.209026	-3.003200	3.706700	-11.130000	24.978065	0.000516	20.838833
744.210498	-2.991700	3.705800	-11.086000	24.989278	0.000515	20.834916
745.207232	-3.004800	3.706100	-11.135000	25.020257	0.000518	20.827605
746.214554	-3.011800	3.705600	-11.160000	24.973044	0.000518	20.820992
747.208612	-3.013400	3.705300	-11.164000	25.021573	0.000515	20.832245
748.215502	-2.987700	3.705100	-11.069000	25.008594	0.000516	20.838183
749.208687	-2.999500	3.704700	-11.112000	25.017223	0.000517	20.801326
750.216722	-2.979100	3.705500	-11.038000	25.039498	0.000517	20.820367
751.210030	-2.985700	3.704200	-11.059000	25.040169	0.000517	20.817247
752.210652	-3.004500	3.704400	-11.128000	25.060457	0.000515	20.821491
753.218150	-3.009900	3.704200	-11.149000	25.005413	0.000516	20.823611
754.213953	-3.004800	3.703700	-11.128000	24.965409	0.000514	20.836562
755.212252	-3.001400	3.703500	-11.115000	24.967996	0.000516	20.808813
756.210842	-2.999900	3.703100	-11.109000	24.957849	0.000515	20.820913
757.210212	-3.000100	3.702600	-11.107000	24.939004	0.000513	20.833293
758.220785	-2.991400	3.703200	-11.077000	24.960089	0.000515	20.807989
759.211534	-3.004600	3.701700	-11.121000	24.990270	0.000514	20.825007
760.212707	-3.003700	3.703300	-11.123000	25.021524	0.000516	20.824609
761.212589	-3.012200	3.701600	-11.149000	25.026843	0.000515	20.821414
762.213119	-2.996700	3.701300	-11.090000	25.012796	0.000515	20.827702
763.210479	-2.960500	3.702200	-10.959000	24.989674	0.000514	20.813503
764.214451	-3.004900	3.701200	-11.121000	24.944948	0.000513	20.827404
765.221210	-3.005100	3.700500	-11.119000	24.906457	0.000514	20.816748
766.213236	-2.999600	3.701300	-11.102000	24.940021	0.000513	20.807761
767.214360	-2.985600	3.701200	-11.050000	25.005011	0.000513	20.807086
768.213458	-3.002900	3.701000	-11.113000	25.013887	0.000512	20.815522
769.214566	-2.995700	3.699300	-11.081000	24.974432	0.000514	20.833291
770.213674	-2.999700	3.698600	-11.094000	24.982535	0.000512	20.824828
771.223547	-2.983500	3.699500	-11.037000	25.005157	0.000513	20.822406
772.215104	-2.988300	3.700200	-11.057000	25.049861	0.000511	20.812277
773.212968	-3.008700	3.697900	-11.125000	24.998519	0.000512	20.824278
774.211642	-3.002600	3.699700	-11.108000	25.000110	0.000514	20.818762
775.223437	-2.998500	3.697900	-11.087000	25.020545	0.000512	20.804187
776.211120	-3.004400	3.697900	-11.109000	24.996727	0.000512	20.822004
777.215125	-2.984300	3.699900	-11.041000	25.005227	0.000510	20.821528
778.212332	-2.997600	3.698300	-11.086000	24.946824	0.000510	20.801787
779.214571	-2.999300	3.696900	-11.087000	25.003286	0.000509	20.827166
780.217293	-3.000200	3.697700	-11.093000	25.030285	0.000509	20.813964
781.223680	-2.982900	3.699100	-11.033000	25.045747	0.000508	20.810045
782.217789	-2.987400	3.698100	-11.047000	25.065361	0.000507	20.806026
783.214463	-2.990800	3.697200	-11.057000	25.005223	0.000510	20.836696
784.228912	-3.007400	3.697000	-11.118000	24.995600	0.000507	20.790528
785.222208	-2.977500	3.697400	-11.008000	24.970091	0.000508	20.803330
786.221327	-3.010500	3.694700	-11.122000	24.944134	0.000507	20.789130
787.226756	-2.989000	3.696700	-11.048000	24.959921	0.000506	20.820149
788.215724	-2.992800	3.696400	-11.062000	24.989882	0.000506	20.814186
789.218810	-2.999500	3.694900	-11.082000	24.952138	0.000506	20.809966
790.221154	-3.021300	3.694600	-11.162000	24.912480	0.000505	20.809516
791.223356	-3.010300	3.695500	-11.123000	24.939781	0.000507	20.822693
792.221489	-2.996000	3.695100	-11.069000	24.981824	0.000504	20.804676
793.230461	-3.024700	3.694500	-11.174000	25.027049	0.000505	20.797439
794.219338	-2.999600	3.695800	-11.086000	25.027598	0.000503	20.816956
795.224569	-3.016600	3.693000	-11.139000	25.057208	0.000503	20.796418
796.222662	-3.004100	3.694700	-11.098000	25.025162	0.000503	20.806924
797.220937	-2.967000	3.694000	-10.959000	25.049005	0.000504	20.809047
798.222506	-3.008200	3.693200	-11.110000	25.044231	0.000502	20.793824
799.222432	-2.986600	3.693800	-11.031000	25.024889	0.000503	20.810918
800.222365	-3.011400	3.692500	-11.118000	24.992496	0.000503	20.805904
801.227972	-2.999100	3.693900	-11.078000	25.015221	0.000504	20.816861
802.222120	-3.011100	3.692600	-11.118000	24.999484	0.000504	20.809600
803.224824	-2.997300	3.692200	-11.066000	24.997570	0.000502	20.794402
804.228044	-2.995000	3.691900	-11.057000	24.975170	0.000502	20.797048
805.225603	-2.994700	3.692200	-11.056000	24.959556	0.000501	20.808403
806.225543	-2.993700	3.692400	-11.053000	24.963835	0.000503	20.775239
807.226891	-3.000000	3.693100	-11.078000	24.992950	0.000501	20.809204
808.226616	-2.986300	3.691400	-11.023000	25.039292	0.000501	20.794555
809.228941	-2.983100	3.692000	-11.013000	25.052668	0.000503	20.809405
810.227329	-2.971100	3.691400	-10.966000	25.081805	0.000501	20.796454
811.226945	-3.022800	3.690500	-11.154000	25.085359	0.000500	20.784374
812.227951	-2.987800	3.691100	-11.028000	25.076263	0.000503	20.789468
813.230700	-3.010300	3.690500	-11.108000	25.031313	0.000503	20.782279
814.231762	-3.025900	3.689100	-11.162000	25.073427	0.000504	20.785673
815.230290	-3.007800	3.689200	-11.096000	25.060698	0.000500	20.761515
816.231701	-3.002600	3.688000	-11.073000	25.059877	0.000500	20.768278
817.230938	-2.988800	3.689600	-11.027000	25.054956	0.000500	20.810279
818.233891	-2.990200	3.688100	-11.028000	25.075440	0.000501	20.782952
819.242505	-2.986400	3.688900	-11.016000	25.071313	0.000501	20.771222
820.236128	-3.005700	3.687600	-11.083000	25.079367	0.000500	20.765083
821.233147	-3.007200	3.686800	-11.085000	25.118969	0.000501	20.774492
822.234297	-3.011500	3.688800	-11.107000	25.094109	0.000502	20.777985
823.236127	-3.016200	3.686800	-11.119000	25.081205	0.000499	20.763134
824.233932	-3.000700	3.686900	-11.062000	25.085454	0.000499	20.784944
825.238503	-3.005700	3.687900	-11.084000	25.057909	0.000499	20.783846
826.237248	-2.980600	3.688300	-10.992000	25.071583	0.000502	20.776709
827.234643	-3.002300	3.685900	-11.066000	25.134527	0.000500	20.785368
828.233716	-2.989700	3.687900	-11.025000	25.128283	0.000499	20.767720
829.234635	-3.000000	3.686600	-11.059000	25.113839	0.000499	20.790679
830.236019	-3.009400	3.686300	-11.093000	25.119258	0.000498	20.770988
831.248346	-3.003900	3.685900	-11.071000	25.081149	0.000500	20.758811
832.236429	-2.991800	3.685400	-11.025000	25.013449	0.000499	20.776201
833.235292	-2.990700	3.685300	-11.021000	25.015341	0.000497	20.773833
834.240166	-2.966700	3.685000	-10.931000	25.013773	0.000497	20.778423
835.235640	-2.963400	3.685300	-10.920000	25.026475	0.000497	20.780268
836.237434	-2.985200	3.684700	-10.999000	25.029508	0.000495	20.785682
837.235938	-2.974400	3.683500	-10.956000	25.013323	0.000496	20.776075
838.236719	-2.981700	3.684600	-10.986000	24.986297	0.000496	20.778344
839.236707	-2.990100	3.683600	-11.013000	24.977967	0.000494	20.767138
840.239648	-2.998800	3.683500	-11.045000	25.001833	0.000494	20.775447
841.243359	-3.000300	3.683600	-11.050000	25.012599	0.000494	20.774874
842.239862	-3.003200	3.683400	-11.061000	25.037884	0.000494	20.768960
843.238172	-3.009900	3.684800	-11.090000	25.079624	0.000492	20.774350
844.238175	-2.997200	3.682600	-11.037000	25.105925	0.000493	20.783208
845.240908	-3.013300	3.682100	-11.093000	25.122980	0.000493	20.788476
846.238580	-2.975800	3.682100	-10.955000	25.147937	0.000493	20.790295
847.239135	-2.979900	3.681900	-10.972000	25.143562	0.000490	20.785430
848.239971	-2.989400	3.682100	-11.006000	25.105007	0.000492	20.772329
849.246212	-2.982200	3.682600	-10.981000	25.094440	0.000491	20.780688
850.242669	-3.005800	3.680400	-11.061000	25.105056	0.000490	20.771905
851.243083	-2.995000	3.680600	-11.022000	25.119651	0.000494	20.790349
852.240231	-3.018500	3.679400	-11.105000	25.165041	0.000492	20.779491
853.239487	-3.005000	3.680600	-11.060000	25.174811	0.000492	20.765117
854.238611	-2.993200	3.679100	-11.011000	25.143414	0.000490	20.762521
855.244239	-2.988400	3.679100	-10.994000	25.101455	0.000491	20.762125
856.244320	-3.009500	3.680300	-11.075000	25.073437	0.000488	20.773354
857.244019	-3.003600	3.679000	-11.049000	25.066151	0.000490	20.770308
858.238984	-3.005200	3.678400	-11.053000	25.079381	0.000490	20.783589
859.245396	-3.008900	3.679200	-11.068000	25.119703	0.000489	20.773332
860.241590	-2.986300	3.680100	-10.989000	25.104465	0.000488	20.774630
861.240012	-3.018600	3.678600	-11.103000	25.135092	0.000489	20.793522
862.250916	-3.010900	3.677700	-11.072000	25.117047	0.000489	20.787260
863.245050	-3.000300	3.678400	-11.035000	25.093331	0.000487	20.797592
864.244939	-3.012900	3.676800	-11.077000	25.114338	0.000487	20.775533
865.241365	-2.999600	3.676600	-11.027000	25.101190	0.000488	20.786041
866.242114	-2.966600	3.678500	-10.912000	25.133706	0.000486	20.767948
867.242672	-2.989300	3.676000	-10.988000	25.142331	0.000489	20.782772
868.241126	-3.006400	3.676000	-11.050000	25.173832	0.000484	20.776937
869.241482	-3.006600	3.675900	-11.051000	25.191656	0.000486	20.775864
870.244648	-3.006300	3.677200	-11.054000	25.171171	0.000485	20.805560
871.242850	-3.006200	3.675900	-11.049000	25.168414	0.000486	20.785248
872.242639	-2.986000	3.676400	-10.977000	25.134012	0.000486	20.763988
873.243898	-2.985000	3.676100	-10.972000	25.128818	0.000485	20.772051
874.241997	-3.016400	3.675300	-11.084000	25.113184	0.000484	20.789073
875.243772	-3.014500	3.673300	-11.072000	25.132129	0.000482	20.759253
876.251831	-2.981000	3.675100	-10.953000	25.174686	0.000482	20.765941
877.247242	-2.992700	3.674900	-10.997000	25.190945	0.000483	20.763771
878.243748	-2.994600	3.674200	-11.002000	25.190101	0.000482	20.793744
879.246175	-2.968000	3.675900	-10.909000	25.208273	0.000482	20.781642
880.244462	-3.004000	3.673500	-11.034000	25.177156	0.000480	20.792128
881.243990	-3.016400	3.671800	-11.074000	25.167285	0.000481	20.784589
882.249552	-2.980100	3.673800	-10.947000	25.206314	0.000481	20.771615
883.249437	-3.010700	3.673100	-11.058000	25.187949	0.000481	20.758392
884.247418	-3.005600	3.673900	-11.041000	25.168933	0.000481	20.772019
885.249779	-2.995200	3.671700	-10.995000	25.183750	0.000480	20.788790
886.248045	-2.999900	3.671500	-11.013000	25.213556	0.000480	20.756599
887.245691	-2.992500	3.672200	-10.989000	25.235605	0.000479	20.775417
888.256699	-2.993700	3.672700	-10.994000	25.229566	0.000478	20.786898
889.246362	-2.977800	3.672300	-10.935000	25.230985	0.000478	20.783107
890.251445	-3.010900	3.670600	-11.051000	25.221767	0.000478	20.761049
891.246441	-2.982400	3.670400	-10.946000	25.157782	0.000478	20.779790
892.247155	-2.998000	3.671000	-11.005000	25.158803	0.000479	20.786031
893.247545	-2.983400	3.669700	-10.947000	25.153412	0.000478	20.777300
894.246879	-2.966700	3.671300	-10.891000	25.172282	0.000478	20.761156
895.249575	-3.000700	3.669200	-11.010000	25.215906	0.000478	20.762752
896.250349	-2.999200	3.669400	-11.004000	25.224011	0.000479	20.766148
897.257152	-3.018600	3.667900	-11.071000	25.216057	0.000478	20.767645
898.246787	-3.005100	3.668200	-11.021000	25.179967	0.000476	20.765078
899.250854	-3.019400	3.667300	-11.072000	25.182902	0.000475	20.764231
900.248900	-3.027900	3.666800	-11.102000	25.229856	0.000476	20.779129
901.248523	-2.982700	3.669100	-10.943000	25.209553	0.000476	20.771547
902.249173	-3.006500	3.667300	-11.025000	25.208161	0.000474	20.782477
903.247853	-3.000300	3.668000	-11.004000	25.226132	0.000476	20.781080
904.250033	-3.014000	3.667700	-11.053000	25.242835	0.000476	20.781253
905.254863	-3.002000	3.666800	-11.006000	25.274929	0.000473	20.770802
906.247526	-3.028100	3.666200	-11.101000	25.262175	0.000473	20.767006
907.246031	-3.004500	3.666700	-11.016000	25.255393	0.000474	20.789594
908.257004	-2.997800	3.665800	-10.988000	25.252013	0.000475	20.771027
909.264362	-2.996400	3.666000	-10.984000	25.214008	0.000473	20.774597
910.263864	-3.009500	3.665300	-11.030000	25.177443	0.000476	20.760648
911.252121	-3.008700	3.666600	-11.031000	25.160888	0.000472	20.773425
912.254503	-3.007200	3.664200	-11.018000	25.172869	0.000474	20.775970
913.261025	-3.004900	3.664900	-11.012000	25.209859	0.000473	20.790820
914.256199	-3.017100	3.663400	-11.051000	25.195690	0.000473	20.771380
915.260344	-3.019200	3.663900	-11.062000	25.184978	0.000471	20.777221
916.251059	-2.987000	3.664200	-10.945000	25.140257	0.000472	20.804871
917.254620	-3.002000	3.664300	-10.999000	25.163625	0.000472	20.793243
918.251069	-2.981900	3.663600	-10.923000	25.197930	0.000471	20.786905
919.251307	-2.984000	3.663300	-10.930000	25.222860	0.000471	20.797709
920.255160	-3.006100	3.662100	-11.008000	25.190994	0.000470	20.784683
921.251157	-2.998000	3.662500	-10.979000	25.171011	0.000470	20.789752
922.256910	-2.993300	3.662800	-10.962000	25.247346	0.000469	20.780093
923.255968	-2.980400	3.663200	-10.917000	25.252170	0.000470	20.806273
924.251447	-2.996800	3.662300	-10.974000	25.311949	0.000468	20.794695
925.251481	-2.981800	3.662000	-10.919000	25.263235	0.000472	20.800787
926.256558	-3.005600	3.660700	-11.001000	25.231964	0.000468	20.805901
927.251595	-2.990800	3.661900	-10.951000	25.217921	0.000467	20.774259
928.258034	-3.018400	3.660200	-11.047000	25.222647	0.000467	20.799391
929.253882	-3.008500	3.660500	-11.012000	25.279816	0.000467	20.778079
930.257153	-2.980100	3.662400	-10.914000	25.305693	0.000467	20.787465
931.260136	-3.002000	3.660800	-10.989000	25.249096	0.000467	20.804609
932.260667	-2.988400	3.661000	-10.940000	25.253819	0.000468	20.805558
933.264482	-3.016100	3.659100	-11.035000	25.266896	0.000468	20.805411
934.264481	-2.995400	3.659300	-10.960000	25.265156	0.000467	20.801767
935.262300	-3.012600	3.659800	-11.025000	25.283005	0.000466	20.791713
936.254392	-2.987500	3.659900	-10.933000	25.290835	0.000466	20.790566
937.255899	-3.016800	3.659100	-11.037000	25.290712	0.000466	20.781907
938.264837	-2.998000	3.659800	-10.971000	25.295335	0.000465	20.786075
939.263263	-3.036600	3.656700	-11.103000	25.289448	0.000467	20.786328
940.260837	-2.996500	3.657300	-10.958000	25.264589	0.000468	20.798353
941.264987	-2.992000	3.658300	-10.944000	25.245501	0.000466	20.794835
942.263515	-2.990800	3.657700	-10.938000	25.184650	0.000465	20.802971
943.254773	-3.012900	3.658200	-11.021000	25.173020	0.000465	20.788450
944.263201	-3.012400	3.655500	-11.011000	25.193030	0.000463	20.786727
945.260087	-2.975200	3.657500	-10.881000	25.227059	0.000464	20.792916
946.254549	-3.009700	3.657000	-11.006000	25.249256	0.000463	20.803348
947.263355	-3.008900	3.656200	-11.000000	25.284031	0.000463	20.796062
948.266445	-3.004900	3.655500	-10.983000	25.272125	0.000463	20.808764
949.260156	-2.988500	3.655900	-10.925000	25.304461	0.000462	20.816574
950.260063	-2.992500	3.656500	-10.942000	25.289401	0.000463	20.811885
951.272274	-2.997300	3.655300	-10.955000	25.301308	0.000461	20.788753
952.264046	-2.993200	3.655500	-10.941000	25.316470	0.000460	20.797812
953.269394	-3.005800	3.655200	-10.986000	25.313290	0.000461	20.793671
954.270043	-3.015400	3.655000	-11.019000	25.288711	0.000461	20.827787
955.263059	-3.011300	3.653300	-11.000000	25.280905	0.000462	20.801458
956.259396	-2.999600	3.654500	-10.962000	25.304819	0.000460	20.806028
957.263051	-3.015500	3.653300	-11.015000	25.267956	0.000459	20.803630
958.260986	-3.007200	3.654100	-10.988000	25.254312	0.000460	20.818381
959.269347	-3.015700	3.652200	-11.013000	25.231745	0.000458	20.805206
960.262009	-2.999500	3.652500	-10.955000	25.240470	0.000457	20.821079
961.266862	-2.979500	3.652400	-10.882000	25.252576	0.000458	20.818060
962.264213	-3.007500	3.651400	-10.980000	25.239976	0.000460	20.823902
963.259177	-2.999400	3.651400	-10.951000	25.219072	0.000459	20.808605
964.268334	-2.995800	3.651100	-10.937000	25.231972	0.000457	20.804012
965.258631	-2.990300	3.651800	-10.919000	25.210796	0.000458	20.812624
966.258069	-2.982100	3.651800	-10.889000	25.195534	0.000456	20.817216
967.259064	-2.994000	3.650900	-10.930000	25.181167	0.000457	20.817966
968.260406	-3.015500	3.649400	-11.004000	25.198917	0.000456	20.806862
969.269740	-2.995700	3.650000	-10.933000	25.190168	0.000457	20.815622
970.269391	-2.999300	3.650100	-10.947000	25.191288	0.000457	20.806316
971.266360	-2.996700	3.649500	-10.935000	25.182117	0.000454	20.792841
972.271363	-3.000600	3.650400	-10.953000	25.175754	0.000457	20.804471
973.265835	-3.017600	3.647400	-11.005000	25.219653	0.000455	20.818671
974.272602	-2.997800	3.648900	-10.939000	25.277294	0.000453	20.812532
975.272476	-2.987000	3.648000	-10.895000	25.284156	0.000455	20.814679
976.261377	-2.983400	3.648400	-10.883000	25.285125	0.000453	20.800479
977.274689	-2.981000	3.647700	-10.872000	25.329642	0.000454	20.837115
978.264307	-2.993500	3.647800	-10.919000	25.326786	0.000454	20.814334
979.264396	-2.995000	3.647600	-10.924000	25.312273	0.000455	20.815883
980.270283	-3.017300	3.647200	-11.005000	25.329946	0.000453	20.818929
981.279263	-3.006900	3.645900	-10.962000	25.366008	0.000453	20.813413
982.274182	-2.981400	3.648400	-10.876000	25.388504	0.000454	20.829362
983.275536	-2.983600	3.647400	-10.882000	25.404408	0.000453	20.818780
984.268097	-2.998300	3.647100	-10.934000	25.401157	0.000453	20.828317
985.288291	-3.010500	3.646000	-10.975000	25.396212	0.000452	20.824775
986.271799	-2.959700	3.647800	-10.795000	25.359701	0.000449	20.830313
987.273717	-3.003700	3.645100	-10.947000	25.369247	0.000452	20.803863
988.279746	-2.996200	3.645200	-10.921000	25.375709	0.000452	20.835481
989.274846	-2.979700	3.644800	-10.859000	25.338799	0.000449	20.829241
990.280227	-2.994600	3.644700	-10.913000	25.277534	0.000447	20.854022
991.279038	-2.985500	3.643800	-10.878000	25.271545	0.000450	20.821932
992.276303	-2.996000	3.644600	-10.918000	25.252432	0.000448	20.814597
993.276555	-3.009300	3.643100	-10.962000	25.270106	0.000451	20.830919
994.276072	-3.000900	3.643100	-10.932000	25.336841	0.000449	20.828697
995.282116	-2.992300	3.644200	-10.904000	25.342510	0.000449	20.826329
996.275963	-2.993600	3.643000	-10.905000	25.322976	0.000446	20.822362
997.291863	-3.029700	3.641500	-11.032000	25.302845	0.000444	20.835814
998.277212	-3.010500	3.643600	-10.968000	25.330163	0.000447	20.831949
999.273521	-2.996300	3.641200	-10.909000	25.362725	0.000446	20.828133
1000.283126	-2.986800	3.643000	-10.880000	25.358892	0.000445	20.834242
1001.281203	-2.996400	3.641400	-10.910000	25.337425	0.000445	20.830705
1002.279888	-2.930500	3.642900	-10.674000	25.338394	0.000444	20.841635
1003.275053	-3.000000	3.641600	-10.924000	25.332678	0.000444	20.821671
1004.275190	-3.013600	3.640700	-10.971000	25.365884	0.000444	20.852168
1005.275914	-2.997800	3.639800	-10.910000	25.326739	0.000444	20.824717
1006.284676	-3.006600	3.640100	-10.944000	25.316550	0.000443	20.835824
1007.277692	-2.980600	3.640900	-10.851000	25.330544	0.000443	20.839443
1008.282778	-2.982700	3.639900	-10.856000	25.321648	0.000442	20.830511
1009.277447	-3.015800	3.638800	-10.973000	25.334077	0.000440	20.833033
1010.289413	-3.016800	3.638100	-10.975000	25.354729	0.000442	20.822950
1011.274861	-2.990800	3.637300	-10.877000	25.367308	0.000441	20.837477
1012.282087	-3.006200	3.637600	-10.934000	25.370342	0.000443	20.849057
1013.281458	-2.985500	3.637300	-10.858000	25.356623	0.000441	20.848558
1014.278598	-3.007000	3.639000	-10.942000	25.402306	0.000442	20.854600
1015.289879	-3.002100	3.637600	-10.920000	25.356999	0.000442	20.843720
1016.282551	-2.986700	3.638800	-10.867000	25.319944	0.000442	20.843025
1017.282763	-2.999300	3.635000	-10.901000	25.283183	0.000440	20.847367
1018.277307	-3.010400	3.636200	-10.945000	25.326506	0.000440	20.846768
1019.290627	-2.995900	3.635900	-10.891000	25.359142	0.000440	20.851562
1020.284608	-2.996900	3.635600	-10.895000	25.347413	0.000440	20.837415
1021.277793	-3.008700	3.636300	-10.940000	25.313091	0.000441	20.838515
1022.280474	-3.001600	3.635100	-10.910000	25.303624	0.000442	20.835647
1023.288889	-3.004600	3.634400	-10.919000	25.288660	0.000439	20.858081
1024.280941	-2.996200	3.633800	-10.886000	25.325199	0.000439	20.835024
1025.288724	-3.003600	3.634700	-10.916000	25.330695	0.000441	20.854767
1026.279682	-2.987600	3.634400	-10.856000	25.314016	0.000439	20.849874
1027.296933	-2.989200	3.634200	-10.862000	25.339816	0.000439	20.869140
1028.283120	-3.003900	3.633600	-10.914000	25.341210	0.000437	20.851575
1029.290594	-2.984500	3.634000	-10.844000	25.380427	0.000436	20.840692
1030.282812	-3.017500	3.632800	-10.962000	25.365593	0.000437	20.863728
1031.281714	-2.980400	3.634700	-10.831000	25.322897	0.000437	20.845989
1032.285530	-2.994300	3.632400	-10.875000	25.340864	0.000436	20.873037
1033.290861	-2.989800	3.631500	-10.856000	25.328514	0.000438	20.860638
1034.283866	-2.975900	3.631200	-10.805000	25.329335	0.000437	20.850083
1035.293157	-3.004600	3.631500	-10.910000	25.386153	0.000436	20.868725
1036.294707	-2.989000	3.632000	-10.854000	25.427981	0.000436	20.879431
1037.291886	-2.982500	3.631000	-10.829000	25.421546	0.000436	20.862539
1038.292351	-3.002300	3.631200	-10.900000	25.393711	0.000434	20.864935
1039.294003	-2.995600	3.630700	-10.875000	25.369606	0.000435	20.854482
1040.289976	-3.010400	3.630700	-10.929000	25.407533	0.000435	20.850366
1041.289381	-3.011900	3.629500	-10.931000	25.433232	0.000434	20.854360
1042.293594	-3.007400	3.629700	-10.915000	25.401024	0.000434	20.850468
1043.297972	-2.985300	3.628500	-10.831000	25.424461	0.000433	20.877793
1044.284574	-2.996400	3.628400	-10.871000	25.427670	0.000436	20.875800
1045.289307	-2.978700	3.628700	-10.807000	25.454557	0.000433	20.868661
1046.292599	-2.980400	3.629300	-10.816000	25.449368	0.000432	20.864873
1047.293857	-3.014000	3.627800	-10.933000	25.422626	0.000432	20.878796
1048.289318	-3.004200	3.627500	-10.897000	25.381399	0.000430	20.858263
1049.284198	-3.002400	3.627500	-10.890000	25.407271	0.000432	20.873810
1050.291285	-3.008700	3.626100	-10.908000	25.475167	0.000432	20.864228
1051.291543	-2.992100	3.628100	-10.855000	25.472433	0.000431	20.861956
1052.292881	-2.986900	3.627000	-10.832000	25.483765	0.000431	20.893248
1053.288107	-2.992400	3.626600	-10.851000	25.433368	0.000429	20.877255
1054.288789	-2.999200	3.626400	-10.876000	25.413212	0.000430	20.857017
1055.286222	-3.002000	3.625900	-10.883000	25.419601	0.000429	20.857741
1056.295144	-3.000400	3.625300	-10.876000	25.414211	0.000430	20.874140
1057.294113	-2.979400	3.625600	-10.801000	25.409561	0.000430	20.870893
1058.294266	-3.017300	3.624400	-10.935000	25.459986	0.000427	20.883595
1059.292232	-3.000000	3.624600	-10.872000	25.458570	0.000428	20.888810
1060.299565	-3.014000	3.624000	-10.921000	25.449626	0.000427	20.879355
1061.306855	-2.985900	3.623800	-10.820000	25.433494	0.000427	20.869322
1062.287795	-3.024300	3.623000	-10.956000	25.447561	0.000427	20.870645
1063.307806	-3.024900	3.621700	-10.953000	25.460412	0.000428	20.867902
1064.295452	-2.975600	3.623700	-10.782000	25.470278	0.000424	20.856947
1065.300823	-3.025600	3.623300	-10.962000	25.396690	0.000426	20.873616
1066.293759	-2.999400	3.622600	-10.864000	25.420350	0.000423	20.900216
1067.295594	-3.033900	3.622000	-10.988000	25.438293	0.000425	20.885993
1068.287533	-2.998400	3.620600	-10.855000	25.476194	0.000423	20.883275
1069.302988	-2.991800	3.622000	-10.836000	25.485590	0.000423	20.889865
1070.303625	-2.989500	3.622600	-10.829000	25.494883	0.000424	20.875965
1071.290787	-3.015000	3.620800	-10.916000	25.527738	0.000423	20.866286
1072.316422	-2.978600	3.621000	-10.785000	25.549158	0.000421	20.869779
1073.293220	-3.001600	3.620400	-10.866000	25.543541	0.000421	20.894008
1074.295680	-3.011800	3.619800	-10.901000	25.525701	0.000422	20.895059
1075.295303	-2.984500	3.619700	-10.802000	25.458429	0.000420	20.892936
1076.309226	-3.003700	3.619100	-10.870000	25.482787	0.000420	20.882310
1077.308181	-2.990900	3.619900	-10.827000	25.516585	0.000419	20.895386
1078.304532	-3.022700	3.618000	-10.935000	25.494841	0.000421	20.900577
1079.297696	-2.991000	3.618400	-10.822000	25.502272	0.000419	20.900927
1080.296539	-2.985600	3.617700	-10.799000	25.529983	0.000418	20.890824
1081.301311	-2.979600	3.618400	-10.780000	25.552396	0.000418	20.888677
1082.297173	-3.007800	3.617800	-10.881000	25.587411	0.000417	20.889702
1083.295523	-2.988800	3.618500	-10.814000	25.557993	0.000419	20.898564
1084.292828	-3.028500	3.616600	-10.952000	25.495071	0.000416	20.917876
1085.306650	-3.014700	3.616800	-10.902000	25.457325	0.000417	20.901784
1086.294143	-2.990100	3.615800	-10.811000	25.426907	0.000417	20.907274
1087.297104	-2.992200	3.616700	-10.822000	25.449149	0.000415	20.908272
1088.307292	-2.988600	3.616400	-10.807000	25.425496	0.000417	20.892108
1089.303668	-2.974300	3.615900	-10.754000	25.434094	0.000415	20.897897
1090.309432	-2.970700	3.616400	-10.742000	25.416996	0.000416	20.913443
1091.300510	-2.978300	3.615200	-10.766000	25.402361	0.000414	20.906334
1092.333858	-3.016800	3.612900	-10.898000	25.374973	0.000414	20.890688
1093.306823	-2.990300	3.614000	-10.806000	25.389614	0.000414	20.885476
1094.305416	-2.999400	3.613800	-10.839000	25.433457	0.000413	20.905317
1095.304544	-3.020900	3.612300	-10.912000	25.393718	0.000415	20.902398
1096.304811	-2.980900	3.613700	-10.771000	25.406196	0.000413	20.912081
1097.302535	-2.989400	3.614100	-10.803000	25.456747	0.000414	20.881291
1098.304004	-2.989800	3.613600	-10.803000	25.519372	0.000413	20.910038
1099.306617	-2.996000	3.613800	-10.825000	25.491888	0.000412	20.922740
1100.302910	-3.000400	3.612200	-10.838000	25.473625	0.000412	20.915306
1101.310840	-3.005500	3.611900	-10.854000	25.449223	0.000411	20.894122
1102.325045	-3.017600	3.610000	-10.893000	25.441022	0.000412	20.892526
1103.307827	-3.016600	3.610900	-10.892000	25.466350	0.000410	20.900415
1104.309380	-3.007200	3.611100	-10.859000	25.416721	0.000410	20.875712
1105.305295	-3.001600	3.611500	-10.839000	25.439293	0.000410	20.937726
1106.318392	-3.013800	3.611000	-10.882000	25.444736	0.000410	20.899100
1107.306847	-2.985700	3.610200	-10.778000	25.472370	0.000409	20.878013
1108.307978	-2.991500	3.609800	-10.798000	25.484476	0.000410	20.883057
1109.312103	-2.978200	3.609900	-10.750000	25.502841	0.000409	20.883956
1110.300711	-2.990200	3.609200	-10.791000	25.465888	0.000408	20.881935
1111.310110	-3.003900	3.608700	-10.840000	25.455528	0.000409	20.872481
1112.310257	-3.024200	3.607300	-10.908000	25.490990	0.000406	20.865892
1113.306010	-3.015400	3.608300	-10.879000	25.528367	0.000407	20.891098
1114.313749	-3.005300	3.607800	-10.841000	25.461721	0.000407	20.883914
1115.305540	-3.006200	3.607900	-10.845000	25.480957	0.000408	20.899910
1116.315685	-2.984500	3.607100	-10.764000	25.485804	0.000406	20.889607
1117.313498	-3.002400	3.606600	-10.828000	25.507376	0.000404	20.876182
1118.313413	-2.995600	3.607900	-10.807000	25.516122	0.000406	20.882594
1119.316901	-2.981600	3.606600	-10.753000	25.515054	0.000405	20.872514
1120.312675	-3.000000	3.605800	-10.816000	25.510486	0.000402	20.875038
1121.311259	-3.000800	3.606400	-10.821000	25.485264	0.000403	20.871521
1122.315194	-3.011000	3.604700	-10.853000	25.451616	0.000405	20.867604
1123.310269	-3.003100	3.604800	-10.825000	25.434966	0.000402	20.871747
1124.308340	-2.986800	3.605100	-10.767000	25.438147	0.000402	20.883950
1125.314014	-3.034600	3.603400	-10.934000	25.469240	0.000402	20.871077
1126.306942	-3.014300	3.604700	-10.865000	25.491981	0.000402	20.878266
1127.317802	-3.017400	3.603500	-10.872000	25.571153	0.000401	20.858678
1128.315392	-3.010200	3.603800	-10.847000	25.561244	0.000402	20.871959
1129.317136	-3.008700	3.603100	-10.839000	25.537239	0.000401	20.857810
1130.314651	-2.999700	3.603000	-10.807000	25.549443	0.000399	20.847781
1131.330886	-2.995600	3.602800	-10.792000	25.553075	0.000400	20.877980
1132.313441	-3.018400	3.603000	-10.875000	25.576262	0.000400	20.867601
1133.309323	-2.987700	3.602900	-10.762000	25.539858	0.000399	20.850957
1134.315984	-2.997900	3.602800	-10.800000	25.515336	0.000398	20.868056
1135.318290	-2.994900	3.601400	-10.785000	25.522668	0.000399	20.876367
1136.315736	-2.989700	3.602200	-10.769000	25.522893	0.000400	20.862121
1137.318173	-3.006000	3.600200	-10.821000	25.563025	0.000397	20.854783
1138.316425	-2.996900	3.601100	-10.791000	25.581669	0.000399	20.879543
1139.315896	-2.995900	3.600100	-10.784000	25.543105	0.000396	20.858485
1140.321537	-2.999800	3.599900	-10.798000	25.527052	0.000395	20.853270
1141.310549	-2.999000	3.600900	-10.798000	25.548079	0.000396	20.872015
1142.318683	-3.002400	3.599300	-10.805000	25.531832	0.000395	20.864707
1143.314046	-3.002600	3.599600	-10.807000	25.532504	0.000394	20.863012
1144.319159	-3.013400	3.598800	-10.844000	25.521645	0.000393	20.852581
1145.316291	-3.005600	3.598900	-10.816000	25.489516	0.000392	20.859671
1146.318624	-2.992900	3.600200	-10.773000	25.475027	0.000394	20.820467
1147.323048	-2.966100	3.599200	-10.674000	25.460791	0.000394	20.854533
1148.322152	-2.996300	3.598500	-10.780000	25.449661	0.000396	20.851418
1149.321275	-3.001000	3.597700	-10.796000	25.450856	0.000397	20.845031
1150.318736	-2.986400	3.597000	-10.741000	25.471310	0.000394	20.850398
1151.335283	-2.992000	3.597100	-10.762000	25.450982	0.000392	20.861752
1152.331834	-3.013400	3.596400	-10.836000	25.442090	0.000394	20.856143
1153.326930	-3.025900	3.595800	-10.878000	25.454241	0.000392	20.837051
1154.323541	-2.993300	3.595500	-10.761000	25.469729	0.000391	20.837431
1155.325920	-2.998700	3.594600	-10.778000	25.405043	0.000391	20.846443
1156.318385	-3.030000	3.593800	-10.888000	25.386577	0.000392	20.839755
1157.342369	-3.011100	3.595600	-10.827000	25.438395	0.000390	20.857174
1158.319774	-2.997900	3.595000	-10.777000	25.448067	0.000388	20.839386
1159.322402	-3.004600	3.594400	-10.798000	25.430250	0.000389	20.855633
1160.337172	-2.997700	3.593500	-10.772000	25.445212	0.000389	20.836993
1161.330454	-2.983500	3.593700	-10.720000	25.454832	0.000389	20.838118
1162.331464	-2.971200	3.594000	-10.676000	25.517830	0.000388	20.854440
1163.324227	-2.991400	3.593000	-10.747000	25.564847	0.000392	20.852819
1164.327455	-3.020800	3.590800	-10.847000	25.508217	0.000389	20.844313
1165.326601	-3.031100	3.591100	-10.884000	25.506705	0.000390	20.835208
1166.325431	-2.993400	3.591800	-10.751000	25.491697	0.000386	20.838155
1167.320978	-2.992100	3.592500	-10.748000	25.480544	0.000387	20.823161
1168.332860	-3.010400	3.589800	-10.806000	25.519261	0.000385	20.827429
1169.333715	-2.997400	3.592100	-10.766000	25.593367	0.000388	20.832151
1170.338004	-3.018000	3.590300	-10.835000	25.584496	0.000387	20.816130
1171.327619	-2.975500	3.590900	-10.684000	25.557810	0.000386	20.839114
1172.330838	-3.014400	3.590000	-10.821000	25.493847	0.000386	20.838417
1173.327614	-3.013600	3.588900	-10.815000	25.501902	0.000385	20.821376
1174.332615	-2.993500	3.590000	-10.745000	25.519599	0.000386	20.826346
1175.332835	-3.010100	3.590100	-10.805000	25.588235	0.000386	20.832687
1176.333580	-2.992700	3.589500	-10.742000	25.600439	0.000385	20.835460
1177.335680	-3.003600	3.589000	-10.779000	25.645934	0.000385	20.844168
1178.323036	-2.984100	3.588300	-10.707000	25.616219	0.000385	20.813377
1179.335956	-2.989000	3.589400	-10.728000	25.630981	0.000385	20.814926
1180.327658	-2.978100	3.588400	-10.686000	25.629768	0.000382	20.812760
1181.333180	-2.972900	3.588600	-10.668000	25.588225	0.000382	20.814659
1182.334728	-3.010100	3.587000	-10.797000	25.537509	0.000383	20.814935
1183.331430	-3.016600	3.585900	-10.817000	25.574783	0.000383	20.811117
1184.330700	-3.012600	3.587100	-10.806000	25.576875	0.000384	20.831235
1185.334259	-3.027400	3.586700	-10.858000	25.630104	0.000382	20.823528
1186.338407	-3.000300	3.585400	-10.756000	25.664243	0.000381	20.815616
1187.327243	-2.995000	3.585500	-10.738000	25.632097	0.000380	20.817469
1188.342463	-3.012300	3.586300	-10.802000	25.570746	0.000380	20.822235
1189.341706	-2.998800	3.584300	-10.748000	25.515583	0.000379	20.815675
1190.329087	-3.010700	3.583600	-10.789000	25.511608	0.000379	20.821166
1191.346457	-2.992700	3.583900	-10.724000	25.530423	0.000381	20.826784
1192.342563	-3.011400	3.583700	-10.791000	25.549984	0.000379	20.830308
1193.340140	-2.997100	3.584700	-10.742000	25.564420	0.000379	20.823468
1194.338273	-2.997000	3.583800	-10.740000	25.614721	0.000378	20.813768
1195.331593	-3.008800	3.583700	-10.782000	25.637086	0.000379	20.800195
1196.333064	-3.015900	3.582900	-10.804000	25.648419	0.000379	20.816793
1197.341417	-3.001800	3.582600	-10.753000	25.653664	0.000377	20.804518
1198.336944	-3.006200	3.581200	-10.765000	25.611299	0.000378	20.815073
1199.343495	-2.994900	3.582200	-10.727000	25.594358	0.000378	20.808016
1200.338932	-2.987200	3.582100	-10.699000	25.566579	0.000378	20.798611
1201.344584	-2.980500	3.582800	-10.677000	25.558905	0.000376	20.795645
1202.338981	-3.008100	3.581400	-10.772000	25.534304	0.000377	20.806026
1203.341833	-3.026200	3.580300	-10.833000	25.526926	0.000376	20.808100
1204.338914	-2.967000	3.582200	-10.627000	25.506851	0.000376	20.801217
1205.355887	-2.986200	3.580100	-10.690000	25.493856	0.000375	20.815667
1206.340072	-3.006600	3.581100	-10.766000	25.482503	0.000374	20.815171
1207.334481	-3.007300	3.578300	-10.760000	25.505095	0.000375	20.806091
1208.339044	-3.005900	3.578500	-10.755000	25.534224	0.000375	20.799307
1209.339836	-2.993800	3.579800	-10.715000	25.530369	0.000374	20.800652
1210.334662	-2.966900	3.578200	-10.616000	25.544114	0.000374	20.804498
1211.334693	-2.977700	3.578400	-10.654000	25.587479	0.000373	20.806324
1212.335724	-2.997000	3.577400	-10.720000	25.564891	0.000370	20.796915
1213.338458	-2.971000	3.578000	-10.629000	25.560818	0.000372	20.798988
1214.340603	-2.979900	3.578300	-10.663000	25.616108	0.000372	20.804731
1215.335407	-2.991300	3.577600	-10.701000	25.626276	0.000373	20.798821
1216.339513	-3.002100	3.578000	-10.740000	25.585776	0.000372	20.789914
1217.348653	-2.984000	3.577900	-10.676000	25.634403	0.000373	20.798923
1218.345259	-3.005600	3.574800	-10.744000	25.635894	0.000369	20.799472
1219.352736	-2.988300	3.575800	-10.684000	25.609187	0.000371	20.803943
1220.344977	-3.001400	3.575400	-10.730000	25.602630	0.000368	20.794039
1221.348357	-2.999600	3.574700	-10.721000	25.614683	0.000370	20.788600
1222.357332	-3.011900	3.574900	-10.767000	25.615778	0.000367	20.777846
1223.350978	-3.006700	3.574500	-10.747000	25.636255	0.000370	20.804101
1224.353969	-3.011200	3.573200	-10.759000	25.666222	0.000367	20.782517
1225.344323	-3.005700	3.573000	-10.739000	25.662177	0.000366	20.774660
1226.357158	-3.010900	3.573800	-10.759000	25.648758	0.000369	20.775881
1227.355166	-3.011200	3.572800	-10.757000	25.561568	0.000366	20.804009
1228.346214	-3.001000	3.572700	-10.721000	25.583789	0.000367	20.786496
1229.349396	-3.008200	3.572200	-10.746000	25.575466	0.000369	20.789517
1230.357123	-3.000700	3.571700	-10.717000	25.620444	0.000367	20.806240
1231.349157	-2.984500	3.571800	-10.659000	25.648995	0.000369	20.770430
1232.357068	-2.980500	3.573000	-10.649000	25.664651	0.000366	20.768611
1233.350797	-2.989800	3.571600	-10.678000	25.650094	0.000365	20.779594
1234.350003	-2.982100	3.571400	-10.650000	25.631262	0.000364	20.785337
1235.355295	-2.992500	3.570000	-10.682000	25.638742	0.000364	20.773409
1236.352399	-2.997200	3.570500	-10.701000	25.582684	0.000364	20.781119
1237.349487	-3.003800	3.570100	-10.723000	25.558784	0.000365	20.777980
1238.353714	-2.996700	3.569700	-10.696000	25.572279	0.000364	20.773514
1239.350924	-2.980700	3.568700	-10.637000	25.517291	0.000361	20.775665
1240.369520	-3.002300	3.569100	-10.715000	25.497887	0.000363	20.789369
1241.357987	-2.998500	3.570800	-10.705000	25.511385	0.000363	20.767363
1242.364110	-3.002700	3.567700	-10.711000	25.515036	0.000362	20.778141
1243.353048	-3.000100	3.567300	-10.701000	25.543420	0.000359	20.775826
1244.365768	-2.978100	3.569600	-10.630000	25.566904	0.000361	20.793246
1245.351782	-3.018000	3.566900	-10.764000	25.550061	0.000362	20.771116
1246.379029	-3.013200	3.566300	-10.744000	25.581571	0.000359	20.787113
1247.374806	-2.994400	3.567100	-10.680000	25.622450	0.000359	20.768426
1248.359251	-3.010500	3.567700	-10.739000	25.584882	0.000360	20.782852
1249.358311	-2.974400	3.567000	-10.609000	25.597136	0.000358	20.770977
1250.359965	-3.021900	3.564400	-10.770000	25.610429	0.000358	20.774370
1251.347823	-2.989500	3.565600	-10.658000	25.612620	0.000361	20.783209
1252.359376	-3.007700	3.565200	-10.722000	25.607528	0.000361	20.767664
1253.365232	-3.005600	3.565000	-10.714000	25.568469	0.000359	20.790551
1254.355774	-2.976600	3.566000	-10.613000	25.573965	0.000358	20.777104
1255.355075	-3.011900	3.564100	-10.734000	25.593945	0.000358	20.774411
1256.358474	-3.008300	3.564100	-10.721000	25.566738	0.000356	20.784071
1257.378988	-3.003600	3.565300	-10.708000	25.560008	0.000355	20.760242
1258.365560	-2.988700	3.564900	-10.654000	25.600241	0.000359	20.753232
1259.356179	-3.001100	3.562600	-10.691000	25.630456	0.000357	20.751810
1260.366369	-2.998900	3.563500	-10.686000	25.651182	0.000356	20.755557
1261.355103	-3.023100	3.562000	-10.767000	25.673349	0.000355	20.774502
1262.353007	-3.039500	3.561200	-10.823000	25.612029	0.000355	20.757010
1263.364377	-3.011300	3.562000	-10.725000	25.634218	0.000354	20.766494
1264.360658	-2.993900	3.562300	-10.665000	25.602318	0.000353	20.761957
1265.357599	-3.011300	3.561000	-10.721000	25.640263	0.000354	20.757866
1266.365876	-3.015800	3.560500	-10.737000	25.628858	0.000355	20.754947
1267.367696	-2.989000	3.561100	-10.644000	25.647224	0.000354	20.758220
1268.362740	-2.974800	3.561800	-10.594000	25.607570	0.000351	20.741153
1269.374814	-3.032400	3.559600	-10.793000	25.610280	0.000352	20.763315
1270.371167	-2.974900	3.559400	-10.588000	25.602479	0.000352	20.763541
1271.361355	-2.987500	3.560800	-10.637000	25.551764	0.000351	20.764291
1272.370552	-2.995000	3.559500	-10.660000	25.558973	0.000353	20.752564
1273.380748	-3.003800	3.559300	-10.691000	25.595848	0.000351	20.741234
1274.367404	-2.993600	3.558300	-10.652000	25.624502	0.000350	20.760055
1275.364140	-2.988900	3.559400	-10.638000	25.600156	0.000351	20.731809
1276.362410	-3.014400	3.557800	-10.724000	25.581021	0.000353	20.747680
1277.368891	-3.002200	3.557600	-10.679000	25.617254	0.000351	20.746137
1278.383219	-3.027500	3.556200	-10.766000	25.589002	0.000349	20.752376
1279.380061	-3.002900	3.558500	-10.685000	25.595689	0.000347	20.742496
1280.362226	-3.002100	3.555900	-10.674000	25.643995	0.000349	20.763511
1281.359457	-2.997100	3.556500	-10.658000	25.624216	0.000348	20.752655
1282.370864	-3.018800	3.555100	-10.731000	25.656717	0.000348	20.745942
1283.369586	-2.989100	3.555400	-10.627000	25.663527	0.000349	20.739031
1284.360157	-2.999000	3.556200	-10.664000	25.704622	0.000348	20.729572
1285.361014	-3.028400	3.555500	-10.766000	25.674557	0.000348	20.731144
1286.372887	-3.007600	3.554300	-10.688000	25.648074	0.000349	20.743900
1287.365573	-3.022000	3.553800	-10.739000	25.650185	0.000347	20.755977
1288.363111	-3.016000	3.554500	-10.720000	25.610285	0.000346	20.756681
1289.365349	-3.012000	3.554800	-10.706000	25.587373	0.000344	20.757379
1290.371431	-3.002000	3.554300	-10.669000	25.594973	0.000344	20.740355
1291.360502	-2.982700	3.553600	-10.598000	25.564513	0.000346	20.734894
1292.370162	-2.982500	3.554300	-10.599000	25.533997	0.000344	20.742180
1293.364573	-2.983500	3.553700	-10.602000	25.540138	0.000343	20.729381
1294.363253	-2.997000	3.551300	-10.642000	25.536590	0.000344	20.748578
1295.377023	-3.016100	3.553100	-10.715000	25.583078	0.000343	20.739314
1296.386899	-2.975800	3.552800	-10.571000	25.591428	0.000345	20.747700
1297.383776	-2.992600	3.551100	-10.626000	25.580023	0.000344	20.744781
1298.374380	-2.996600	3.551600	-10.642000	25.613941	0.000343	20.745181
1299.378748	-3.004700	3.550700	-10.668000	25.638195	0.000344	20.733977
1300.374524	-2.978600	3.550300	-10.574000	25.645477	0.000343	20.725644
1301.370956	-2.985300	3.552200	-10.604000	25.655912	0.000343	20.726641
1302.364569	-2.990500	3.550400	-10.616000	25.651368	0.000341	20.741518
1303.368809	-3.015100	3.548700	-10.699000	25.666450	0.000343	20.742441
1304.370470	-2.990200	3.549100	-10.611000	25.693161	0.000341	20.757417
1305.370215	-3.001200	3.548600	-10.649000	25.726008	0.000340	20.740148
1306.373493	-3.025800	3.547200	-10.732000	25.754755	0.000342	20.736779
1307.378665	-3.005000	3.547300	-10.659000	25.727675	0.000341	20.722380
1308.370834	-3.000900	3.548500	-10.648000	25.683223	0.000339	20.755021
1309.380245	-3.019000	3.546100	-10.704000	25.679351	0.000338	20.741174
1310.368248	-3.002100	3.546900	-10.647000	25.664346	0.000339	20.733216
1311.374225	-2.999800	3.546400	-10.637000	25.652442	0.000338	20.736432
1312.377370	-3.001700	3.546500	-10.645000	25.626998	0.000338	20.751656
1313.372947	-2.998700	3.546300	-10.634000	25.603195	0.000340	20.747190
1314.364516	-3.007900	3.545700	-10.664000	25.623298	0.000337	20.710954
1315.371575	-3.026600	3.544200	-10.726000	25.647647	0.000339	20.750109
1316.386081	-3.003000	3.545800	-10.647000	25.636915	0.000337	20.712302
1317.371444	-3.002200	3.544800	-10.641000	25.673365	0.000338	20.735636
1318.371890	-3.029400	3.544700	-10.738000	25.661986	0.000337	20.724206
1319.365502	-2.997800	3.543800	-10.622000	25.651748	0.000337	20.746641
1320.373386	-3.005900	3.542700	-10.648000	25.661634	0.000336	20.723853
1321.374222	-2.985000	3.544000	-10.577000	25.637486	0.000336	20.737533
1322.366654	-3.004800	3.544000	-10.649000	25.663430	0.000337	20.735615
1323.373462	-2.999700	3.542800	-10.626000	25.731282	0.000335	20.722210
1324.370306	-3.003200	3.542000	-10.636000	25.752824	0.000337	20.744797
1325.369847	-2.991000	3.542100	-10.593000	25.736376	0.000334	20.742027
1326.383220	-3.000200	3.541000	-10.623000	25.734297	0.000334	20.732826
1327.375885	-2.996400	3.540800	-10.609000	25.672026	0.000333	20.713427
1328.370038	-3.001200	3.541500	-10.628000	25.680552	0.000334	20.714404
1329.376648	-2.978900	3.541200	-10.548000	25.708876	0.000335	20.707291
1330.373380	-2.977900	3.541400	-10.544000	25.730964	0.000334	20.738014
1331.369967	-3.008200	3.540800	-10.651000	25.762641	0.000334	20.727157
1332.374203	-2.983000	3.540000	-10.559000	25.742272	0.000334	20.729457
1333.372397	-3.020300	3.538400	-10.686000	25.730647	0.000332	20.728685
1334.370941	-3.012200	3.539100	-10.659000	25.703961	0.000331	20.730805
1335.385239	-2.992700	3.539800	-10.593000	25.641646	0.000331	20.719425
1336.374563	-2.987200	3.539900	-10.574000	25.610910	0.000330	20.729807
1337.373948	-2.986600	3.540100	-10.572000	25.617918	0.000329	20.715033
1338.375348	-2.970500	3.538600	-10.510000	25.655788	0.000330	20.715136
1339.374503	-3.018000	3.536200	-10.672000	25.687766	0.000331	20.737773
1340.373857	-2.993400	3.536600	-10.586000	25.734652	0.000329	20.737450
1341.394588	-3.000900	3.536000	-10.610000	25.745908	0.000329	20.731686
1342.373426	-3.015600	3.536500	-10.663000	25.762007	0.000330	20.744538
1343.373415	-2.998100	3.536800	-10.602000	25.749885	0.000326	20.755596
1344.378240	-3.016100	3.536200	-10.665000	25.738284	0.000329	20.747263
1345.373813	-2.991600	3.536700	-10.579000	25.693441	0.000327	20.729722
1346.374513	-2.957500	3.536000	-10.456000	25.657559	0.000327	20.753427
1347.389375	-3.022200	3.533000	-10.677000	25.648445	0.000328	20.746169
1348.382462	-3.001200	3.534700	-10.608000	25.607499	0.000327	20.714526
1349.380300	-3.015100	3.535200	-10.658000	25.618135	0.000327	20.725684
1350.376971	-2.996400	3.534600	-10.590000	25.636822	0.000326	20.736866
1351.383759	-2.999100	3.534500	-10.600000	25.641395	0.000325	20.731975
1352.382851	-3.009000	3.534000	-10.633000	25.645894	0.000326	20.724166
1353.387466	-2.997400	3.532300	-10.587000	25.618540	0.000325	20.705226
1354.382364	-3.010200	3.531400	-10.629000	25.627211	0.000324	20.729109
1355.379620	-3.012000	3.533200	-10.642000	25.658323	0.000323	20.723847
1356.379714	-3.004000	3.532400	-10.611000	25.664612	0.000326	20.736802
1357.388064	-3.025100	3.530200	-10.678000	25.639718	0.000323	20.733610
1358.380725	-3.027300	3.530300	-10.687000	25.666500	0.000324	20.736328
1359.390697	-3.021700	3.530500	-10.668000	25.701191	0.000322	20.708106
1360.396931	-3.008900	3.529400	-10.618000	25.708547	0.000324	20.743946
1361.385199	-3.001900	3.530200	-10.596000	25.639798	0.000320	20.724207
1362.389182	-3.012100	3.530300	-10.632000	25.637216	0.000321	20.733942
1363.380883	-3.008500	3.528700	-10.615000	25.643927	0.000322	20.730725
1364.380671	-2.993500	3.529400	-10.565000	25.644399	0.000320	20.726932
1365.387544	-3.002300	3.529600	-10.595000	25.660183	0.000322	20.732353
1366.392620	-3.000400	3.529800	-10.590000	25.690227	0.000319	20.731709
1367.386024	-2.990300	3.529400	-10.553000	25.705009	0.000318	20.738496
1368.385547	-2.994600	3.527400	-10.562000	25.703093	0.000319	20.740365
1369.395283	-2.987900	3.529100	-10.543000	25.716071	0.000319	20.717837
1370.389982	-3.005200	3.527400	-10.599000	25.736345	0.000319	20.729667
1371.389538	-2.996200	3.527500	-10.568000	25.757140	0.000319	20.727321
1372.396206	-2.984100	3.527900	-10.526000	25.696120	0.000318	20.732413
1373.386524	-2.978000	3.528500	-10.507000	25.694183	0.000315	20.711499
1374.384729	-2.997200	3.525900	-10.566000	25.718237	0.000318	20.732816
1375.386410	-3.026100	3.525200	-10.666000	25.699108	0.000318	20.733517
1376.387644	-3.010700	3.525300	-10.612000	25.724821	0.000316	20.748439
1377.391762	-2.992100	3.525000	-10.546000	25.741520	0.000315	20.750039
1378.385254	-3.014800	3.523500	-10.622000	25.733023	0.000316	20.764264
1379.382669	-2.997300	3.525000	-10.565000	25.686439	0.000313	20.738811
1380.382930	-3.007600	3.524300	-10.599000	25.677047	0.000316	20.746447
1381.385883	-3.008000	3.524500	-10.600000	25.717624	0.000314	20.740261
1382.387526	-2.981900	3.524500	-10.508000	25.711910	0.000314	20.732151
1383.382734	-3.008800	3.523000	-10.598000	25.707763	0.000314	20.754065
1384.406122	-3.024100	3.523300	-10.653000	25.721429	0.000314	20.743609
1385.388834	-2.994500	3.522600	-10.548000	25.743073	0.000313	20.751125
1386.393891	-2.996600	3.520700	-10.549000	25.776042	0.000311	20.738722
1387.385463	-2.989900	3.521200	-10.526000	25.757632	0.000313	20.742989
1388.389156	-3.002400	3.520300	-10.568000	25.709039	0.000312	20.771942
1389.391860	-2.997000	3.521700	-10.552000	25.716419	0.000311	20.758492
1390.400239	-3.011900	3.519900	-10.601000	25.714436	0.000311	20.742275
1391.392326	-2.981300	3.521600	-10.497000	25.741170	0.000309	20.747317
1392.387650	-2.999300	3.519600	-10.556000	25.685840	0.000312	20.749589
1393.393976	-3.027800	3.519900	-10.656000	25.681045	0.000309	20.758524
1394.385341	-2.999100	3.519100	-10.553000	25.687658	0.000311	20.750466
1395.392183	-3.005100	3.518400	-10.572000	25.677497	0.000311	20.756857
1396.386683	-3.006900	3.518500	-10.578000	25.715387	0.000309	20.749394
1397.402730	-2.979000	3.519300	-10.483000	25.718691	0.000311	20.765990
1398.397788	-3.004400	3.517400	-10.567000	25.699512	0.000306	20.753839
1399.390552	-3.005100	3.516600	-10.566000	25.723095	0.000307	20.741489
1400.389942	-3.005400	3.515700	-10.565000	25.722672	0.000309	20.751496
1401.409286	-3.009400	3.516700	-10.583000	25.732835	0.000307	20.754118
1402.405595	-2.999900	3.516800	-10.549000	25.746627	0.000306	20.739995
1403.398718	-2.990600	3.517100	-10.517000	25.783570	0.000308	20.755767
1404.400007	-3.006300	3.516700	-10.570000	25.731972	0.000306	20.744242
1405.410723	-3.008900	3.516200	-10.578000	25.704941	0.000307	20.779206
1406.407401	-3.007200	3.516000	-10.572000	25.676666	0.000307	20.744167
1407.397661	-2.979800	3.516000	-10.476000	25.644592	0.000305	20.766956
1408.398073	-3.004800	3.514900	-10.561000	25.661214	0.000307	20.745717
1409.403026	-3.002300	3.513900	-10.549000	25.682584	0.000304	20.759596
1410.391724	-3.018000	3.513300	-10.602000	25.654855	0.000304	20.742649
1411.408801	-2.976900	3.513800	-10.460000	25.704846	0.000302	20.774369
1412.415886	-2.980200	3.514000	-10.472000	25.723133	0.000304	20.753856
1413.398540	-3.010300	3.511100	-10.568000	25.725575	0.000306	20.761524
1414.404233	-3.009600	3.512600	-10.571000	25.733050	0.000305	20.760024
1415.401643	-2.996300	3.514000	-10.528000	25.695609	0.000303	20.742805
1416.397203	-3.001500	3.512500	-10.542000	25.685991	0.000303	20.767285
1417.398901	-3.012600	3.511300	-10.577000	25.728055	0.000303	20.735565
1418.398856	-2.975100	3.511300	-10.445000	25.704603	0.000303	20.762271
1419.404207	-2.995300	3.509700	-10.512000	25.689623	0.000302	20.742009
1420.415187	-3.008000	3.510100	-10.557000	25.722143	0.000302	20.767561
1421.397345	-3.022000	3.509800	-10.605000	25.786518	0.000301	20.755410
1422.398720	-2.995500	3.510000	-10.512000	25.787881	0.000301	20.770530
1423.404648	-2.983800	3.510400	-10.473000	25.820402	0.000302	20.766687
1424.409381	-3.012800	3.508500	-10.569000	25.802740	0.000301	20.779291
1425.402250	-3.016600	3.507000	-10.579000	25.785644	0.000300	20.768283
1426.397923	-2.984200	3.508700	-10.469000	25.782041	0.000299	20.758499
1427.400506	-3.005300	3.508400	-10.543000	25.732078	0.000298	20.744348
1428.401546	-3.027900	3.507700	-10.620000	25.696253	0.000298	20.773325
1429.413045	-2.993900	3.506500	-10.497000	25.679206	0.000299	20.752883
1430.407611	-2.981800	3.506700	-10.455000	25.691857	0.000299	20.743304
1431.403454	-2.999700	3.507100	-10.519000	25.705191	0.000300	20.745792
1432.403824	-2.991600	3.506600	-10.490000	25.698311	0.000297	20.748838
1433.401891	-3.009300	3.505800	-10.549000	25.681446	0.000298	20.767936
1434.405424	-2.998000	3.506100	-10.511000	25.713868	0.000300	20.776319
1435.404094	-3.018400	3.504800	-10.578000	25.718465	0.000299	20.774773
1436.411473	-2.984000	3.505200	-10.458000	25.728601	0.000297	20.767409
1437.399367	-3.010400	3.504300	-10.549000	25.760457	0.000298	20.766216
1438.399183	-2.985300	3.505200	-10.463000	25.800626	0.000297	20.781910
1439.405674	-3.027100	3.503200	-10.604000	25.820102	0.000296	20.772076
1440.406118	-3.017900	3.504600	-10.576000	25.800676	0.000296	20.763941
1441.412712	-2.966500	3.503200	-10.391000	25.790418	0.000296	20.767862
1442.409678	-2.990200	3.504000	-10.477000	25.832949	0.000295	20.779291
1443.405481	-3.016000	3.502500	-10.562000	25.890160	0.000296	20.756630
1444.409634	-2.979800	3.503400	-10.439000	25.858857	0.000295	20.778290
1445.415148	-3.018500	3.501100	-10.566000	25.829497	0.000295	20.793367
1446.406282	-2.989300	3.503200	-10.471000	25.807312	0.000296	20.779617
1447.414732	-2.985300	3.501700	-10.453000	25.760728	0.000293	20.776920
1448.410636	-2.991300	3.500900	-10.472000	25.751140	0.000294	20.779143
1449.416703	-3.006400	3.499500	-10.520000	25.771635	0.000293	20.775073
1450.404588	-3.001600	3.501200	-10.509000	25.747314	0.000292	20.779567
1451.413293	-3.019500	3.498900	-10.564000	25.752728	0.000291	20.765565
1452.411894	-2.981000	3.500600	-10.434000	25.765523	0.000292	20.765141
1453.411290	-2.994400	3.498400	-10.474000	25.747162	0.000291	20.772303
1454.410518	-2.995300	3.499100	-10.479000	25.730644	0.000291	20.778470
1455.407300	-3.005300	3.497800	-10.511000	25.709947	0.000291	20.783286
1456.413981	-3.012000	3.498100	-10.536000	25.762247	0.000292	20.808791
1457.414015	-2.993100	3.497500	-10.467000	25.798868	0.000291	20.769238
1458.407226	-2.979700	3.498200	-10.422000	25.803261	0.000291	20.774599
1459.414800	-3.003000	3.495900	-10.497000	25.823956	0.000289	20.784008
1460.408099	-2.978800	3.497400	-10.417000	25.826792	0.000291	20.772158
1461.407386	-3.006700	3.496500	-10.512000	25.818218	0.000291	20.794839
1462.410984	-3.015700	3.495700	-10.541000	25.830318	0.000288	20.803675
1463.414976	-2.987900	3.496100	-10.445000	25.836105	0.000290	20.792893
1464.407608	-3.004200	3.495700	-10.501000	25.850392	0.000290	20.806297
1465.414164	-2.984400	3.495400	-10.430000	25.830321	0.000287	20.787083
1466.421821	-3.005500	3.495800	-10.506000	25.788734	0.000289	20.794620
1467.409867	-3.021700	3.494200	-10.557000	25.767119	0.000288	20.812737
1468.412474	-2.972700	3.495300	-10.389000	25.756910	0.000290	20.786835
1469.417669	-2.999100	3.493600	-10.477000	25.758453	0.000288	20.803558
1470.407854	-3.005100	3.494200	-10.499000	25.753133	0.000286	20.811491
1471.421304	-2.970200	3.493400	-10.375000	25.677677	0.000287	20.809669
1472.413398	-2.997500	3.492900	-10.469000	25.671737	0.000285	20.806074
1473.414403	-2.985600	3.493300	-10.429000	25.699991	0.000285	20.786563
1474.415776	-3.022800	3.491900	-10.553000	25.735072	0.000286	20.781970
1475.418555	-3.000300	3.493000	-10.480000	25.768264	0.000286	20.789231
1476.417167	-3.001000	3.492400	-10.480000	25.802373	0.000285	20.809269
1477.419920	-3.019400	3.490700	-10.539000	25.795346	0.000285	20.811219
1478.415948	-2.969500	3.491800	-10.368000	25.788065	0.000286	20.795370
1479.420093	-3.015900	3.490700	-10.526000	25.825083	0.000285	20.793675
1480.419567	-3.011400	3.491400	-10.513000	25.825777	0.000285	20.794372
1481.415957	-3.019800	3.490500	-10.539000	25.863365	0.000284	20.803682
1482.416821	-2.981300	3.490300	-10.404000	25.877497	0.000284	20.807921
1483.419791	-3.003700	3.489700	-10.481000	25.828613	0.000285	20.813342
1484.420838	-2.999900	3.489800	-10.467000	25.812113	0.000284	20.817630
1485.423210	-2.994700	3.489400	-10.449000	25.775076	0.000282	20.829265
1486.418838	-2.997700	3.489300	-10.458000	25.769634	0.000281	20.806728
1487.415716	-3.013100	3.487600	-10.508000	25.791024	0.000282	20.818257
1488.415316	-3.012000	3.487600	-10.503000	25.809810	0.000283	20.821006
1489.420588	-3.017600	3.486700	-10.520000	25.799746	0.000281	20.809948
1490.426184	-2.964900	3.489000	-10.344000	25.832540	0.000282	20.806856
1491.414625	-2.989400	3.487300	-10.424000	25.821187	0.000281	20.799719
1492.417912	-2.999600	3.485400	-10.454000	25.817038	0.000281	20.816887
1493.425939	-3.018000	3.485400	-10.518000	25.842904	0.000281	20.787869
1494.427854	-2.998200	3.487300	-10.455000	25.851872	0.000281	20.816792
1495.414591	-2.996500	3.485100	-10.443000	25.869709	0.000279	20.810055
1496.431096	-2.990300	3.485100	-10.420000	25.864919	0.000281	20.832269
1497.416769	-2.982500	3.485000	-10.392000	25.863950	0.000280	20.809011
1498.427422	-3.000000	3.484400	-10.452000	25.835781	0.000279	20.797783
1499.414769	-2.998900	3.482800	-10.443000	25.809024	0.000279	20.815950
1500.424923	-3.004100	3.482200	-10.460000	25.827887	0.000278	20.829682
1501.424614	-2.999600	3.484100	-10.449000	25.797304	0.000277	20.824566
1502.421208	-3.007300	3.483700	-10.476000	25.806474	0.000276	20.845629
1503.424211	-2.993100	3.483200	-10.425000	25.804170	0.000276	20.816764
1504.419847	-2.988100	3.482600	-10.406000	25.808045	0.000276	20.829665
1505.427528	-3.009400	3.482000	-10.478000	25.808919	0.000275	20.820585
1506.424159	-2.998600	3.481900	-10.440000	25.759950	0.000273	20.817864
1507.422320	-2.983700	3.481600	-10.386000	25.811680	0.000274	20.823833
1508.420002	-2.998500	3.480400	-10.435000	25.831533	0.000274	20.829077
1509.426161	-2.991600	3.481700	-10.415000	25.818842	0.000275	20.835768
1510.427412	-2.981600	3.481300	-10.379000	25.806199	0.000272	20.833974
1511.422503	-3.003000	3.480600	-10.451000	25.777307	0.000273	20.829608
1512.425771	-2.982900	3.480500	-10.381000	25.848336	0.000274	20.824619
1513.431787	-3.007000	3.479800	-10.463000	25.782950	0.000273	20.833380
1514.422181	-2.995500	3.479600	-10.422000	25.781414	0.000273	20.831363
1515.424817	-2.973300	3.480500	-10.348000	25.783729	0.000273	20.830369
1516.430546	-3.014900	3.479000	-10.488000	25.867424	0.000272	20.794008
1517.433973	-2.972000	3.479100	-10.339000	25.904465	0.000273	20.836908
1518.422818	-3.006200	3.478100	-10.455000	25.934478	0.000273	20.831498
1519.433722	-3.009200	3.477900	-10.465000	25.875874	0.000271	20.830946
1520.425607	-3.007500	3.477700	-10.458000	25.836578	0.000272	20.835567
1521.437984	-3.029900	3.475500	-10.529000	25.835881	0.000274	20.833918
1522.431562	-2.991200	3.477000	-10.400000	25.827589	0.000274	20.832227
1523.429525	-2.992100	3.475900	-10.399000	25.846667	0.000271	20.837167
1524.432653	-3.028200	3.475000	-10.522000	25.873898	0.000272	20.837022
1525.427660	-2.987400	3.476400	-10.385000	25.880358	0.000270	20.848252
1526.436498	-2.977900	3.476400	-10.351000	25.905251	0.000269	20.844335
1527.433684	-3.006400	3.474700	-10.445000	25.883757	0.000271	20.834598
1528.431067	-3.001500	3.473500	-10.425000	25.898072	0.000270	20.849452
1529.430954	-2.980000	3.475200	-10.355000	25.875117	0.000271	20.834927
1530.434114	-3.011500	3.473400	-10.458000	25.809561	0.000271	20.858213
1531.431614	-3.008100	3.472000	-10.443000	25.829808	0.000270	20.852474
1532.434251	-3.003200	3.473800	-10.431000	25.833708	0.000271	20.847382
1533.438900	-2.985400	3.473000	-10.367000	25.885307	0.000269	20.855594
1534.430368	-2.982800	3.473600	-10.360000	25.888136	0.000269	20.831884
1535.433928	-2.994400	3.472200	-10.397000	25.861482	0.000270	20.829290
1536.427067	-3.015500	3.471500	-10.467000	25.816592	0.000268	20.840620
1537.431818	-3.028700	3.470700	-10.511000	25.812196	0.000269	20.830041
1538.433806	-3.005000	3.471300	-10.431000	25.832070	0.000269	20.868021
1539.427342	-2.992600	3.470600	-10.385000	25.831397	0.000267	20.840319
1540.445766	-2.991800	3.470300	-10.382000	25.879172	0.000265	20.856543
1541.430643	-3.012300	3.470100	-10.453000	25.875991	0.000267	20.859985
1542.438158	-2.977900	3.471100	-10.336000	25.915736	0.000267	20.857240
1543.440058	-2.983900	3.469400	-10.351000	25.904733	0.000267	20.849979
1544.439880	-2.989500	3.470900	-10.375000	25.896832	0.000263	20.836827
1545.432850	-3.011800	3.468800	-10.447000	25.818878	0.000265	20.861882
1546.436795	-3.002600	3.469200	-10.416000	25.794135	0.000264	20.843667
1547.434740	-3.010900	3.469600	-10.446000	25.775078	0.000266	20.829266
1548.450294	-3.017600	3.467700	-10.463000	25.815898	0.000265	20.857466
1549.432314	-2.989700	3.467400	-10.365000	25.842433	0.000261	20.880327
1550.434809	-2.992000	3.468100	-10.376000	25.839597	0.000263	20.851876
1551.436419	-3.008100	3.467100	-10.427000	25.863198	0.000261	20.859462
1552.433553	-3.003700	3.468000	-10.416000	25.903863	0.000265	20.849579
1553.442453	-2.986500	3.465800	-10.349000	25.924236	0.000263	20.871941
1554.434741	-2.993300	3.467200	-10.378000	25.925672	0.000263	20.865325
1555.435602	-2.986900	3.465200	-10.350000	25.885205	0.000265	20.851699
1556.444487	-2.974300	3.465700	-10.307000	25.857435	0.000262	20.867423
1557.434323	-2.986200	3.465900	-10.349000	25.876611	0.000262	20.859186
1558.432029	-3.019500	3.464600	-10.460000	25.941941	0.000263	20.865547
1559.436186	-3.014800	3.465200	-10.446000	25.906198	0.000264	20.887484
1560.436867	-2.981700	3.465500	-10.332000	25.910344	0.000263	20.876951
1561.443644	-2.991600	3.464500	-10.364000	25.916356	0.000261	20.882043
1562.448691	-3.002600	3.463700	-10.399000	25.912700	0.000261	20.877422
1563.441301	-2.991000	3.463700	-10.359000	25.870242	0.000263	20.870331
1564.442538	-2.994700	3.462100	-10.366000	25.854617	0.000261	20.852265
1565.445737	-2.993900	3.462900	-10.367000	25.856677	0.000260	20.866188
1566.442807	-3.008300	3.461200	-10.411000	25.838716	0.000259	20.892714
1567.440588	-3.019400	3.461200	-10.449000	25.843951	0.000261	20.883274
1568.468092	-2.993400	3.460700	-10.358000	25.893662	0.000260	20.875366
1569.439124	-3.003800	3.461300	-10.396000	25.861094	0.000258	20.888641
1570.442400	-2.993600	3.461100	-10.361000	25.809145	0.000259	20.877234
1571.442439	-3.005900	3.461100	-10.403000	25.812346	0.000258	20.890881
1572.441349	-2.994500	3.460900	-10.363000	25.846976	0.000259	20.864503
1573.444715	-3.013000	3.458200	-10.419000	25.883098	0.000257	20.881823
1574.461346	-2.996300	3.459200	-10.364000	25.877677	0.000255	20.888230
1575.456353	-2.987200	3.458800	-10.332000	25.898917	0.000258	20.894394
1576.443745	-3.003600	3.458300	-10.386000	25.938584	0.000255	20.890622
1577.442753	-2.999900	3.459700	-10.378000	25.897547	0.000257	20.884957
1578.442722	-2.979700	3.458500	-10.304000	25.940919	0.000256	20.883011
1579.443830	-2.998100	3.459600	-10.372000	25.959572	0.000255	20.899853
1580.444386	-3.020300	3.458000	-10.442000	25.966451	0.000255	20.891591
1581.446054	-3.013500	3.457300	-10.417000	25.966947	0.000255	20.901573
1582.445215	-3.025000	3.457500	-10.459000	26.018192	0.000253	20.865816
1583.451609	-2.985900	3.456700	-10.321000	25.991242	0.000253	20.877145
1584.447618	-2.992700	3.456300	-10.343000	25.956466	0.000255	20.880612
1585.445972	-2.996900	3.456000	-10.357000	25.960960	0.000252	20.858102
1586.455095	-2.995500	3.456400	-10.353000	25.925982	0.000253	20.905461
1587.448200	-2.984700	3.457000	-10.317000	25.918205	0.000251	20.896700
1588.456283	-3.000100	3.455000	-10.364000	25.917141	0.000251	20.894684
1589.448834	-3.004500	3.454900	-10.379000	25.951496	0.000251	20.907860
1590.449604	-3.001600	3.453900	-10.366000	25.965553	0.000251	20.890215
1591.460874	-2.994100	3.455000	-10.343000	25.964440	0.000250	20.902846
1592.448479	-2.993600	3.454300	-10.339000	25.966722	0.000249	20.882856
1593.444580	-2.995700	3.455100	-10.348000	25.947150	0.000247	20.882159
1594.456753	-3.027500	3.452100	-10.450000	25.898269	0.000248	20.900380
1595.455687	-3.009100	3.453000	-10.389000	25.908501	0.000247	20.888375
1596.463519	-2.971000	3.453100	-10.258000	25.963869	0.000246	20.886627
1597.448917	-2.983600	3.452800	-10.301000	25.967620	0.000249	20.887551
1598.453247	-2.985900	3.452700	-10.308000	25.950982	0.000246	20.883164
1599.452973	-3.009000	3.452000	-10.386000	25.971547	0.000245	20.855937
1600.449750	-3.008200	3.451000	-10.381000	25.924576	0.000245	20.857112
1601.436203	-3.003300	3.450300	-10.362000	25.962337	0.000245	20.877503
1602.456183	-3.006200	3.449900	-10.370000	25.948823	0.000245	20.892374
1603.465813	-2.967600	3.451600	-10.241000	25.950341	0.000246	20.865925
1604.459482	-3.004900	3.450200	-10.366000	25.994265	0.000245	20.871173
1605.439003	-3.030200	3.448900	-10.449000	26.000002	0.000245	20.848015
1606.444586	-3.000300	3.450600	-10.352000	26.041729	0.000245	20.864808
1607.439895	-3.038400	3.448200	-10.476000	25.984678	0.000244	20.879084
1608.441583	-3.014800	3.448000	-10.394000	25.985379	0.000244	20.869358
1609.436795	-2.991500	3.450700	-10.321000	25.997748	0.000245	20.877991
1610.437347	-2.989000	3.449400	-10.309000	26.017643	0.000244	20.881858
1611.453433	-3.010100	3.448200	-10.379000	26.013030	0.000241	20.853517
1612.463574	-3.012300	3.447200	-10.382000	26.016111	0.000241	20.855191
1613.457804	-2.984300	3.447000	-10.286000	26.034172	0.000241	20.864327
1614.453496	-3.014500	3.446700	-10.389000	26.033925	0.000244	20.882096
1615.475194	-2.995600	3.447200	-10.325000	26.079476	0.000241	20.875232
1616.436897	-3.012800	3.446600	-10.383000	26.073468	0.000242	20.855920
1617.448161	-2.965100	3.446200	-10.216000	26.107624	0.000241	20.860842
1618.438517	-2.988500	3.445500	-10.296000	26.041857	0.000241	20.851186
1619.467826	-2.981100	3.445200	-10.269000	26.013738	0.000241	20.851384
1620.454839	-2.993700	3.445600	-10.314000	26.037338	0.000238	20.867034
1621.457433	-3.006600	3.444500	-10.355000	26.002243	0.000238	20.829878
1622.441817	-2.986300	3.444300	-10.285000	25.991363	0.000240	20.862095
1623.439838	-2.975000	3.443600	-10.244000	26.041392	0.000239	20.859728
1624.463216	-2.998000	3.443800	-10.323000	26.067967	0.000237	20.827161
1625.457560	-2.987500	3.445000	-10.291000	26.066457	0.000236	20.846031
1626.444013	-2.990900	3.443800	-10.299000	26.035092	0.000238	20.850553
1627.465409	-2.984900	3.442800	-10.275000	26.026597	0.000239	20.840596
1628.446527	-3.018100	3.441200	-10.383000	26.010555	0.000238	20.832540
1629.444980	-3.019200	3.441700	-10.390000	26.002926	0.000237	20.830565
1630.444195	-3.001300	3.441500	-10.328000	26.020917	0.000239	20.842001
1631.442834	-2.995300	3.442500	-10.311000	26.001637	0.000239	20.838279
1632.448373	-3.016000	3.440600	-10.376000	25.981376	0.000239	20.848268
1633.465136	-2.996200	3.439800	-10.306000	26.000898	0.000237	20.830424
1634.448610	-2.992400	3.439900	-10.292000	25.989223	0.000238	20.835289
1635.448873	-2.998800	3.439400	-10.313000	25.986419	0.000237	20.836266
1636.456911	-3.003700	3.440600	-10.334000	25.985750	0.000236	20.845076
1637.467308	-3.012100	3.439000	-10.358000	25.980830	0.000235	20.848668
1638.456071	-3.007900	3.438700	-10.342000	25.944813	0.000236	20.851838
1639.478743	-2.991800	3.437800	-10.284000	25.962325	0.000236	20.836241
1640.461941	-2.986600	3.437800	-10.267000	25.943968	0.000235	20.838661
1641.442883	-3.017300	3.437600	-10.372000	25.922828	0.000235	20.830226
1642.448273	-2.999300	3.437600	-10.310000	25.980210	0.000235	20.815804
1643.447355	-3.004100	3.436000	-10.321000	26.024023	0.000236	20.829002
1644.449388	-3.014100	3.436600	-10.358000	26.024815	0.000235	20.820315
1645.447250	-2.987700	3.436100	-10.266000	26.027478	0.000234	20.832947
1646.464370	-3.010700	3.435900	-10.343000	25.972060	0.000236	20.827530
1647.446750	-3.008400	3.434900	-10.332000	25.987754	0.000234	20.825279
1648.447442	-3.006200	3.435800	-10.328000	26.043418	0.000235	20.823358
1649.462541	-2.999300	3.435500	-10.303000	26.011228	0.000234	20.829897
1650.450004	-2.980500	3.435600	-10.239000	26.001912	0.000232	20.839977
1651.448572	-2.983400	3.435400	-10.248000	25.934571	0.000231	20.834436
1652.448776	-2.992800	3.434400	-10.278000	25.894900	0.000233	20.827774
1653.450418	-3.010000	3.433600	-10.334000	25.926223	0.000233	20.814671
1654.447946	-2.990700	3.434200	-10.270000	25.992797	0.000232	20.822286
1655.448460	-3.013500	3.432500	-10.343000	26.009386	0.000231	20.827098
1656.453225	-3.004200	3.432000	-10.310000	26.035046	0.000233	20.825378
1657.454288	-3.014200	3.433500	-10.348000	26.041928	0.000231	20.828025
1658.460225	-3.009900	3.431500	-10.328000	25.997091	0.000231	20.811426
1659.470897	-2.991200	3.432100	-10.265000	25.951093	0.000230	20.826854
1660.460204	-2.998000	3.431100	-10.285000	25.915741	0.000230	20.836382
1661.452639	-3.002100	3.430500	-10.297000	25.923838	0.000228	20.827448
1662.447611	-2.986900	3.431500	-10.248000	25.942323	0.000229	20.822785
1663.451976	-3.003000	3.432200	-10.305000	25.981545	0.000227	20.821886
1664.452104	-3.000100	3.429700	-10.288000	26.063710	0.000228	20.812452
1665.451168	-3.020500	3.430000	-10.359000	26.083382	0.000227	20.829373
1666.453966	-2.999800	3.430600	-10.291000	26.104987	0.000230	20.824529
1667.448916	-3.006500	3.429200	-10.309000	26.094035	0.000227	20.807361
1668.449874	-3.003800	3.429700	-10.302000	26.127145	0.000225	20.801275
1669.455354	-2.996900	3.429300	-10.277000	26.134203	0.000228	20.816900
1670.450900	-3.012600	3.428300	-10.327000	26.154416	0.000227	20.820616
1671.456476	-2.998200	3.426800	-10.274000	26.134026	0.000226	20.807715
1672.451741	-2.988300	3.427900	-10.243000	26.154891	0.000226	20.831525
1673.468709	-3.000100	3.428300	-10.284000	26.144014	0.000226	20.804948
1674.478242	-2.968800	3.428400	-10.177000	26.170639	0.000226	20.819848
1675.454899	-2.979900	3.427800	-10.214000	26.168502	0.000224	20.831450
1676.451136	-3.030800	3.426000	-10.383000	26.167505	0.000227	20.824759
1677.454511	-3.018000	3.425400	-10.337000	26.133263	0.000223	20.813585
1678.453745	-2.995500	3.425900	-10.261000	26.096652	0.000223	20.810938
1679.454192	-2.999200	3.426500	-10.276000	26.146299	0.000224	20.793020
1680.458268	-3.007400	3.424500	-10.297000	26.135647	0.000223	20.807920
1681.454231	-2.967000	3.426500	-10.165000	26.120768	0.000225	20.811462
1682.452994	-2.999400	3.425000	-10.272000	26.114560	0.000223	20.804750
1683.453855	-3.005100	3.424300	-10.290000	26.107555	0.000222	20.805772
1684.456912	-3.000800	3.424500	-10.275000	26.112897	0.000223	20.808769
1685.479680	-2.988400	3.423900	-10.231000	26.108281	0.000220	20.813614
1686.456111	-2.982700	3.423600	-10.211000	26.066007	0.000220	20.789156
1687.455849	-2.988000	3.423500	-10.229000	26.077607	0.000221	20.810769
1688.457047	-3.022400	3.421500	-10.340000	26.095959	0.000221	20.797439
1689.454153	-3.020000	3.421300	-10.331000	26.067296	0.000223	20.817951
1690.462108	-3.006900	3.421800	-10.288000	26.054036	0.000219	20.801785
1691.477927	-3.009800	3.421700	-10.298000	26.099737	0.000220	20.798391
1692.453067	-3.013300	3.421700	-10.309000	26.152240	0.000218	20.806101
1693.473886	-3.011000	3.420700	-10.299000	26.167146	0.000217	20.798795
1694.482999	-2.973700	3.420800	-10.172000	26.171488	0.000217	20.796994
1695.479989	-3.014300	3.420800	-10.310000	26.142137	0.000216	20.787415
1696.459867	-2.988900	3.420400	-10.222000	26.132749	0.000217	20.781775
1697.457775	-3.011000	3.419300	-10.294000	26.132703	0.000218	20.817290
1698.459432	-2.982000	3.420100	-10.198000	26.175865	0.000218	20.810401
1699.456157	-2.977700	3.419500	-10.181000	26.175172	0.000215	20.795479
1700.457582	-2.997000	3.418200	-10.243000	26.161488	0.000215	20.795479
1701.456637	-3.034500	3.417300	-10.368000	26.148201	0.000215	20.821957
1702.456863	-2.984400	3.419600	-10.204000	26.063510	0.000215	20.795182
1703.463985	-3.023600	3.416200	-10.328000	26.077372	0.000213	20.782083
1704.463833	-2.989300	3.418300	-10.216000	26.119248	0.000213	20.806615
1705.466997	-3.006300	3.417300	-10.273000	26.115296	0.000213	20.811180
1706.458247	-2.992700	3.416000	-10.222000	26.083359	0.000213	20.802797
1707.467657	-2.976000	3.417900	-10.171000	26.089001	0.000212	20.805621
1708.461624	-3.007700	3.416500	-10.275000	26.099777	0.000213	20.788474
1709.466028	-3.021700	3.414000	-10.315000	26.051868	0.000213	20.803399
1710.459265	-2.986900	3.416500	-10.203000	26.030582	0.000212	20.799082
1711.479441	-3.005000	3.414800	-10.259000	26.017195	0.000212	20.795590
1712.489579	-2.992100	3.414900	-10.217000	26.019284	0.000211	20.779670
1713.463461	-3.000500	3.414700	-10.245000	26.031336	0.000211	20.791779
1714.491141	-3.017800	3.414300	-10.303000	26.075024	0.000212	20.782094
1715.479956	-2.992700	3.414400	-10.217000	26.075672	0.000211	20.800289
1716.498882	-2.993000	3.414600	-10.219000	26.029674	0.000210	20.779678
1717.484548	-3.021400	3.413600	-10.313000	26.073960	0.000213	20.781026
1718.483068	-3.010700	3.413100	-10.275000	26.107363	0.000211	20.772862
1719.484135	-2.997100	3.411900	-10.225000	26.051830	0.000209	20.795774
1720.474953	-2.985500	3.414200	-10.192000	26.119492	0.000210	20.793584
1721.485282	-3.001100	3.411700	-10.238000	26.102327	0.000208	20.796726
1722.484674	-3.015500	3.410300	-10.283000	26.136455	0.000208	20.771274
1723.490165	-3.013000	3.411900	-10.279000	26.106997	0.000208	20.780555
1724.461812	-3.001500	3.411200	-10.238000	26.072798	0.000207	20.766582
1725.467696	-3.020600	3.408800	-10.295000	26.092073	0.000205	20.779310
1726.462896	-3.012900	3.410200	-10.274000	26.150787	0.000207	20.782357
1727.462323	-2.998300	3.410000	-10.223000	26.140037	0.000207	20.784356
1728.462113	-3.021000	3.408900	-10.297000	26.126651	0.000206	20.782286
1729.462850	-3.019600	3.409500	-10.295000	26.109438	0.000207	20.774947
1730.466039	-3.004700	3.408300	-10.240000	26.057381	0.000207	20.782859
1731.461923	-2.998900	3.410100	-10.226000	26.053084	0.000205	20.780913
1732.465651	-2.977400	3.409400	-10.150000	26.084385	0.000204	20.792923
1733.465345	-2.997700	3.409200	-10.219000	26.061561	0.000207	20.763826
1734.464135	-3.019300	3.406900	-10.285000	26.087643	0.000206	20.768695
1735.469409	-2.993600	3.407900	-10.201000	26.073010	0.000205	20.777226
1736.493933	-2.997800	3.407100	-10.212000	26.040850	0.000205	20.782846
1737.467245	-2.998700	3.407500	-10.217000	26.053419	0.000204	20.772715
1738.467136	-2.990800	3.406500	-10.187000	26.072665	0.000204	20.777828
1739.471368	-2.986700	3.408500	-10.179000	26.103868	0.000205	20.771721
1740.467710	-2.982900	3.406200	-10.159000	26.117475	0.000203	20.754099
1741.470988	-2.996800	3.406700	-10.208000	26.110298	0.000204	20.783398
1742.482130	-2.976200	3.406800	-10.139000	26.073986	0.000202	20.779630
1743.497992	-3.006000	3.405200	-10.235000	26.026971	0.000203	20.773643
1744.485534	-2.999500	3.405500	-10.213000	26.071409	0.000205	20.751435
1745.493531	-2.986400	3.405100	-10.168000	26.107791	0.000204	20.754800
1746.494177	-2.999800	3.404000	-10.211000	26.140946	0.000204	20.761088
1747.471152	-2.995100	3.404100	-10.194000	26.179221	0.000202	20.765883
1748.495246	-3.003500	3.403300	-10.221000	26.191485	0.000204	20.745015
1749.494559	-3.009200	3.403100	-10.240000	26.158603	0.000201	20.754173
1750.507153	-2.982700	3.404000	-10.152000	26.139502	0.000201	20.779552
1751.468735	-2.994600	3.403300	-10.191000	26.143823	0.000201	20.757814
1752.478688	-3.000400	3.402800	-10.209000	26.110643	0.000200	20.754821
1753.470806	-2.999000	3.402400	-10.203000	26.114615	0.000199	20.768295
1754.472038	-2.990200	3.402000	-10.172000	26.127906	0.000198	20.751778
1755.477406	-2.986200	3.401600	-10.157000	26.151000	0.000201	20.776406
1756.472144	-3.012700	3.401300	-10.247000	26.190041	0.000200	20.758738
1757.476363	-2.990700	3.400300	-10.168000	26.230071	0.000199	20.746331
1758.472955	-3.008800	3.400100	-10.229000	26.204366	0.000200	20.762701
1759.473124	-2.989300	3.401000	-10.166000	26.162645	0.000199	20.745907
1760.475723	-3.004100	3.400300	-10.214000	26.143019	0.000197	20.761749
1761.475336	-3.023800	3.397700	-10.273000	26.191051	0.000198	20.765443
1762.497543	-3.022900	3.398600	-10.273000	26.174512	0.000196	20.767315
1763.501482	-2.991300	3.398200	-10.164000	26.169564	0.000197	20.762343
1764.497313	-2.986000	3.398600	-10.147000	26.162359	0.000197	20.748938
1765.494226	-3.007700	3.399000	-10.222000	26.105162	0.000197	20.753107
1766.494591	-2.999400	3.397100	-10.188000	26.094432	0.000197	20.747067
1767.507976	-2.994200	3.398700	-10.176000	26.117851	0.000197	20.745467
1768.507123	-2.982700	3.397400	-10.132000	26.119759	0.000196	20.760187
1769.505468	-2.998900	3.398400	-10.190000	26.096812	0.000195	20.753726
1770.491716	-3.000300	3.396900	-10.191000	26.105701	0.000196	20.754596
1771.506180	-2.989800	3.396700	-10.155000	26.123699	0.000195	20.749921
1772.497042	-3.006800	3.395700	-10.209000	26.139792	0.000196	20.755661
1773.498480	-3.003400	3.395800	-10.198000	26.154146	0.000195	20.744479
1774.483023	-2.981700	3.396900	-10.128000	26.151410	0.000195	20.754532
1775.476989	-2.992400	3.395100	-10.158000	26.134992	0.000194	20.744673
1776.480916	-3.001900	3.396400	-10.194000	26.112863	0.000193	20.747094
1777.480947	-2.997400	3.394800	-10.175000	26.161586	0.000194	20.771871
1778.479926	-3.033700	3.395000	-10.299000	26.214431	0.000195	20.744839
1779.481894	-3.010900	3.392900	-10.214000	26.210233	0.000194	20.744889
1780.485295	-3.011000	3.393500	-10.217000	26.218448	0.000194	20.753144
1781.477494	-3.003800	3.393600	-10.193000	26.149877	0.000192	20.751569
1782.510226	-3.015600	3.392700	-10.230000	26.169688	0.000194	20.736862
1783.501574	-3.005100	3.393000	-10.195000	26.226286	0.000191	20.752960
1784.485102	-3.009400	3.391800	-10.205000	26.248237	0.000193	20.762216
1785.484292	-2.990700	3.392600	-10.146000	26.207905	0.000192	20.734962
1786.482075	-2.986300	3.392600	-10.130000	26.194862	0.000190	20.736554
1787.510623	-2.974100	3.392700	-10.089000	26.219620	0.000192	20.758115
1788.483587	-3.015900	3.390600	-10.225000	26.232430	0.000191	20.741590
1789.485262	-2.982500	3.390000	-10.109000	26.229102	0.000190	20.750574
1790.481147	-2.993900	3.390100	-10.149000	26.285595	0.000188	20.747602
1791.480811	-2.983000	3.389600	-10.111000	26.279761	0.000190	20.765921
1792.501698	-3.001000	3.390400	-10.173000	26.322716	0.000188	20.747923
1793.484004	-3.012900	3.388400	-10.208000	26.358893	0.000188	20.747297
1794.483805	-2.997900	3.388100	-10.157000	26.350401	0.000188	20.746823
1795.513463	-3.000200	3.390000	-10.170000	26.309330	0.000185	20.739685
1796.508978	-2.995600	3.388900	-10.151000	26.264409	0.000186	20.757131
1797.485711	-3.011500	3.388000	-10.202000	26.288221	0.000183	20.759250
1798.505221	-2.989100	3.387800	-10.125000	26.269046	0.000188	20.723857
1799.486402	-3.010300	3.386000	-10.192000	26.231598	0.000183	20.762566
1800.492216	-2.986500	3.386900	-10.113000	26.229736	0.000184	20.757375
1801.486330	-3.020900	3.386600	-10.229000	26.235222	0.000185	20.749137
1802.501958	-3.019000	3.386200	-10.222000	26.175621	0.000183	20.745669
1803.488129	-2.995400	3.386000	-10.142000	26.138441	0.000183	20.741026
1804.487005	-3.006400	3.386100	-10.179000	26.162757	0.000181	20.755503
1805.491115	-2.997100	3.386100	-10.147000	26.198446	0.000179	20.734466
1806.488075	-2.994200	3.384800	-10.134000	26.204802	0.000182	20.773097
1807.485701	-2.998200	3.385200	-10.148000	26.219679	0.000183	20.764339
1808.515377	-3.019700	3.385100	-10.221000	26.185977	0.000179	20.746119
1809.492477	-2.982800	3.383900	-10.093000	26.194446	0.000179	20.747516
1810.485822	-2.990200	3.384700	-10.120000	26.211633	0.000181	20.760995
1811.505412	-2.987700	3.384600	-10.111000	26.246201	0.000180	20.743100
1812.485325	-2.979500	3.383200	-10.080000	26.261820	0.000180	20.737460
1813.485694	-2.987400	3.383300	-10.107000	26.303988	0.000179	20.729575
1814.488410	-3.007000	3.383800	-10.174000	26.229095	0.000180	20.739187
1815.506213	-2.983900	3.383100	-10.094000	26.212806	0.000177	20.738465
1816.511032	-3.002000	3.382400	-10.153000	26.205105	0.000180	20.752538
1817.494028	-3.015400	3.380300	-10.192000	26.272581	0.000179	20.774827
1818.502388	-2.975900	3.382400	-10.064000	26.233764	0.000180	20.748621
1819.512686	-2.984800	3.381700	-10.092000	26.196390	0.000182	20.748996
1820.488246	-2.981900	3.380800	-10.080000	26.211017	0.000179	20.742831
1821.490717	-3.015900	3.379200	-10.190000	26.186629	0.000178	20.753412
1822.487669	-3.008500	3.380100	-10.168000	26.222289	0.000177	20.746097
1823.489270	-2.991300	3.379700	-10.108000	26.247497	0.000178	20.771430
1824.487702	-2.990700	3.380000	-10.107000	26.236768	0.000177	20.747371
1825.508258	-3.009500	3.379300	-10.169000	26.234113	0.000177	20.760351
1826.513416	-3.012300	3.378100	-10.175000	26.266415	0.000177	20.761044
1827.495431	-3.015600	3.379300	-10.190000	26.259018	0.000176	20.768783
1828.493049	-3.016000	3.377600	-10.186000	26.310446	0.000177	20.767361
1829.492808	-3.002800	3.377800	-10.143000	26.336620	0.000176	20.748621
1830.492456	-3.006800	3.377000	-10.153000	26.376148	0.000177	20.748044
1831.515287	-3.009100	3.377800	-10.163000	26.322959	0.000174	20.748642
1832.512929	-2.970400	3.377400	-10.032000	26.274634	0.000175	20.769777
1833.518950	-2.978200	3.378500	-10.060000	26.300784	0.000175	20.740581
1834.493621	-3.012300	3.377100	-10.172000	26.266461	0.000176	20.747813
1835.503083	-3.003000	3.376100	-10.137000	26.251187	0.000176	20.745740
1836.493910	-3.012100	3.376300	-10.169000	26.234725	0.000176	20.760018
1837.495358	-2.978000	3.376100	-10.053000	26.250067	0.000174	20.746985
1838.497388	-2.999700	3.376500	-10.128000	26.249172	0.000175	20.770743
1839.494970	-3.020900	3.374300	-10.193000	26.202358	0.000174	20.750251
1840.492357	-2.998900	3.373800	-10.117000	26.241045	0.000174	20.771111
1841.492363	-3.007600	3.374800	-10.149000	26.261059	0.000173	20.758507
1842.493052	-3.006700	3.373500	-10.142000	26.257355	0.000173	20.763319
1843.527192	-2.996200	3.374100	-10.109000	26.285640	0.000172	20.767088
1844.517193	-2.986700	3.373700	-10.076000	26.308853	0.000172	20.762916
1845.496320	-3.013800	3.372500	-10.163000	26.257052	0.000171	20.778188
1846.496860	-3.014400	3.373900	-10.170000	26.237901	0.000173	20.769373
1847.493986	-2.975800	3.374100	-10.040000	26.241274	0.000171	20.768970
1848.504502	-2.996300	3.371900	-10.102000	26.250862	0.000173	20.762484
1849.496882	-3.030500	3.370600	-10.214000	26.201364	0.000172	20.752098
1850.497792	-3.001400	3.371800	-10.119000	26.248570	0.000169	20.754964
1851.497334	-3.007700	3.370200	-10.135000	26.298280	0.000170	20.763195
1852.518830	-2.997100	3.371500	-10.103000	26.276499	0.000170	20.759323
1853.496736	-2.986500	3.369800	-10.063000	26.308107	0.000170	20.759320
1854.525464	-2.998600	3.370300	-10.105000	26.293505	0.000171	20.747016
1855.501579	-2.994800	3.370000	-10.091000	26.268942	0.000171	20.776860
1856.497968	-3.001400	3.369800	-10.114000	26.270499	0.000170	20.773683
1857.501712	-2.987700	3.368500	-10.063000	26.309159	0.000168	20.770335
1858.516244	-2.997800	3.369000	-10.098000	26.328306	0.000167	20.768240
1859.499340	-3.018200	3.367700	-10.163000	26.332943	0.000168	20.771478
1860.497947	-3.006400	3.368100	-10.125000	26.304635	0.000165	20.773375
1861.498800	-3.017100	3.367900	-10.161000	26.294653	0.000169	20.773301
1862.499604	-3.007900	3.367200	-10.125000	26.345723	0.000168	20.779107
1863.497145	-2.978200	3.367100	-10.027000	26.347558	0.000168	20.768623
1864.506451	-2.970000	3.367400	-10.001000	26.322032	0.000167	20.771418
1865.502828	-3.002500	3.366000	-10.106000	26.338615	0.000168	20.762954
1866.501720	-3.014700	3.365500	-10.144000	26.337865	0.000166	20.771683
1867.519604	-2.994700	3.366300	-10.080000	26.276009	0.000164	20.785859
1868.500670	-3.000200	3.365700	-10.097000	26.288818	0.000165	20.785929
1869.500216	-3.009300	3.364300	-10.123000	26.295867	0.000164	20.792065
1870.504467	-3.021500	3.364400	-10.164000	26.262365	0.000165	20.774518
1871.523264	-2.985100	3.364200	-10.042000	26.277115	0.000167	20.785547
1872.502450	-3.013500	3.362000	-10.131000	26.294692	0.000166	20.782349
1873.501647	-2.982700	3.363700	-10.032000	26.348227	0.000161	20.748431
1874.517188	-2.983900	3.364200	-10.037000	26.352691	0.000164	20.775204
1875.505050	-3.011600	3.362500	-10.126000	26.340502	0.000164	20.794723
1876.504069	-2.998500	3.363800	-10.086000	26.326820	0.000164	20.772437
1877.506907	-3.028500	3.362500	-10.182000	26.355441	0.000163	20.775123
1878.506073	-3.009700	3.362000	-10.118000	26.365299	0.000161	20.802100
1879.504971	-3.009300	3.363100	-10.120000	26.411008	0.000163	20.799677
1880.506323	-3.020900	3.361000	-10.152000	26.359705	0.000162	20.777037
1881.508935	-3.023200	3.361300	-10.161000	26.383290	0.000162	20.779405
1882.502187	-2.996300	3.360000	-10.067000	26.422848	0.000163	20.791662
1883.502516	-3.005700	3.360900	-10.101000	26.445879	0.000162	20.803431
1884.508489	-2.986200	3.360500	-10.034000	26.450621	0.000159	20.785438
1885.503114	-2.989900	3.360100	-10.045000	26.457546	0.000160	20.786234
1886.508959	-3.010500	3.359400	-10.112000	26.434427	0.000159	20.785757
1887.507086	-3.010100	3.358600	-10.108000	26.421686	0.000158	20.793814
1888.506867	-3.001300	3.359300	-10.081000	26.445672	0.000156	20.806542
1889.504493	-3.024200	3.357800	-10.154000	26.396183	0.000156	20.787622
1890.504364	-3.018500	3.359100	-10.138000	26.438937	0.000156	20.798350
1891.505692	-3.003600	3.359100	-10.088000	26.421433	0.000157	20.779334
1892.505223	-3.016900	3.357700	-10.129000	26.348182	0.000157	20.800070
1893.504182	-3.015000	3.358100	-10.123000	26.370056	0.000153	20.793131
1894.504469	-2.985700	3.358300	-10.026000	26.396497	0.000155	20.800739
1895.508739	-3.019400	3.357300	-10.135000	26.427013	0.000154	20.791581
1896.509928	-2.999900	3.356400	-10.069000	26.470713	0.000153	20.815590
1897.510039	-3.004400	3.357500	-10.086000	26.450157	0.000151	20.803938
1898.508499	-2.966000	3.356900	-9.954900	26.468555	0.000152	20.784971
1899.509312	-2.989200	3.356700	-10.033000	26.431284	0.000153	20.804408
1900.509229	-2.994200	3.355800	-10.046000	26.443451	0.000151	20.791033
1901.504637	-3.006300	3.356000	-10.087000	26.457307	0.000150	20.797374
1902.508239	-2.973000	3.355900	-9.976900	26.499914	0.000148	20.793733
1903.507861	-2.987800	3.354200	-10.021000	26.476500	0.000148	20.821881
1904.506656	-2.998700	3.352700	-10.053000	26.537701	0.000148	20.802317
1905.509515	-2.988900	3.354100	-10.024000	26.569677	0.000151	20.798899
1906.507780	-3.014300	3.352000	-10.103000	26.580727	0.000148	20.802419
1907.514126	-2.999400	3.353600	-10.058000	26.535842	0.000149	20.799500
1908.512786	-3.008500	3.351000	-10.081000	26.549468	0.000148	20.786645
1909.511006	-3.010300	3.353000	-10.093000	26.576158	0.000148	20.800197
1910.510334	-3.000000	3.352700	-10.057000	26.523180	0.000148	20.796255
1911.513164	-3.026900	3.349700	-10.138000	26.502748	0.000146	20.808909
1912.512390	-2.991600	3.351100	-10.024000	26.474370	0.000150	20.805041
1913.511842	-2.991800	3.352600	-10.029000	26.457289	0.000148	20.796882
1914.509439	-2.999600	3.350100	-10.048000	26.471339	0.000146	20.803891
1915.520663	-2.997700	3.349600	-10.040000	26.440155	0.000145	20.800049
1916.516413	-2.995900	3.350100	-10.036000	26.398493	0.000145	20.798003
1917.517053	-2.985800	3.349400	-9.999600	26.428636	0.000144	20.797480
1918.520458	-2.990300	3.349900	-10.016000	26.467245	0.000143	20.787922
1919.515697	-3.015700	3.348900	-10.098000	26.515361	0.000146	20.802621
1920.515343	-2.983100	3.349400	-9.991000	26.497358	0.000145	20.800647
1921.515235	-3.026000	3.348800	-10.132000	26.457113	0.000144	20.810455
1922.516371	-3.016900	3.347700	-10.098000	26.489290	0.000145	20.803442
1923.519072	-3.013400	3.346600	-10.084000	26.525760	0.000145	20.808332
1924.518882	-3.004100	3.347300	-10.054000	26.500562	0.000143	20.796754
1925.515060	-3.009700	3.346600	-10.072000	26.461532	0.000143	20.815844
1926.518492	-3.027100	3.346400	-10.129000	26.477870	0.000141	20.825154
1927.551516	-2.971000	3.346000	-9.940600	26.452445	0.000140	20.821410
1928.519040	-2.989000	3.346200	-10.001000	26.480102	0.000142	20.816966
1929.523823	-2.992700	3.346500	-10.014000	26.456219	0.000140	20.801496
1930.520411	-3.007900	3.345100	-10.061000	26.473769	0.000142	20.845213
1931.521051	-3.008000	3.345800	-10.064000	26.486210	0.000141	20.819312
1932.518543	-2.986400	3.344500	-9.987700	26.477866	0.000140	20.807607
1933.536335	-2.994600	3.345000	-10.016000	26.512031	0.000142	20.814447
1934.544616	-2.997200	3.344200	-10.022000	26.548578	0.000142	20.817044
1935.555691	-2.989100	3.344600	-9.996600	26.594378	0.000140	20.816616
1936.541797	-2.969800	3.345500	-9.933700	26.632213	0.000139	20.824779
1937.545896	-3.032500	3.343300	-10.137000	26.605821	0.000140	20.824800
1938.524639	-3.023500	3.342200	-10.105000	26.538024	0.000140	20.815919
1939.523920	-3.017100	3.342700	-10.084000	26.565429	0.000141	20.818335
1940.526852	-3.004400	3.342200	-10.040000	26.555351	0.000140	20.823378
1941.521882	-3.002700	3.341900	-10.034000	26.573226	0.000138	20.817638
1942.523051	-3.007800	3.341900	-10.051000	26.519649	0.000139	20.811673
1943.525846	-3.020100	3.341300	-10.090000	26.472304	0.000139	20.820034
1944.531973	-3.019100	3.340100	-10.083000	26.508057	0.000139	20.827047
1945.527314	-2.991600	3.340600	-9.992300	26.582483	0.000136	20.814142
1946.528450	-3.013700	3.341000	-10.068000	26.634192	0.000138	20.831983
1947.526813	-3.018300	3.340200	-10.081000	26.587816	0.000136	20.826141
1948.567275	-3.008800	3.340200	-10.048000	26.555742	0.000134	20.825667
1949.529452	-3.013700	3.338300	-10.060000	26.555692	0.000137	20.819454
1950.525992	-2.964700	3.341000	-9.904600	26.618627	0.000135	20.841466
1951.547422	-2.973600	3.338400	-9.926200	26.602020	0.000135	20.828091
1952.524424	-2.989500	3.337800	-9.977600	26.578611	0.000135	20.825897
1953.539696	-3.008300	3.338900	-10.043000	26.600481	0.000134	20.839346
1954.550805	-3.000800	3.337500	-10.014000	26.582906	0.000133	20.844912
1955.551492	-2.999900	3.337200	-10.010000	26.616370	0.000135	20.849154
1956.541395	-2.991700	3.337000	-9.982800	26.660981	0.000133	20.818137
1957.554288	-3.021800	3.337000	-10.083000	26.647053	0.000133	20.830214
1958.542267	-2.997800	3.336800	-10.002000	26.616571	0.000135	20.850778
1959.528914	-2.968800	3.337700	-9.908000	26.600386	0.000133	20.823130
1960.532966	-2.986000	3.335600	-9.959700	26.597035	0.000130	20.835408
1961.545063	-2.986700	3.336000	-9.963000	26.633927	0.000131	20.855424
1962.559795	-2.989700	3.335700	-9.972500	26.609077	0.000132	20.844194
1963.549475	-2.996600	3.334600	-9.991300	26.619851	0.000130	20.824680
1964.526546	-3.045300	3.333000	-10.149000	26.644406	0.000132	20.838458
1965.529456	-2.998000	3.333400	-9.992000	26.681240	0.000130	20.838504
1966.532855	-3.020300	3.332900	-10.065000	26.705568	0.000130	20.833090
1967.527033	-3.009900	3.334300	-10.035000	26.693802	0.000131	20.836908
1968.546653	-3.003300	3.333200	-10.010000	26.640854	0.000129	20.837733
1969.547770	-2.998700	3.332700	-9.992900	26.608507	0.000128	20.829870
1970.552556	-2.982200	3.333400	-9.940100	26.637623	0.000129	20.839700
1971.547003	-3.027800	3.333100	-10.090000	26.602276	0.000129	20.859168
1972.532639	-2.991700	3.332200	-9.967300	26.615033	0.000128	20.846387
1973.550225	-3.012500	3.331900	-10.037000	26.642118	0.000128	20.847063
1974.559448	-3.012600	3.330800	-10.034000	26.674240	0.000127	20.861337
1975.530400	-2.992100	3.331900	-9.968000	26.713583	0.000128	20.836406
1976.531343	-3.017200	3.331300	-10.050000	26.739969	0.000126	20.849183
1977.535887	-3.018500	3.330100	-10.051000	26.731205	0.000125	20.841795
1978.528613	-2.999700	3.329400	-9.986500	26.725496	0.000128	20.839374
1979.530980	-2.992000	3.328800	-9.958500	26.691388	0.000128	20.844912
1980.532328	-3.010300	3.328800	-10.020000	26.697642	0.000124	20.857363
1981.534442	-2.981100	3.329500	-9.925000	26.653283	0.000126	20.856864
1982.533607	-3.007500	3.328800	-10.010000	26.661375	0.000128	20.852197
1983.553548	-2.991400	3.329800	-9.960000	26.716754	0.000124	20.860930
1984.530903	-2.971900	3.327500	-9.887500	26.789480	0.000125	20.835426
1985.557588	-3.022800	3.328400	-10.060000	26.832022	0.000126	20.844059
1986.536155	-3.005300	3.327900	-10.000000	26.845373	0.000126	20.860328
1987.532151	-2.976100	3.326400	-9.899000	26.799855	0.000125	20.863400
1988.560375	-3.033300	3.325900	-10.087000	26.781509	0.000124	20.861075
1989.552802	-3.021800	3.326500	-10.051000	26.791782	0.000124	20.857180
1990.548487	-3.002400	3.326400	-9.985500	26.780316	0.000124	20.889745
1991.540253	-3.024300	3.325200	-10.056000	26.730227	0.000122	20.863570
1992.533895	-2.992600	3.327300	-9.956100	26.694257	0.000122	20.859649
1993.556772	-3.024200	3.325100	-10.055000	26.727193	0.000123	20.855778
1994.556873	-2.983300	3.325900	-9.920800	26.753329	0.000122	20.880157
1995.548214	-3.002300	3.324800	-9.980600	26.759488	0.000124	20.859798
1996.554045	-2.981500	3.325100	-9.912200	26.731262	0.000123	20.872196
1997.534958	-2.997000	3.323200	-9.958700	26.728207	0.000121	20.873866
1998.534474	-3.004100	3.324000	-9.984200	26.711380	0.000122	20.861217
1999.542142	-2.979900	3.323700	-9.903300	26.765859	0.000122	20.871418
2000.544065	-2.984500	3.324300	-9.920500	26.797333	0.000119	20.857070
2001.539365	-3.004400	3.323100	-9.982600	26.800159	0.000119	20.869868
2002.541564	-3.001300	3.323600	-9.974300	26.768611	0.000119	20.867547
2003.545622	-3.008900	3.322100	-9.995800	26.794894	0.000120	20.856989
2004.540592	-2.995000	3.322000	-9.948900	26.768833	0.000118	20.869192
2005.543942	-3.011400	3.322500	-10.005000	26.755008	0.000118	20.882319
2006.541133	-2.983200	3.321100	-9.905800	26.698660	0.000117	20.871188
2007.559674	-3.000100	3.322200	-9.966200	26.705883	0.000117	20.870388
2008.561258	-2.979700	3.320600	-9.893300	26.677828	0.000116	20.893390
2009.555283	-3.008700	3.318900	-9.984500	26.641239	0.000117	20.866567
2010.561150	-3.007700	3.318500	-9.980100	26.657047	0.000117	20.879613
2011.539760	-2.997400	3.319700	-9.950000	26.732533	0.000117	20.885327
2012.539650	-3.009700	3.318600	-9.987400	26.784734	0.000119	20.887075
2013.537476	-3.019600	3.318000	-10.019000	26.748691	0.000117	20.894459
2014.544235	-3.003000	3.318700	-9.965100	26.751148	0.000114	20.878912
2015.575420	-3.001700	3.317700	-9.957900	26.794208	0.000116	20.898971
2016.537910	-3.007600	3.318200	-9.979000	26.808877	0.000114	20.888115
2017.557059	-2.983200	3.317300	-9.895300	26.861292	0.000113	20.890083
2018.560050	-3.043500	3.315800	-10.091000	26.916041	0.000114	20.889658
2019.558654	-2.986900	3.316900	-9.906300	26.893583	0.000114	20.889361
2020.567710	-3.014600	3.316200	-9.996100	26.891869	0.000114	20.897120
2021.571657	-2.982400	3.317100	-9.891800	26.900178	0.000113	20.894095
2022.548373	-2.997200	3.316000	-9.937500	26.935497	0.000112	20.901161
2023.540192	-3.001500	3.315900	-9.951700	26.961523	0.000114	20.876599
2024.541626	-3.001400	3.315900	-9.950800	26.965172	0.000114	20.906345
2025.573354	-3.015600	3.313600	-9.991000	26.974454	0.000115	20.888654
2026.565911	-2.981500	3.315300	-9.884100	26.983730	0.000112	20.902248
2027.545506	-3.005700	3.313700	-9.959400	26.983902	0.000113	20.875396
2028.569342	-3.001100	3.313500	-9.943300	26.962955	0.000110	20.885151
2029.580834	-2.999100	3.313200	-9.936000	26.894830	0.000111	20.891089
2030.571695	-2.970700	3.314100	-9.843700	26.877034	0.000111	20.899272
2031.562006	-2.997600	3.313300	-9.930300	26.886039	0.000110	20.911645
2032.569946	-2.994900	3.311600	-9.917300	26.874349	0.000109	20.904159
2033.567169	-2.989200	3.313000	-9.902600	26.902392	0.000112	20.913390
2034.564264	-3.000000	3.311900	-9.934400	26.919836	0.000109	20.891577
2035.560418	-3.017000	3.311300	-9.989500	26.924896	0.000109	20.886235
2036.570251	-3.023300	3.312200	-10.013000	26.978899	0.000110	20.908769
2037.562223	-3.002800	3.312400	-9.945900	26.986733	0.000110	20.906215
2038.567930	-2.988200	3.311200	-9.893200	27.017750	0.000110	20.910380
2039.565531	-2.990300	3.310900	-9.899700	26.994770	0.000109	20.931364
2040.559441	-2.977100	3.309400	-9.851200	26.964143	0.000109	20.913844
2041.581664	-2.999800	3.309000	-9.925000	27.034495	0.000106	20.917736
2042.580705	-3.004500	3.308500	-9.938500	27.077867	0.000106	20.912992
2043.573208	-2.995100	3.308100	-9.907200	27.020196	0.000105	20.905728
2044.558108	-2.993800	3.308800	-9.905600	26.990140	0.000105	20.919598
2045.567465	-3.000700	3.307700	-9.924700	26.947605	0.000104	20.937040
2046.559472	-2.992100	3.308200	-9.898100	26.985274	0.000104	20.905697
2047.569010	-3.012600	3.307200	-9.962300	27.002667	0.000104	20.915126
2048.561660	-2.997100	3.307100	-9.910700	27.032593	0.000101	20.904444
2049.565634	-3.002500	3.307000	-9.928100	27.073935	0.000102	20.915674
2050.570692	-2.998800	3.306100	-9.913200	27.052866	0.000102	20.920564
2051.564925	-3.006300	3.307600	-9.942500	26.971818	9.978282E-5	20.937207
2052.570972	-3.003300	3.305100	-9.924700	26.936053	9.925478E-5	20.932063
2053.564695	-2.991700	3.305800	-9.889100	27.000746	9.961780E-5	20.925521
2054.571163	-2.981200	3.306100	-9.854900	27.049732	0.000101	20.913145
2055.566914	-2.988000	3.305200	-9.874800	27.097427	0.000100	20.922231
2056.570932	-3.011800	3.305500	-9.954900	27.041643	0.000100	20.934880
2057.598161	-3.000100	3.304600	-9.912300	27.024793	9.740664E-5	20.914617
2058.576303	-2.986200	3.305200	-9.869100	26.966523	9.938679E-5	20.914341
2059.579389	-2.976400	3.303600	-9.832000	26.956646	9.813270E-5	20.920055
2060.575859	-2.998600	3.302500	-9.901700	27.043008	9.767066E-5	20.904013
2061.580696	-3.003900	3.303200	-9.921000	27.006802	9.908977E-5	20.915491
2062.568057	-2.994500	3.303900	-9.892600	26.993399	9.879274E-5	20.908178
2063.589004	-2.989800	3.301100	-9.869100	26.994691	9.674659E-5	20.917536
2064.567353	-2.998400	3.302200	-9.901400	26.926993	9.423841E-5	20.936228
2065.579251	-3.011600	3.301500	-9.941500	26.944960	9.684560E-5	20.907831
2066.565036	-2.995000	3.301200	-9.886200	26.971815	9.562451E-5	20.914447
2067.588031	-3.007000	3.300800	-9.924500	27.033079	9.483245E-5	20.902563
2068.571108	-2.996100	3.299300	-9.884500	27.055889	9.331434E-5	20.894209
2069.575509	-2.974400	3.300200	-9.815000	27.033705	9.460144E-5	20.915519
2070.576973	-2.994800	3.300400	-9.883200	26.992210	9.463444E-5	20.899870
2071.567660	-3.013100	3.298600	-9.936900	26.944661	9.677960E-5	20.896626
2072.580927	-2.992300	3.299100	-9.870600	26.992787	9.338035E-5	20.901398
2073.574639	-2.996800	3.298900	-9.885600	27.019782	9.423841E-5	20.889666
2074.575978	-2.993200	3.297600	-9.869400	27.013132	9.361137E-5	20.895780
2075.576626	-3.014900	3.297800	-9.942100	27.059833	9.400739E-5	20.893434
2076.575001	-2.993200	3.298400	-9.871800	27.066064	9.262129E-5	20.890692
2077.567091	-3.005200	3.295700	-9.903400	27.019486	9.252229E-5	20.900273
2078.577501	-2.991200	3.297100	-9.861100	27.002389	9.097117E-5	20.893986
2079.576672	-2.999300	3.296700	-9.886300	26.964517	9.196124E-5	20.886248
2080.578928	-2.992200	3.296000	-9.861500	26.958908	9.328134E-5	20.892935
2081.570459	-2.986000	3.295600	-9.839800	26.970921	9.136720E-5	20.905488
2082.568796	-3.009800	3.295300	-9.917500	27.049362	9.067415E-5	20.901869
2083.569798	-3.006400	3.296000	-9.908600	27.131819	9.295132E-5	20.888070
2084.569758	-3.014500	3.293700	-9.927300	27.134496	9.044313E-5	20.905460
2085.574817	-3.014100	3.293600	-9.926400	27.157966	9.093817E-5	20.882126
2086.569701	-2.991200	3.293900	-9.851400	27.147246	9.060815E-5	20.891733
2087.576251	-3.016500	3.292700	-9.930600	27.176105	8.971708E-5	20.879982
2088.587842	-2.993100	3.294200	-9.858900	27.181263	8.760493E-5	20.881376
2089.587564	-2.982700	3.294600	-9.825800	27.195406	8.743991E-5	20.886592
2090.579996	-3.007800	3.293400	-9.904600	27.154392	9.116919E-5	20.867153
2091.571610	-3.019400	3.292400	-9.940700	27.099680	8.849599E-5	20.886093
2092.578447	-2.993600	3.291800	-9.853500	27.107121	8.876001E-5	20.875560
2093.573106	-2.981400	3.290900	-9.810300	27.092383	8.800096E-5	20.904357
2094.579879	-3.019200	3.291300	-9.935900	27.108486	8.826497E-5	20.867924
2095.573184	-3.000400	3.291800	-9.875600	27.168257	8.734091E-5	20.880623
2096.587141	-2.985400	3.290900	-9.823900	27.213538	8.658185E-5	20.883493
2097.577691	-3.011100	3.289300	-9.902600	27.195969	8.872701E-5	20.885262
2098.580860	-3.004900	3.288800	-9.881700	27.201577	8.691188E-5	20.865773
2099.580466	-3.006600	3.288700	-9.886900	27.168996	8.456870E-5	20.879944
2100.580359	-2.993400	3.288500	-9.843000	27.136594	8.565778E-5	20.872011
2101.585842	-2.998300	3.287100	-9.854800	27.200286	8.483272E-5	20.866846
2102.578315	-2.998800	3.288500	-9.860400	27.248664	8.374364E-5	20.870462
2103.595736	-2.981000	3.288900	-9.802900	27.275931	8.503074E-5	20.881766
2104.574560	-2.972800	3.288600	-9.775400	27.270770	8.367764E-5	20.871835
2105.591652	-3.007200	3.286700	-9.882300	27.271540	8.394166E-5	20.869291
2106.583622	-3.011400	3.286400	-9.896000	27.332146	8.149948E-5	20.868615
2107.586165	-3.008300	3.286800	-9.886900	27.326958	8.351263E-5	20.872879
2108.579781	-2.991500	3.284700	-9.825100	27.300685	8.126846E-5	20.888174
2109.585843	-3.020300	3.283700	-9.916200	27.236630	8.189551E-5	20.862151
2110.589418	-2.992200	3.284800	-9.827900	27.260868	7.968435E-5	20.878469
2111.588202	-3.005900	3.285200	-9.874300	27.281957	8.024539E-5	20.854165
2112.588480	-3.017100	3.283800	-9.906700	27.222263	7.961834E-5	20.880889
2113.582264	-3.025000	3.283100	-9.930300	27.246132	7.852926E-5	20.874078
2114.595987	-2.990700	3.283100	-9.818000	27.267966	7.852926E-5	20.870437
2115.567250	-3.015900	3.281900	-9.896600	27.246729	8.008038E-5	20.854292
2116.599714	-2.984100	3.284100	-9.799500	27.182122	7.942033E-5	20.866594
2117.593705	-3.003100	3.281500	-9.853700	27.179322	7.991536E-5	20.866623
2118.592869	-2.988200	3.282000	-9.806700	27.194653	7.803423E-5	20.873034
2119.578564	-3.005200	3.282700	-9.864100	27.238694	7.965135E-5	20.868020
2120.572978	-3.016600	3.281300	-9.896100	27.264698	8.146648E-5	20.864779
2121.573440	-3.024000	3.280600	-9.920200	27.266830	7.786921E-5	20.871664
2122.592843	-3.019400	3.279700	-9.901800	27.282660	7.641711E-5	20.852975
2123.599217	-3.042200	3.280000	-9.977500	27.248252	7.641711E-5	20.857720
2124.574237	-2.987200	3.280500	-9.798600	27.282614	7.922231E-5	20.867627
2125.574362	-2.970200	3.280000	-9.741200	27.284619	7.701115E-5	20.864429
2126.574676	-2.989200	3.280600	-9.806100	27.264254	7.489900E-5	20.866229
2127.574902	-2.986900	3.279700	-9.795200	27.226072	7.572406E-5	20.857695
2128.574941	-2.976200	3.280100	-9.761300	27.247457	7.829825E-5	20.860713
2129.598164	-2.996700	3.278000	-9.822500	27.228080	7.592207E-5	20.861138
2130.576072	-2.993200	3.278700	-9.813400	27.213942	7.654912E-5	20.857348
2131.575403	-2.975900	3.277400	-9.752600	27.213667	7.529503E-5	20.847590
2132.576575	-2.999000	3.277900	-9.828900	27.196102	7.658212E-5	20.859793
2133.576326	-3.001400	3.277300	-9.835500	27.235053	7.615309E-5	20.859616
2134.596981	-3.007700	3.277000	-9.855400	27.253339	7.546004E-5	20.850983
2135.576809	-2.997200	3.276000	-9.818200	27.261229	7.734118E-5	20.861290
2136.594110	-3.013000	3.274600	-9.865700	27.288172	7.552604E-5	20.856149
2137.578157	-3.012900	3.274200	-9.864200	27.326401	7.377692E-5	20.865207
2138.578809	-2.999000	3.275200	-9.820700	27.380578	7.341389E-5	20.836731
2139.577314	-2.989800	3.272700	-9.784100	27.371992	7.588907E-5	20.856068
2140.576728	-3.025500	3.274300	-9.905600	27.333268	7.060868E-5	20.845088
2141.576674	-3.034200	3.272300	-9.927800	27.275438	7.321587E-5	20.852823
2142.578353	-3.001800	3.271400	-9.819300	27.345027	7.407394E-5	20.867348
2143.577116	-2.999000	3.272600	-9.813500	27.326842	7.232481E-5	20.855219
2144.580799	-3.012700	3.272600	-9.858200	27.327063	7.179677E-5	20.846433
2145.598223	-3.001000	3.272300	-9.819100	27.314854	7.338089E-5	20.840790
2146.621502	-2.983000	3.272100	-9.760100	27.354328	7.206079E-5	20.838299
2147.601248	-2.986800	3.270900	-9.768700	27.363403	7.103771E-5	20.849324
2148.585209	-3.019900	3.270200	-9.874500	27.346610	7.041067E-5	20.847130
2149.581672	-3.008400	3.269900	-9.835800	27.345618	6.991563E-5	20.843288
2150.586152	-2.984200	3.270700	-9.759400	27.378834	6.932159E-5	20.845881
2151.585144	-2.990500	3.270200	-9.778800	27.296049	6.770447E-5	20.842736
2152.583543	-3.004700	3.268200	-9.818700	27.317636	6.961861E-5	20.841692
2153.583798	-3.002200	3.269100	-9.813800	27.413487	6.948660E-5	20.848500
2154.583416	-3.004100	3.268300	-9.817100	27.447597	6.876055E-5	20.835875
2155.614871	-2.979100	3.268600	-9.736400	27.430802	6.790249E-5	20.860229
2156.583403	-2.991000	3.268000	-9.773300	27.405355	6.806750E-5	20.824672
2157.606370	-3.007200	3.267200	-9.824800	27.360030	6.816650E-5	20.841190
2158.584218	-3.004800	3.266700	-9.814900	27.311656	6.618636E-5	20.830935
2159.583347	-3.003000	3.266200	-9.807300	27.329170	6.678040E-5	20.833380
2160.583144	-2.995800	3.265200	-9.781000	27.434323	6.526229E-5	20.831056
2161.586335	-2.988100	3.265000	-9.755400	27.472724	6.777048E-5	20.844084
2162.583877	-3.000800	3.265900	-9.799500	27.526748	6.555931E-5	20.818781
2163.586833	-2.983000	3.264400	-9.737200	27.504598	6.678040E-5	20.844385
2164.606098	-3.000500	3.264700	-9.793900	27.406445	6.321614E-5	20.833830
2165.593002	-2.992900	3.264400	-9.768900	27.373726	6.288612E-5	20.850700
2166.588474	-3.000100	3.263900	-9.790000	27.412375	6.410721E-5	20.835528
2167.609336	-2.987600	3.263300	-9.748400	27.451445	6.489927E-5	20.844013
2168.606741	-3.017500	3.261600	-9.840600	27.434256	6.579033E-5	20.844264
2169.599299	-2.998100	3.264100	-9.785000	27.433637	6.522929E-5	20.817089
2170.603901	-3.002800	3.263500	-9.799300	27.418157	6.483326E-5	20.828069
2171.611594	-2.993300	3.261600	-9.762200	27.461394	6.159902E-5	20.841221
2172.586211	-3.012300	3.260900	-9.821500	27.469603	6.163203E-5	20.831462
2173.586810	-2.989500	3.260900	-9.748000	27.497335	6.374418E-5	20.849405
2174.589136	-3.015000	3.258900	-9.824500	27.515047	6.453624E-5	20.849207
2175.587743	-2.992500	3.261300	-9.758600	27.513978	6.212706E-5	20.835330
2176.588905	-3.021000	3.258000	-9.841000	27.569340	6.083997E-5	20.827022
2177.591935	-2.997900	3.259900	-9.772300	27.522664	6.130200E-5	20.827000
2178.586808	-3.009800	3.257700	-9.804300	27.530750	6.282011E-5	20.827074
2179.588090	-3.007200	3.257400	-9.794200	27.568971	6.222607E-5	20.834710
2180.590570	-2.986900	3.258200	-9.730700	27.619668	6.338115E-5	20.831667
2181.589888	-3.012700	3.257000	-9.811400	27.642603	6.074096E-5	20.823452
2182.595436	-3.011600	3.256800	-9.807500	27.658825	6.123600E-5	20.833610
2183.592436	-3.049100	3.256400	-9.927600	27.672145	6.110399E-5	20.819987
2184.593384	-3.022600	3.255500	-9.839000	27.553764	6.225907E-5	20.811350
2185.590641	-3.022200	3.254200	-9.833800	27.531791	5.928885E-5	20.806785
2186.591439	-2.997400	3.256600	-9.759600	27.483767	5.714370E-5	20.827694
2187.592137	-3.000700	3.255800	-9.769000	27.462931	5.955287E-5	20.831388
2188.593319	-2.990600	3.256200	-9.736200	27.478955	5.796876E-5	20.834707
2189.587997	-3.015900	3.254000	-9.812900	27.474911	6.004791E-5	20.829690
2190.590711	-3.006100	3.254000	-9.781300	27.454599	5.829878E-5	20.816842
2191.593651	-3.003800	3.252900	-9.769700	27.476574	5.777074E-5	20.808130
2192.591246	-3.001800	3.253500	-9.766200	27.435695	6.008091E-5	20.792133
2193.592611	-3.003600	3.252400	-9.767900	27.423490	5.701169E-5	20.821580
2194.590555	-2.987600	3.252900	-9.717300	27.420412	5.843079E-5	20.799992
2195.612497	-3.008300	3.251200	-9.779500	27.412298	5.707769E-5	20.793251
2196.591476	-2.985200	3.252700	-9.709300	27.461662	5.813377E-5	20.830585
2197.592983	-3.032000	3.250200	-9.853600	27.517172	5.800176E-5	20.812465
2198.596265	-2.992600	3.250100	-9.725400	27.545047	5.697869E-5	20.819649
2199.593470	-2.994900	3.250500	-9.734000	27.513894	5.625263E-5	20.795417
2200.590517	-3.019000	3.249200	-9.808700	27.542540	5.727571E-5	20.813333
2201.593395	-3.001200	3.249800	-9.752600	27.541348	5.559258E-5	20.825409
2202.597025	-2.982600	3.250600	-9.694800	27.602185	5.592261E-5	20.810283
2203.593631	-2.998800	3.249000	-9.742000	27.657268	5.694568E-5	20.806440
2204.619772	-2.979500	3.249400	-9.680500	27.677130	5.641764E-5	20.810779
2205.594711	-3.020800	3.248100	-9.810300	27.707258	5.641764E-5	20.795578
2206.596762	-2.981000	3.247600	-9.680300	27.763922	5.493254E-5	20.771520
2207.597143	-3.018700	3.246400	-9.799300	27.730863	5.486653E-5	20.807478
2208.593849	-3.006700	3.246300	-9.759000	27.664176	5.285338E-5	20.802011
2209.597683	-3.012300	3.244700	-9.773900	27.648201	5.348043E-5	20.801584
2210.596539	-3.006000	3.247400	-9.761200	27.683390	5.612062E-5	20.799061
2211.609778	-2.989200	3.245500	-9.700400	27.698145	5.635164E-5	20.799210
2212.615647	-3.007800	3.243700	-9.755200	27.692386	5.367844E-5	20.810009
2213.595547	-3.008300	3.244500	-9.759900	27.620291	5.222634E-5	20.807639
2214.601474	-3.001600	3.244600	-9.738500	27.575693	5.262237E-5	20.811128
2215.597123	-2.979200	3.243600	-9.662800	27.527846	5.328241E-5	20.814670
2216.594856	-2.985200	3.245100	-9.686600	27.570407	5.318341E-5	20.811026
2217.596890	-3.008900	3.242900	-9.756800	27.601105	5.348043E-5	20.802559
2218.594219	-2.990000	3.243300	-9.697100	27.612812	5.159929E-5	20.816709
2219.594924	-2.998900	3.242700	-9.724000	27.588480	5.305140E-5	20.810245
2220.595508	-3.009800	3.240100	-9.751200	27.611368	5.113726E-5	20.812411
2221.594006	-3.005000	3.242100	-9.742100	27.614044	4.991617E-5	20.794241
2222.597753	-3.035800	3.240000	-9.835200	27.655758	5.278738E-5	20.809188
2223.599791	-2.996300	3.241900	-9.713000	27.705307	5.051021E-5	20.797408
2224.596697	-2.983200	3.241200	-9.668400	27.743593	4.912411E-5	20.775244
2225.598216	-2.978900	3.239800	-9.650600	27.694119	4.876108E-5	20.798477
2226.601090	-3.010100	3.238600	-9.747700	27.662176	4.697895E-5	20.805215
2227.611136	-2.990200	3.238400	-9.682500	27.693370	4.684694E-5	20.798672
2228.598171	-2.995200	3.238200	-9.697800	27.706360	4.753999E-5	20.806054
2229.599025	-2.992000	3.239400	-9.690800	27.696715	4.549384E-5	20.814840
2230.620670	-3.016600	3.238500	-9.768200	27.673728	4.895910E-5	20.788864
2231.612892	-2.988200	3.236700	-9.671000	27.701621	4.496580E-5	20.797017
2232.620543	-3.002300	3.237800	-9.719200	27.658049	4.829905E-5	20.814812
2233.596170	-2.967100	3.236900	-9.602700	27.670128	4.641791E-5	20.802785
2234.600863	-2.986200	3.234900	-9.659100	27.721287	4.720997E-5	20.810644
2235.624011	-3.006500	3.234800	-9.725000	27.772891	4.724297E-5	20.793348
2236.622453	-3.014200	3.233700	-9.745800	27.742764	4.671493E-5	20.791954
2237.625993	-2.977500	3.234200	-9.629100	27.783035	4.440476E-5	20.794547
2238.599937	-3.010100	3.232700	-9.730000	27.771031	4.453677E-5	20.797166
2239.600151	-2.992000	3.235100	-9.678400	27.799922	4.364571E-5	20.817706
2240.600105	-3.016100	3.234800	-9.755500	27.799722	4.651692E-5	20.805651
2241.606733	-3.001700	3.232300	-9.701600	27.789286	4.318367E-5	20.802735
2242.602618	-3.012500	3.233900	-9.741200	27.774234	4.367871E-5	20.804182
2243.600163	-2.997900	3.234200	-9.694800	27.834984	4.275464E-5	20.789456
2244.632741	-3.016300	3.231500	-9.745000	27.796005	4.559285E-5	20.793376
2245.610568	-3.000300	3.230600	-9.691800	27.756280	4.364571E-5	20.779477
2246.605141	-3.020400	3.229300	-9.752800	27.805875	4.430576E-5	20.782446
2247.609954	-2.992500	3.229900	-9.664100	27.786826	4.440476E-5	20.800259
2248.605179	-3.005700	3.229100	-9.704900	27.781147	4.456978E-5	20.773681
2249.609708	-3.007100	3.229300	-9.710300	27.791839	4.542784E-5	20.781122
2250.607147	-3.003000	3.228800	-9.695000	27.767730	4.328268E-5	20.785309
2251.606060	-3.022800	3.227200	-9.754500	27.727782	4.582387E-5	20.775928
2252.606787	-3.025800	3.226900	-9.762700	27.696311	4.493280E-5	20.772234
2253.604140	-2.981200	3.228800	-9.623500	27.664790	4.229261E-5	20.783663
2254.634702	-2.994800	3.227000	-9.663300	27.717934	4.364571E-5	20.766017
2255.634180	-2.987900	3.226300	-9.639200	27.754263	4.562585E-5	20.782662
2256.613443	-3.011000	3.225900	-9.712000	27.745157	4.470179E-5	20.802896
2257.607218	-2.997200	3.225400	-9.666400	27.745955	4.341469E-5	20.768611
2258.609122	-2.994800	3.227200	-9.664000	27.793043	4.562585E-5	20.764790
2259.607403	-2.972100	3.224900	-9.584100	27.737815	4.397573E-5	20.787447
2260.637150	-3.023600	3.223700	-9.746600	27.710090	4.377772E-5	20.762391
2261.621833	-3.002400	3.222600	-9.674800	27.699844	4.315067E-5	20.789065
2262.634204	-3.019400	3.222200	-9.728800	27.685754	4.361271E-5	20.777257
2263.633297	-2.995700	3.224300	-9.658700	27.685606	4.255663E-5	20.798920
2264.628373	-2.989300	3.222600	-9.632300	27.749511	4.196258E-5	20.774561
2265.640619	-3.011000	3.222000	-9.699700	27.779638	4.014745E-5	20.791603
2266.608763	-3.040400	3.220400	-9.789900	27.743731	4.202859E-5	20.783917
2267.609303	-3.027200	3.220800	-9.749000	27.785089	4.103852E-5	20.775751
2268.630229	-3.019900	3.220800	-9.725100	27.824043	4.183057E-5	20.769909
2269.608300	-3.013700	3.220300	-9.704100	27.786822	4.093951E-5	20.777970
2270.607457	-3.005100	3.220300	-9.676600	27.732860	4.021346E-5	20.767288
2271.609414	-2.993500	3.219300	-9.635400	27.747537	3.909137E-5	20.766411
2272.607243	-3.004100	3.218300	-9.667200	27.751849	3.925639E-5	20.784500
2273.613867	-3.019200	3.216900	-9.711400	27.790632	3.991643E-5	20.787968
2274.609135	-2.983500	3.219000	-9.602900	27.832191	3.862934E-5	20.774791
2275.610991	-2.983200	3.218100	-9.599100	27.822494	3.853033E-5	20.771670
2276.642123	-2.985500	3.217400	-9.604400	27.827670	3.935539E-5	20.777354
2277.628614	-2.984400	3.218000	-9.603600	27.769596	4.047748E-5	20.791454
2278.639720	-2.991600	3.217000	-9.623200	27.841481	3.793629E-5	20.775606
2279.614252	-2.989300	3.215300	-9.610400	27.875799	3.760626E-5	20.764151
2280.616492	-3.015300	3.215300	-9.694200	27.880704	3.925639E-5	20.773830
2281.611930	-3.002900	3.214300	-9.651500	27.866968	4.024646E-5	20.764746
2282.635276	-2.984700	3.216500	-9.599400	27.852729	3.932239E-5	20.779814
2283.615077	-2.992800	3.213900	-9.617900	27.876433	3.803530E-5	20.760522
2284.630980	-2.994000	3.213000	-9.618300	27.819054	3.829932E-5	20.759673
2285.610186	-3.010100	3.212500	-9.668800	27.863858	3.773827E-5	20.760668
2286.633188	-2.989500	3.211900	-9.601400	27.930927	3.664919E-5	20.778386
2287.610181	-3.048700	3.210300	-9.785400	27.968318	3.740825E-5	20.767657
2288.611963	-3.008900	3.212700	-9.665500	27.999925	3.839832E-5	20.792834
2289.613113	-3.003400	3.212000	-9.646300	27.981449	3.767227E-5	20.780400
2290.613226	-3.007600	3.210600	-9.654900	27.958764	3.754026E-5	20.761834
2291.612971	-2.974800	3.210200	-9.547500	27.920206	3.704522E-5	20.792251
2292.614621	-3.005800	3.208600	-9.643100	27.970338	3.536210E-5	20.772535
2293.620800	-2.965200	3.209600	-9.515800	27.898058	3.579113E-5	20.798409
2294.634906	-2.998900	3.208000	-9.619600	27.793742	3.691321E-5	20.785409
2295.635317	-2.997300	3.208200	-9.615100	27.808591	3.519709E-5	20.768110
2296.630343	-2.988700	3.206800	-9.583900	27.848437	3.572513E-5	20.785452
2297.629652	-2.997400	3.207900	-9.614900	27.881068	3.655019E-5	20.786050
2298.611685	-3.007600	3.206300	-9.642500	27.920391	3.754026E-5	20.766359
2299.616692	-2.995300	3.205400	-9.600500	27.865888	3.556011E-5	20.766979
2300.640386	-2.991600	3.206000	-9.590300	27.876320	3.453704E-5	20.789807
2301.635366	-2.993800	3.205800	-9.596500	27.889413	3.371198E-5	20.789708
2302.611610	-2.980300	3.204400	-9.549400	27.882294	3.295292E-5	20.781594
2303.615789	-2.988600	3.204900	-9.577300	27.888517	3.592314E-5	20.779797
2304.616930	-3.003600	3.202600	-9.619200	27.855462	3.202886E-5	20.784461
2305.622212	-2.965000	3.203000	-9.496300	27.866990	3.493307E-5	20.781839
2306.617247	-3.006500	3.203100	-9.628700	27.922553	3.463605E-5	20.776596
2307.612546	-2.997800	3.204200	-9.603600	27.939386	3.321694E-5	20.784055
2308.642868	-2.996200	3.202300	-9.594300	27.972903	3.130280E-5	20.768954
2309.612934	-3.005400	3.200400	-9.617400	27.942481	3.503208E-5	20.783851
2310.614609	-3.007300	3.201500	-9.627000	27.943740	3.328295E-5	20.775161
2311.629836	-2.986400	3.199500	-9.554200	27.969101	3.331595E-5	20.781248
2312.617509	-3.005400	3.199400	-9.614700	27.979640	3.278791E-5	20.786166
2313.619334	-3.004400	3.198200	-9.607400	28.028750	3.318394E-5	20.772537
2314.613245	-2.992000	3.199300	-9.571200	28.048408	3.298593E-5	20.777151
2315.620493	-2.981500	3.199800	-9.538900	28.010998	3.216086E-5	20.766047
2316.639568	-3.000800	3.199000	-9.598900	28.023067	3.242488E-5	20.784834
2317.643422	-2.997400	3.196700	-9.581100	27.981264	3.357997E-5	20.774998
2318.637149	-2.997700	3.197400	-9.583500	27.924756	3.110479E-5	20.792564
2319.616335	-3.015100	3.195900	-9.634500	27.941567	3.166583E-5	20.787673
2320.612865	-3.016100	3.194600	-9.634700	27.930034	3.199585E-5	20.804514
2321.639696	-2.974200	3.195300	-9.503000	27.955146	3.318394E-5	20.795651
2322.615663	-2.987000	3.194600	-9.541700	27.997419	2.955367E-5	20.801216
2323.618008	-3.016600	3.193100	-9.631200	28.004085	3.321694E-5	20.796546
2324.621515	-3.012100	3.193500	-9.618300	28.003189	3.225987E-5	20.780946
2325.615119	-2.988200	3.194100	-9.544100	27.969146	3.047774E-5	20.772758
2326.622127	-3.011600	3.191700	-9.611400	28.003679	3.166583E-5	20.790448
2327.625963	-2.987300	3.192100	-9.535000	28.023041	3.084077E-5	20.774376
2328.614152	-2.987400	3.191300	-9.533200	28.055762	3.074176E-5	20.793563
2329.617727	-3.002900	3.190500	-9.579900	28.058884	2.961968E-5	20.799076
2330.618747	-3.004200	3.191400	-9.586400	28.086970	2.961968E-5	20.798426
2331.618814	-2.994500	3.190000	-9.551600	28.064878	2.988370E-5	20.810326
2332.618022	-3.027200	3.187400	-9.647700	28.056175	2.895963E-5	20.820057
2333.622467	-3.005900	3.188800	-9.583800	28.078683	2.942166E-5	20.805256
2334.617197	-2.998800	3.187400	-9.558500	28.135201	3.080777E-5	20.809995
2335.615863	-2.988200	3.187200	-9.523400	28.173324	2.895963E-5	20.790527
2336.621668	-2.989600	3.185600	-9.523600	28.119108	2.879462E-5	20.785733
2337.651186	-2.989700	3.186500	-9.526100	28.110153	2.994970E-5	20.819866
2338.643426	-3.033500	3.184400	-9.658700	28.135368	2.783755E-5	20.796887
2339.620525	-3.002200	3.184000	-9.558000	28.139432	2.638544E-5	20.800978
2340.644223	-3.035200	3.182900	-9.660000	28.167042	2.648445E-5	20.796057
2341.624261	-3.029200	3.182900	-9.640800	28.199016	2.747452E-5	20.809755
2342.628081	-3.035800	3.181200	-9.656900	28.182360	2.536237E-5	20.801046
2343.622258	-2.977000	3.182600	-9.473700	28.185358	2.536237E-5	20.796953
2344.623860	-3.013300	3.181300	-9.584100	28.205908	2.562638E-5	20.803417
2345.624639	-2.995000	3.182400	-9.530300	28.199662	2.589040E-5	20.803767
2346.641211	-3.025700	3.180000	-9.620700	28.215549	2.466931E-5	20.799373
2347.627147	-3.002400	3.178800	-9.542800	28.173608	2.433929E-5	20.820211
2348.627991	-3.013900	3.177300	-9.575600	28.126186	2.334922E-5	20.807083
2349.621781	-2.990400	3.179100	-9.506300	28.074227	2.275517E-5	20.828745
2350.624645	-3.002300	3.177900	-9.540800	28.071179	2.275517E-5	20.798651
2351.626482	-2.983100	3.178100	-9.480100	28.062451	2.100605E-5	20.814995
2352.623850	-3.026100	3.175500	-9.608700	28.083524	2.074203E-5	20.810604
2353.623532	-2.987600	3.175900	-9.488200	28.065126	2.011498E-5	20.818637
2354.623470	-3.017500	3.174600	-9.578100	28.046066	2.222714E-5	20.807985
2355.636791	-2.996000	3.173700	-9.507400	28.096491	2.348123E-5	20.803742
2356.643208	-2.987000	3.175000	-9.482900	28.143418	2.384425E-5	20.817319
2357.622112	-2.996900	3.173300	-9.508700	28.114192	2.222714E-5	20.809708
2358.626324	-2.997700	3.173300	-9.511600	28.106037	2.044500E-5	20.835163
2359.623784	-2.999900	3.172600	-9.516800	28.130086	2.176510E-5	20.802000
2360.622309	-3.004900	3.170400	-9.525000	28.112929	2.202912E-5	20.811282
2361.625085	-3.037500	3.169500	-9.626300	28.110599	2.209513E-5	20.814626
2362.623140	-3.021400	3.168500	-9.571600	28.130036	2.325021E-5	20.816175
2363.627592	-2.995800	3.170600	-9.497400	28.053707	2.298619E-5	20.818995
2364.624644	-2.994800	3.169500	-9.490900	28.116503	2.100605E-5	20.823414
2365.625179	-3.011300	3.168700	-9.541100	28.092137	2.150108E-5	20.799834
2366.623390	-3.002300	3.167800	-9.510100	28.110706	2.169910E-5	20.799561
2367.631071	-3.028400	3.167800	-9.592600	28.099996	1.994997E-5	20.817228
2368.626450	-2.999400	3.166400	-9.496700	28.133739	2.120406E-5	20.823221
2369.626128	-3.010700	3.164100	-9.525300	28.102351	2.202912E-5	20.819599
2370.646460	-3.019200	3.165700	-9.556500	28.071020	1.988396E-5	20.815561
2371.622016	-3.029700	3.164300	-9.585500	28.072532	1.985096E-5	20.825617
2372.638390	-3.007100	3.163300	-9.511400	28.135919	1.919091E-5	20.812140
2373.651560	-2.997400	3.164600	-9.484500	28.168494	1.991697E-5	20.824071
2374.643342	-2.998000	3.161900	-9.478500	28.144424	1.978496E-5	20.798417
2375.653032	-2.999900	3.161100	-9.482400	28.142321	1.856387E-5	20.825223
2376.657417	-2.995800	3.160600	-9.467500	28.220027	1.823384E-5	20.812415
2377.626474	-2.970100	3.161200	-9.388600	28.219386	1.843186E-5	20.824098
2378.629243	-2.995200	3.159800	-9.463600	28.222458	1.935592E-5	20.796372
2379.627616	-2.990000	3.158100	-9.441900	28.232671	2.001597E-5	20.816137
2380.628681	-3.004500	3.158500	-9.488800	28.202111	1.796982E-5	20.801965
2381.655592	-3.000400	3.158400	-9.476400	28.153871	1.796982E-5	20.827842
2382.630178	-3.016900	3.156500	-9.521800	28.174370	1.641871E-5	20.811495
2383.635290	-3.008200	3.156000	-9.492700	28.088500	1.671573E-5	20.820355
2384.631016	-3.012900	3.153500	-9.499800	28.107984	1.770580E-5	20.812468
2385.638578	-2.994200	3.154500	-9.444000	28.125338	1.869588E-5	20.809074
2386.632266	-3.023300	3.151800	-9.528300	28.163562	1.810183E-5	20.823373
2387.637355	-3.012400	3.152400	-9.495200	28.172261	1.968595E-5	20.809372
2388.631200	-2.996400	3.153000	-9.446600	28.196478	1.813483E-5	20.813838
2389.641965	-3.001100	3.151900	-9.458400	28.265903	1.886089E-5	20.804076
2390.643167	-2.984800	3.150800	-9.403400	28.305267	1.605568E-5	20.820950
2391.632707	-2.979700	3.150200	-9.385700	28.245258	1.856387E-5	20.835447
2392.630321	-3.006000	3.149900	-9.467500	28.218088	1.638571E-5	20.826110
2393.631532	-3.003000	3.147700	-9.451400	28.207034	1.783781E-5	20.843904
2394.635572	-3.018400	3.147600	-9.500300	28.214545	1.539563E-5	20.821595
2395.629107	-2.998100	3.146500	-9.433000	28.228098	1.816784E-5	20.839981
2396.636334	-3.021500	3.145300	-9.501500	28.252662	2.024699E-5	20.841478
2397.634646	-3.014100	3.143500	-9.474000	28.244209	1.661672E-5	20.832969
2398.654685	-2.991900	3.145500	-9.409900	28.213671	1.595667E-5	20.816922
2399.645210	-3.005600	3.143100	-9.446000	28.254718	1.608868E-5	20.850660
2400.653945	-2.995500	3.142700	-9.413000	28.220982	1.869588E-5	20.842300
2401.651993	-3.003900	3.142100	-9.437100	28.306268	1.688074E-5	20.852303
2402.653628	-3.013600	3.141500	-9.466400	28.340544	1.635270E-5	20.805261
2403.656141	-2.987400	3.139300	-9.378500	28.350162	1.800282E-5	20.847661
2404.634097	-3.011100	3.140100	-9.454200	28.329787	1.631970E-5	20.853224
2405.635063	-2.998000	3.139200	-9.409800	28.294068	1.744178E-5	20.840020
2406.630611	-2.999200	3.136900	-9.407100	28.268386	1.453757E-5	20.839292
2407.650463	-3.016200	3.137700	-9.462100	28.232049	1.592367E-5	20.843010
2408.669616	-3.019900	3.135700	-9.468400	28.252376	1.460357E-5	20.810372
2409.656943	-3.010400	3.135600	-9.438400	28.290024	1.889389E-5	20.841163
2410.646399	-3.023500	3.135200	-9.477900	28.427074	1.859687E-5	20.829803
2411.632316	-3.018400	3.133100	-9.456000	28.448312	1.542864E-5	20.838862
2412.634450	-3.011000	3.133000	-9.432400	28.480084	1.595667E-5	20.832924
2413.649044	-3.007300	3.131600	-9.417000	28.451803	1.523062E-5	20.838583
2414.652735	-2.976400	3.130800	-9.317200	28.468775	1.575866E-5	20.837183
2415.633505	-2.993600	3.129600	-9.367400	28.440201	1.341549E-5	20.837806
2416.633845	-2.980500	3.128700	-9.324200	28.440474	1.424055E-5	20.838081
2417.634430	-2.996500	3.128800	-9.374200	28.515459	1.344849E-5	20.841521
2418.668453	-3.011900	3.128700	-9.422300	28.518656	1.275544E-5	20.849483
2419.658199	-2.988700	3.126700	-9.344200	28.475214	1.341549E-5	20.850778
2420.653695	-2.986700	3.126100	-9.335900	28.461408	1.391052E-5	20.831187
2421.653775	-3.007800	3.124200	-9.395700	28.508443	1.348149E-5	20.868594
2422.666029	-3.002300	3.124700	-9.380300	28.496076	1.285445E-5	20.854717
2423.666229	-2.990600	3.124200	-9.342600	28.554055	1.308546E-5	20.864743
2424.661547	-3.017900	3.122700	-9.423400	28.592861	1.381152E-5	20.866840
2425.639820	-3.025700	3.121500	-9.443500	28.560622	1.341549E-5	20.856658
2426.645590	-2.991600	3.120500	-9.333900	28.580516	1.226040E-5	20.866736
2427.670146	-2.985100	3.119600	-9.312100	28.552489	1.094031E-5	20.852735
2428.669831	-2.990400	3.119500	-9.327800	28.570479	1.087430E-5	20.848567
2429.644602	-3.008300	3.117800	-9.378600	28.538387	1.094031E-5	20.869352
2430.640012	-2.969000	3.119100	-9.258900	28.547308	1.136934E-5	20.852732
2431.661651	-3.002200	3.116400	-9.355200	28.584326	1.034626E-5	20.850185
2432.670221	-2.983300	3.114900	-9.291700	28.550874	1.117132E-5	20.853479
2433.641756	-3.017200	3.114000	-9.394800	28.536129	1.133633E-5	20.839578
2434.644371	-3.005100	3.113600	-9.355200	28.518881	1.169936E-5	20.872941
2435.661119	-2.976800	3.112900	-9.265000	28.474274	9.818223E-6	20.858367
2436.670657	-2.998200	3.113200	-9.332300	28.417845	9.884227E-6	20.862234
2437.641572	-3.031800	3.109300	-9.425800	28.435911	1.212839E-5	20.872364
2438.645722	-3.006200	3.110600	-9.349600	28.481236	9.059167E-6	20.865377
2439.664462	-3.013000	3.108900	-9.366200	28.462947	9.851225E-6	20.866399
2440.642136	-2.995600	3.106900	-9.306200	28.498159	1.057728E-5	20.866297
2441.643272	-3.009900	3.106200	-9.348400	28.458359	1.074229E-5	20.858935
2442.644060	-3.010300	3.105000	-9.346300	28.433083	9.488198E-6	20.864776
2443.642609	-2.993200	3.106000	-9.296200	28.421139	1.001624E-5	20.874085
2444.644346	-2.988800	3.105300	-9.280500	28.427876	9.455196E-6	20.858585
2445.649374	-2.991400	3.102800	-9.281300	28.464283	8.861152E-6	20.862529
2446.668883	-2.998500	3.102100	-9.300800	28.483486	9.851225E-6	20.879496
2447.671625	-3.003400	3.100400	-9.310400	28.516817	9.884227E-6	20.859957
2448.671613	-3.003100	3.099000	-9.305500	28.534040	8.168101E-6	20.875879
2449.662168	-2.983000	3.098700	-9.242700	28.553442	8.696140E-6	20.875030
2450.668633	-2.988100	3.098700	-9.258300	28.574502	7.739070E-6	20.880119
2451.664506	-2.986000	3.096600	-9.245700	28.616529	7.904082E-6	20.893047
2452.666095	-3.007600	3.095000	-9.307600	28.689968	8.729143E-6	20.887357
2453.647752	-2.981700	3.096100	-9.231400	28.610332	9.026164E-6	20.895814
2454.662727	-2.997600	3.092500	-9.269900	28.547321	8.201104E-6	20.878349
2455.665599	-2.993900	3.093800	-9.261600	28.479643	8.300111E-6	20.887004
2456.652523	-3.006700	3.091400	-9.293200	28.481578	6.947011E-6	20.892272
2457.643608	-2.998700	3.090000	-9.265800	28.517359	8.564130E-6	20.889899
2458.648479	-3.023400	3.088100	-9.335500	28.535893	5.626914E-6	20.878219
2459.648893	-3.000700	3.088300	-9.265700	28.549150	5.626914E-6	20.872130
2460.651014	-2.996700	3.088000	-9.252400	28.531680	6.881007E-6	20.875399
2461.651350	-2.994400	3.086700	-9.241200	28.467225	5.197883E-6	20.872604
2462.644564	-2.986300	3.085400	-9.212700	28.507293	7.805075E-6	20.894935
2463.655699	-2.998900	3.083600	-9.245800	28.564512	7.145026E-6	20.876221
2464.665634	-2.990400	3.084400	-9.222900	28.630570	6.220958E-6	20.883007
2465.650352	-2.978000	3.082600	-9.178700	28.591199	6.848004E-6	20.883658
2466.652769	-3.008300	3.080700	-9.266400	28.512098	4.900861E-6	20.876541
2467.654822	-2.989400	3.080300	-9.207000	28.526920	5.890934E-6	20.886726
2468.648896	-3.000700	3.078500	-9.236400	28.520548	5.395897E-6	20.904015
2469.652735	-3.025000	3.077200	-9.306800	28.519135	4.009795E-6	20.886472
2470.660558	-2.986800	3.077100	-9.189900	28.502730	6.947011E-6	20.872323
2471.655386	-3.013500	3.075200	-9.266200	28.469150	4.075800E-6	20.920057
2472.653344	-3.012800	3.075000	-9.263200	28.424840	4.240812E-6	20.896776
2473.669363	-2.985100	3.074800	-9.177600	28.454803	6.286963E-6	20.891861
2474.678323	-2.991000	3.071700	-9.187000	28.533679	5.626914E-6	20.890213
2475.670179	-3.007100	3.070600	-9.232900	28.597407	5.065873E-6	20.878531
2476.666684	-3.005400	3.069900	-9.225800	28.596072	5.560909E-6	20.906581
2477.676147	-2.995600	3.068900	-9.192200	28.611558	6.220958E-6	20.903687
2478.678643	-2.994100	3.067200	-9.181400	28.587225	4.933863E-6	20.928963
2479.673021	-2.965500	3.068900	-9.099600	28.603599	5.098875E-6	20.900412
2480.654018	-2.988100	3.065700	-9.160200	28.656255	5.098875E-6	20.885169
2481.656289	-3.004100	3.062700	-9.199200	28.698100	5.494905E-6	20.908348
2482.685645	-3.012100	3.061700	-9.220800	28.741602	7.145026E-6	20.909492
2483.660107	-2.993900	3.063100	-9.170000	28.755105	5.164880E-6	20.909817
2484.680191	-3.010400	3.060000	-9.211000	28.694851	3.481756E-6	20.910291
2485.673703	-2.977200	3.059900	-9.109200	28.677726	6.022943E-6	20.897785
2486.681270	-3.009200	3.056700	-9.197200	28.628446	4.867858E-6	20.911212
2487.657859	-2.989800	3.058100	-9.141500	28.571133	3.250739E-6	20.880519
2488.689090	-2.989800	3.055700	-9.135100	28.605499	4.735849E-6	20.902799
2489.685093	-2.986100	3.055300	-9.122700	28.596603	4.240812E-6	20.890996
2490.660497	-2.973100	3.054500	-9.080200	28.541740	4.999868E-6	20.917295
2491.659316	-2.972800	3.052100	-9.072500	28.615604	4.207810E-6	20.904916
2492.660187	-2.997800	3.050400	-9.144000	28.643700	5.362895E-6	20.905713
2493.660568	-2.991300	3.050500	-9.124000	28.654279	4.438827E-6	20.908781
2494.659460	-2.967900	3.048400	-9.046500	28.701650	2.161659E-6	20.902441
2495.665695	-2.998700	3.048000	-9.139300	28.751595	5.461902E-6	20.923349
2496.658217	-3.020100	3.044300	-9.192900	28.805004	3.943790E-6	20.924992
2497.659098	-3.011800	3.044700	-9.169000	28.842191	2.656696E-6	20.914090
2498.679265	-2.988100	3.044700	-9.096700	28.854051	3.316744E-6	20.920347
2499.660057	-2.997800	3.042300	-9.119600	28.835421	3.646768E-6	20.919597
2500.658656	-3.006500	3.041200	-9.142900	28.855264	2.161659E-6	20.909242
2501.662949	-3.002400	3.040100	-9.126800	28.894923	3.217737E-6	20.922167
2502.673636	-3.016700	3.038200	-9.164100	28.890115	3.349747E-6	20.919220
2503.679657	-3.022800	3.037900	-9.181800	28.873489	3.811781E-6	20.918592
2504.685194	-2.982700	3.036900	-9.057300	28.824486	1.732628E-6	20.928970
2505.678129	-3.004800	3.034900	-9.118100	28.822751	4.438827E-6	20.904465
2506.681504	-3.044100	3.032000	-9.229100	28.779198	4.174807E-6	20.919860
2507.709129	-2.990800	3.032300	-9.068100	28.777337	3.547761E-6	20.921778
2508.661538	-2.990300	3.030700	-9.062100	28.791877	3.184734E-6	20.936423
2509.663990	-2.994000	3.029900	-9.070300	28.800125	1.204589E-6	20.923871
2510.662185	-2.962200	3.028800	-8.970900	28.786946	1.633620E-6	20.928138
2511.660686	-3.046100	3.025200	-9.214100	28.776289	2.095654E-6	20.936368
2512.664772	-3.005000	3.025600	-9.091000	28.735659	2.689698E-6	20.938590
2513.694963	-2.979600	3.025700	-9.014900	28.685586	3.795279E-7	20.918501
2514.666387	-2.995800	3.023100	-9.055900	28.672030	1.732628E-6	20.924287
2515.667597	-3.038000	3.021800	-9.178600	28.768432	3.349747E-6	20.929877
2516.677283	-3.017000	3.020200	-9.111000	28.775121	3.019722E-6	20.919072
2517.692522	-3.009400	3.019100	-9.083900	28.724357	4.075800E-6	20.940481
2518.684954	-2.988300	3.017000	-9.014700	28.675843	6.435474E-7	20.944246
2519.667091	-3.011300	3.016100	-9.081500	28.722249	1.996647E-6	20.943100
2520.670159	-2.972200	3.014900	-8.959900	28.679882	2.029649E-6	20.937411
2521.690692	-2.985300	3.014800	-8.999000	28.656914	1.501611E-6	20.943673
2522.665677	-3.016200	3.012000	-9.083600	28.719942	2.227664E-6	20.957844
2523.691409	-3.028400	3.010600	-9.117500	28.841755	3.481756E-6	20.948734
2524.671824	-2.986400	3.009200	-8.985400	28.891644	1.963645E-6	20.947783
2525.669450	-3.011900	3.007800	-9.058200	28.962065	2.095654E-6	20.925798
2526.672015	-2.997700	3.005600	-9.008800	29.036843	2.920715E-6	20.962254
2527.692492	-2.996200	3.005700	-9.004600	29.057673	3.679771E-6	20.948629
2528.669930	-2.976600	3.005600	-8.946000	29.064630	2.821708E-6	20.931460
2529.672840	-3.021500	3.001900	-9.069400	29.045336	4.042798E-6	20.937149
2530.671794	-2.993600	3.002700	-8.987700	29.032975	3.349747E-6	20.952194
2531.671459	-3.000700	3.001400	-9.005100	29.063588	3.019722E-6	20.947478
2532.676218	-2.986300	2.998100	-8.952200	29.047536	5.263888E-6	20.941262
2533.679077	-2.973700	2.998500	-8.915500	29.076116	3.415751E-6	20.965314
2534.675841	-2.962000	2.997400	-8.877200	29.002307	1.039577E-6	20.958277
2535.677880	-3.012300	2.993500	-9.015600	28.989699	2.425679E-6	20.935620
2536.673750	-3.003400	2.993000	-8.988600	28.930670	1.864637E-6	20.930204
2537.678368	-2.981700	2.992000	-8.920300	28.915533	4.075800E-6	20.932497
2538.673117	-3.010300	2.990500	-9.001000	28.960296	2.359674E-6	20.947247
2539.676455	-2.988600	2.989100	-8.932600	29.016721	4.372822E-6	20.933922
2540.675436	-2.977300	2.988400	-8.896600	29.027862	9.405693E-7	20.929501
2541.676511	-2.992000	2.986400	-8.934300	29.038831	3.448754E-6	20.941500
2542.671123	-2.995800	2.984900	-8.941400	28.962641	1.468608E-6	20.942498
2543.671290	-3.011100	2.984100	-8.984400	28.998507	3.877785E-6	20.925056
2544.673184	-3.024400	2.980100	-9.012400	28.953771	6.418973E-6	20.924554
2545.673862	-2.986800	2.979100	-8.897100	28.987927	2.359674E-6	20.927198
2546.675404	-2.984700	2.980300	-8.894300	28.968754	3.415751E-6	20.942967
2547.682907	-2.986300	2.978500	-8.893700	28.903111	4.075800E-6	20.936104
2548.676401	-2.987100	2.977200	-8.892100	28.861591	2.656696E-6	20.892858
2549.677015	-3.010600	2.974000	-8.952700	28.860253	1.402603E-6	20.927068
2550.674641	-2.992900	2.973600	-8.899100	28.889331	3.283742E-6	20.936446
2551.677460	-3.017900	2.969400	-8.960600	28.934565	3.118730E-6	20.911845
2552.674870	-2.986700	2.970900	-8.872200	28.962675	3.910788E-6	20.922620
2553.680433	-3.009200	2.969000	-8.933300	28.932804	4.504832E-6	20.914811
2554.679841	-3.026400	2.967000	-8.978300	28.952119	1.996647E-6	20.929528
2555.679967	-2.981900	2.965700	-8.842700	29.028608	1.963645E-6	20.916030
2556.677169	-2.996700	2.962700	-8.877700	29.107516	5.989941E-6	20.920619
2557.678836	-2.984300	2.962000	-8.838700	29.053076	4.537834E-6	20.922191
2558.683259	-2.993900	2.960800	-8.863100	29.099787	3.613766E-6	20.926107
2559.680800	-3.005700	2.959400	-8.893600	29.127129	3.778778E-6	20.904822
2560.676542	-3.025600	2.956500	-8.943900	29.045468	4.306817E-6	20.903621
2561.682198	-2.978100	2.956900	-8.805100	28.931305	4.636841E-6	20.914250
2562.677016	-3.007500	2.953700	-8.882200	28.908315	4.966866E-6	20.917641
2563.679961	-3.003000	2.952700	-8.866100	28.941630	2.656696E-6	20.940296
2564.680490	-2.977000	2.952300	-8.788600	29.019280	6.848004E-6	20.935078
2565.676700	-3.015900	2.949700	-8.894900	29.050438	4.900861E-6	20.918110
2566.681944	-3.008700	2.948500	-8.870100	29.020985	4.108802E-6	20.920202
2567.676823	-2.987900	2.946400	-8.802800	29.007731	4.537834E-6	20.901635
2568.685654	-2.990100	2.945600	-8.807100	29.023830	3.547761E-6	20.912165
2569.680172	-3.003900	2.944300	-8.843500	28.999009	3.580764E-6	20.903278
2570.682517	-3.008100	2.942500	-8.850600	28.979416	4.867858E-6	20.919098
2571.678310	-2.997600	2.940900	-8.815200	29.042004	4.306817E-6	20.902501
2572.679348	-2.989700	2.939500	-8.787000	29.114098	1.930642E-6	20.908762
2573.679428	-2.983300	2.937200	-8.761700	29.128957	1.864637E-6	20.885329
2574.683944	-3.007100	2.935400	-8.826300	29.153992	2.392676E-6	20.919562
2575.682210	-3.003200	2.934600	-8.812600	29.088015	2.656696E-6	20.904765
2576.678748	-3.013800	2.932200	-8.836800	29.001818	3.019722E-6	20.915116
2577.679886	-2.971900	2.933300	-8.716700	28.958026	3.052725E-6	20.926944
2578.687277	-3.009200	2.927900	-8.809200	29.002510	7.046019E-6	20.913443
2579.683119	-3.012200	2.927800	-8.817600	29.051179	4.042798E-6	20.907478
2580.682608	-2.998800	2.926200	-8.774600	29.052392	2.821708E-6	20.915811
2581.679497	-3.005200	2.923500	-8.783100	29.080427	3.712773E-6	20.895698
2582.682886	-3.006100	2.923500	-8.787900	29.050009	2.161659E-6	20.900136
2583.684488	-3.003500	2.922400	-8.776700	29.101869	3.976793E-6	20.916353
2584.685010	-3.026700	2.917800	-8.830600	29.074479	3.217737E-6	20.921471
2585.685055	-3.019000	2.917100	-8.805700	29.066305	3.019722E-6	20.904701
2586.686085	-2.985900	2.916300	-8.705700	29.085076	3.085727E-6	20.908916
2587.680999	-3.005400	2.912800	-8.753400	29.109051	3.415751E-6	20.889452
2588.686918	-3.007500	2.911400	-8.755200	29.139336	2.887713E-6	20.908588
2589.686861	-2.990400	2.909700	-8.700100	29.148227	6.435474E-7	20.895263
2590.683695	-2.981700	2.908900	-8.671700	29.157710	3.877785E-6	20.874948
2591.698888	-2.987900	2.907300	-8.685800	29.195550	3.184734E-6	20.917817
2592.683145	-2.991100	2.906400	-8.691100	29.151962	2.392676E-6	20.913250
2593.689243	-2.998400	2.903400	-8.704200	29.164667	1.963645E-6	20.901397
2594.691758	-2.997700	2.900800	-8.694800	29.187595	3.481756E-6	20.899372
2595.682941	-2.999700	2.900200	-8.696900	29.219492	2.656696E-6	20.888368
2596.684303	-3.001900	2.899300	-8.702400	29.258544	1.831635E-6	20.898324
2597.701452	-3.014000	2.895500	-8.725900	29.269513	4.075800E-6	20.897999
2598.684078	-2.986700	2.894500	-8.644100	29.249403	3.547761E-6	20.903810
2599.687069	-2.994000	2.892800	-8.660600	29.198439	2.425679E-6	20.901291
2600.691894	-3.027500	2.889300	-8.745200	29.190364	3.580764E-6	20.876560
2601.688179	-3.025700	2.888000	-8.737100	29.199430	1.501611E-6	20.889962
2602.688727	-3.014500	2.884600	-8.694400	29.200938	1.864637E-6	20.897644
2603.684850	-3.044300	2.883100	-8.775800	29.178079	1.204589E-6	20.894998
2604.687206	-2.991300	2.883400	-8.624000	29.206084	1.864637E-6	20.889555
2605.690320	-2.997700	2.881300	-8.635800	29.304889	3.514759E-6	20.904726
2606.695220	-3.000600	2.879100	-8.638300	29.241244	2.095654E-6	20.884685
2607.689241	-3.009100	2.876600	-8.655600	29.270590	4.768851E-6	20.912359
2608.691350	-2.992700	2.875800	-8.606000	29.272743	2.161659E-6	20.916900
2609.691690	-2.999800	2.874400	-8.621500	29.270068	3.943790E-6	20.879120
2610.694739	-3.004100	2.871400	-8.625100	29.254266	1.138584E-6	20.880264
2611.691886	-3.019300	2.870000	-8.664700	29.176779	3.316744E-6	20.884206
2612.689230	-3.013900	2.867500	-8.641300	29.255675	4.009795E-6	20.875046
2613.693012	-3.033100	2.864900	-8.688600	29.337044	2.920715E-6	20.866013
2614.690765	-3.027800	2.864100	-8.671500	29.362966	2.920715E-6	20.880284
2615.693927	-2.995700	2.863300	-8.576700	29.452569	2.986720E-6	20.884301
2616.695144	-2.970500	2.860900	-8.496400	29.499484	2.293669E-6	20.873743
2617.695135	-2.983200	2.858300	-8.526300	29.499334	1.831635E-6	20.902987
2618.691472	-3.010300	2.856000	-8.596200	29.519435	3.514759E-6	20.881051
2619.693318	-3.007500	2.854300	-8.583700	29.507453	2.425679E-6	20.888888
2620.693018	-2.999300	2.852300	-8.553100	29.463184	2.656696E-6	20.903059
2621.696439	-3.027900	2.849400	-8.626500	29.410771	1.666623E-6	20.891482
2622.696567	-2.995700	2.848800	-8.533600	29.364094	2.359674E-6	20.880947
2623.691144	-3.001200	2.846700	-8.542600	29.443053	8.085595E-7	20.868072
2624.695641	-2.981600	2.844900	-8.481500	29.412771	2.293669E-6	20.892076
2625.693979	-3.003400	2.840800	-8.531600	29.359116	3.547761E-6	20.890628
2626.693909	-3.014200	2.839700	-8.558700	29.328460	3.019722E-6	20.882492
2627.691418	-3.040600	2.836100	-8.622600	29.350870	8.415620E-7	20.878525
2628.698883	-2.987100	2.835600	-8.469400	29.392095	1.666623E-6	20.893995
2629.692333	-3.007300	2.833700	-8.521200	29.367013	4.702846E-6	20.877252
2630.692853	-2.996500	2.830800	-8.481600	29.293668	3.135231E-7	20.879669
2631.692455	-2.993600	2.827200	-8.462100	29.323850	4.735849E-6	20.889698
2632.691754	-3.003800	2.825200	-8.485700	29.393228	4.636841E-6	20.879491
2633.693141	-3.029900	2.822700	-8.551300	29.477285	2.986720E-6	20.876971
2634.697464	-2.998800	2.821500	-8.460800	29.461833	1.270594E-6	20.887948
2635.697636	-2.992000	2.818400	-8.431800	29.456531	3.646768E-6	20.886871
2636.697930	-3.004800	2.816600	-8.462000	29.469680	4.009795E-6	20.874048
2637.701157	-3.009800	2.813700	-8.467300	29.460841	2.623693E-6	20.867509
2638.696386	-2.997900	2.812200	-8.427700	29.422708	3.382749E-6	20.864635
2639.696857	-3.011300	2.807500	-8.453200	29.404211	2.062652E-6	20.886767
2640.697482	-2.959900	2.808400	-8.311900	29.434740	3.415751E-6	20.899045
2641.699923	-3.009500	2.804000	-8.438100	29.487943	2.293669E-6	20.874912
2642.698848	-3.010200	2.801600	-8.432100	29.526982	1.567615E-6	20.856419
2643.701800	-2.996600	2.798400	-8.383800	29.551762	1.039577E-6	20.879500
2644.700479	-3.010100	2.795700	-8.414600	29.543788	2.788705E-6	20.871936
2645.704207	-3.012800	2.793100	-8.414400	29.534999	1.732628E-6	20.881094
2646.700565	-3.002100	2.789300	-8.372100	29.468992	2.920715E-6	20.879044
2647.700738	-2.990800	2.786700	-8.332800	29.470603	4.785352E-7	20.874977
2648.702671	-3.005700	2.785300	-8.370700	29.537546	1.501611E-6	20.877023
2649.699815	-3.006500	2.781800	-8.362500	29.615002	2.755703E-6	20.860749
2650.701374	-2.990700	2.778300	-8.307700	29.589180	3.316744E-6	20.871227
2651.715661	-2.992400	2.775800	-8.305100	29.564675	3.250739E-6	20.867387
2652.699770	-2.986100	2.774300	-8.283900	29.559026	6.105450E-7	20.865486
2653.702908	-3.022100	2.770000	-8.369800	29.576971	3.481756E-6	20.875515
2654.702602	-3.020200	2.767300	-8.356700	29.495621	2.524686E-6	20.871273
2655.706336	-3.013000	2.764600	-8.328300	29.540726	2.854710E-6	20.856997
2656.703524	-3.006100	2.761200	-8.299400	29.606128	1.534613E-6	20.879303
2657.702785	-2.998400	2.757300	-8.266200	29.559933	4.125304E-7	20.867823
2658.701233	-3.020500	2.753900	-8.317200	29.503983	3.151732E-6	20.879701
2659.705841	-3.010600	2.751500	-8.283100	29.529874	3.745776E-6	20.885410
2660.702679	-2.986100	2.748600	-8.206500	29.609067	1.600618E-6	20.888903
2661.706059	-2.976400	2.745400	-8.170400	29.698352	5.032870E-6	20.877922
2662.707505	-2.980300	2.741700	-8.170300	29.680601	2.953717E-6	20.864768
2663.711900	-3.013700	2.738700	-8.252700	29.690256	2.062652E-6	20.868338
2664.709446	-2.991800	2.735000	-8.182000	29.766142	2.227664E-6	20.871354
2665.707247	-3.034400	2.731800	-8.288500	29.841058	2.557688E-6	20.877664
2666.706516	-2.982100	2.727500	-8.133200	29.820961	2.029649E-6	20.870677
2667.710103	-2.977300	2.725700	-8.114500	29.832023	7.425547E-7	20.882304
2668.707448	-2.972900	2.722000	-8.091600	29.746013	4.785352E-7	20.853430
2669.704893	-2.984200	2.717300	-8.108400	29.740739	2.029649E-6	20.867552
2670.711888	-3.025200	2.713200	-8.207500	29.639525	8.250607E-8	20.857496
2671.705329	-2.989600	2.710800	-8.103200	29.598605	1.072579E-6	20.845169
2672.706716	-3.042900	2.707000	-8.236500	29.655144	8.250607E-8	20.869923
2673.718647	-3.017100	2.702900	-8.154200	29.706851	-1.435606E-6	20.855198
2674.712140	-3.060700	2.697600	-8.255600	29.730489	1.650122E-8	20.856270
2675.716374	-3.010200	2.694300	-8.109800	29.685217	-1.155085E-7	20.876059
2676.717915	-3.004200	2.690800	-8.083000	29.668510	-9.405693E-7	20.862536
2677.713464	-2.971600	2.687600	-7.985400	29.715117	3.795279E-7	20.855471
2678.713910	-2.992800	2.681100	-8.023400	29.686603	-8.250608E-8	20.849484
2679.715890	-3.010300	2.676500	-8.055500	29.728137	-8.415620E-7	20.862908
2680.712714	-2.967500	2.674500	-7.935500	29.796009	1.666623E-6	20.836510
2681.718778	-3.004500	2.669700	-8.020300	29.802295	-1.468608E-6	20.868925
2682.713344	-3.015000	2.665200	-8.035300	29.834793	-8.415620E-7	20.846219
2683.714405	-2.978100	2.660500	-7.922200	29.924805	1.567615E-6	20.846894
2684.715166	-2.998900	2.655100	-7.961300	29.905304	-1.567615E-6	20.847618
2685.716915	-2.996200	2.651800	-7.944600	29.843186	-1.072579E-6	20.851836
2686.713740	-3.013100	2.645600	-7.970800	29.781583	-2.458681E-6	20.862741
2687.721145	-3.000100	2.640700	-7.921000	29.773689	-5.445401E-7	20.830127
2688.716735	-2.972600	2.636600	-7.836800	29.722205	-2.788705E-6	20.845074
2689.714283	-2.999400	2.631900	-7.892600	29.723595	1.138584E-6	20.847424
2690.723639	-3.019500	2.626100	-7.928000	29.823068	1.864637E-6	20.871853
2691.717084	-2.971900	2.622800	-7.793900	29.926224	-9.405693E-7	20.836946
2692.720769	-2.999500	2.617400	-7.848900	29.953345	7.095522E-7	20.852915
2693.719123	-3.000400	2.611300	-7.834400	29.946021	2.821708E-6	20.853116
2694.717472	-2.993100	2.606700	-7.801500	29.955649	1.039577E-6	20.828687
2695.719321	-2.993200	2.601100	-7.785200	29.899523	1.666623E-6	20.834677
2696.724775	-3.000800	2.594400	-7.784400	29.850300	9.075668E-7	20.813966
2697.719900	-2.956200	2.590200	-7.656300	29.799092	1.930642E-6	20.863325
2698.724517	-2.993900	2.583400	-7.733300	29.807384	-1.155085E-7	20.833755
2699.724238	-2.982200	2.577700	-7.686500	29.819783	2.062652E-6	20.839145
2700.717889	-2.925000	2.575900	-7.533100	29.922814	2.128657E-6	20.840619
2701.728507	-3.004700	2.565900	-7.709100	30.041940	1.864637E-6	20.837948
2702.722348	-2.967400	2.560700	-7.598000	30.104766	9.735717E-7	20.852947
2703.721549	-2.985100	2.554400	-7.623700	30.106026	-1.155085E-7	20.834778
2704.723354	-3.015300	2.547500	-7.680300	30.099568	-1.485109E-7	20.821626
2705.723884	-3.005300	2.541100	-7.635700	30.014349	-1.468608E-6	20.839045
2706.724894	-2.998500	2.535400	-7.601300	30.011454	1.155085E-7	20.838023
2707.727762	-2.995800	2.528800	-7.574900	29.992126	8.745644E-7	20.834178
2708.728405	-3.014600	2.523000	-7.604600	29.987993	8.745644E-7	20.831432
2709.724164	-3.016000	2.516000	-7.587100	29.964535	3.481756E-6	20.815837
2710.726313	-3.006300	2.510600	-7.546500	30.100062	1.468608E-6	20.821177
2711.721029	-2.985500	2.504500	-7.475100	30.120795	4.504832E-6	20.821225
2712.735330	-3.007000	2.499900	-7.515500	30.122106	2.590691E-6	20.829660
