LabVIEW Measurement	
Writer_Version	2
Reader_Version	2
Separator	Tab
Decimal_Separator	.
Multi_Headings	No
X_Columns	One
Time_Pref	Absolute
Operator	admin
Description	Clolumns are: time, Current, Voltage, Power, Battery Temp, and Chamber Temp
Date	2024/08/16
Time	13:07:17.8513970375061035156
***End_of_Header***	
	
Channels	6						
Samples	1	1	1	1	1	1	
Date	2024/09/11	2024/09/11	2024/09/11	2024/09/11	2024/09/11	2024/09/11	
Time	09:32:33.4578800201416015625	09:32:33.4666070938110351563	09:32:33.4745945930480957032	09:32:33.4376749992370605469	09:32:33.4376749992370605469	09:32:33.4376749992370605469	
X_Dimension	Time	Time	Time	Time	Time	Time	
X0	0.0000000000000000E+0	0.0000000000000000E+0	0.0000000000000000E+0	0.0000000000000000E+0	0.0000000000000000E+0	0.0000000000000000E+0	
Delta_X	1.000000	1.000000	1.000000	1.000000	1.000000	1.000000	
***End_of_Header***							
X_Value	Untitled	Untitled 1	Untitled 2	Untitled 3	Untitled 4	Untitled 5	Comment
0.000000	0.017600	4.093800	0.072272	20.839078	0.000461	20.820113
0.997952	-2.980600	3.922700	-11.692000	20.825564	0.000459	20.807072
1.997829	-2.985400	3.916300	-11.691000	20.827502	0.000457	20.822287
3.005043	-3.000500	3.912300	-11.738000	20.824362	0.000456	20.802078
3.997161	-3.007700	3.907600	-11.752000	20.827460	0.000455	20.821770
5.001736	-3.002100	3.904400	-11.720000	20.806770	0.000455	20.820046
6.001504	-3.008100	3.902300	-11.738000	20.847332	0.000454	20.821254
7.005681	-3.001200	3.900700	-11.705000	20.846759	0.000453	20.814043
8.002578	-3.008500	3.896500	-11.722000	20.863231	0.000452	20.803015
9.005014	-3.004000	3.897100	-11.706000	20.891211	0.000451	20.811082
10.012672	-2.997700	3.894800	-11.675000	20.878009	0.000450	20.822536
11.004549	-2.981500	3.894400	-11.610000	20.876488	0.000449	20.812480
12.003922	-3.018900	3.892600	-11.749000	20.932644	0.000449	20.804156
13.006669	-3.004600	3.890400	-11.688000	20.889844	0.000451	20.808294
14.005639	-3.001000	3.889800	-11.672000	20.918445	0.000449	20.839267
15.008681	-2.982300	3.889800	-11.599000	20.913188	0.000449	20.806983
16.007977	-3.001000	3.886600	-11.663000	20.935127	0.000447	20.826553
17.006186	-3.000200	3.885900	-11.658000	20.925522	0.000448	20.803671
18.009728	-3.005400	3.884600	-11.673000	20.931562	0.000445	20.800703
19.005277	-3.020900	3.884100	-11.733000	20.952977	0.000447	20.826862
20.003675	-3.013100	3.884400	-11.703000	20.952707	0.000446	20.833230
21.007528	-3.000000	3.882000	-11.645000	20.981380	0.000445	20.819708
22.006707	-3.009700	3.881300	-11.681000	20.974251	0.000445	20.804992
23.002896	-3.005700	3.882100	-11.667000	20.987100	0.000443	20.831119
24.005643	-2.985100	3.882200	-11.588000	20.989664	0.000444	20.807130
25.008004	-3.003400	3.879400	-11.651000	20.987939	0.000443	20.827217
26.008239	-3.009600	3.879200	-11.674000	20.989491	0.000444	20.820708
27.009164	-2.977200	3.879000	-11.547000	21.017893	0.000441	20.806916
28.009577	-2.983300	3.878900	-11.571000	21.030029	0.000442	20.833752
29.009707	-3.009000	3.877900	-11.668000	21.029113	0.000442	20.826672
30.004893	-3.011600	3.877100	-11.675000	21.029471	0.000442	20.812332
31.009808	-3.009300	3.877100	-11.666000	21.058648	0.000443	20.820178
32.010280	-3.005500	3.875400	-11.646000	21.058044	0.000440	20.797289
33.005938	-3.003600	3.875600	-11.639000	21.081065	0.000440	20.811306
34.011622	-2.997300	3.876700	-11.619000	21.074010	0.000442	20.819897
35.009440	-2.991400	3.875500	-11.593000	21.081774	0.000440	20.842360
36.007274	-3.018500	3.874100	-11.693000	21.091391	0.000439	20.811204
37.010510	-2.994300	3.874800	-11.601000	21.125750	0.000440	20.828976
38.013240	-3.000000	3.873300	-11.619000	21.102308	0.000440	20.810744
39.011451	-3.002800	3.874400	-11.633000	21.099127	0.000439	20.828898
40.010433	-2.990300	3.873200	-11.581000	21.132716	0.000438	20.833099
41.011761	-3.016700	3.871200	-11.677000	21.137112	0.000439	20.840815
42.009456	-2.997400	3.872700	-11.607000	21.141361	0.000437	20.816616
43.012938	-3.013000	3.873100	-11.668000	21.154966	0.000438	20.834493
44.011050	-3.014200	3.871300	-11.666000	21.166855	0.000439	20.834532
45.012840	-2.996000	3.870900	-11.597000	21.161722	0.000439	20.825130
46.011207	-3.004300	3.871600	-11.631000	21.187153	0.000437	20.806473
47.014361	-3.016600	3.871200	-11.677000	21.180752	0.000437	20.812398
48.015667	-2.995700	3.870000	-11.593000	21.189161	0.000439	20.839776
49.012634	-2.990900	3.871600	-11.578000	21.213545	0.000438	20.826710
50.013654	-3.004900	3.870600	-11.630000	21.221561	0.000438	20.840418
51.012353	-3.024600	3.870200	-11.705000	21.225507	0.000436	20.839151
52.011887	-2.990200	3.869700	-11.570000	21.243705	0.000436	20.843130
53.013513	-3.021200	3.869000	-11.688000	21.227081	0.000436	20.824129
54.012653	-2.998000	3.869000	-11.598000	21.248792	0.000435	20.816926
55.012405	-2.991200	3.869400	-11.574000	21.249919	0.000434	20.820898
56.017641	-2.982800	3.869500	-11.541000	21.259486	0.000437	20.838530
57.014280	-3.009300	3.868400	-11.640000	21.275355	0.000437	20.841603
58.018450	-2.999100	3.868900	-11.603000	21.289114	0.000435	20.842565
59.015761	-2.987900	3.868500	-11.558000	21.300005	0.000434	20.834495
60.015277	-2.991800	3.868800	-11.574000	21.315473	0.000435	20.823891
61.017737	-2.992500	3.867500	-11.572000	21.295680	0.000436	20.816892
62.016506	-2.979500	3.868700	-11.526000	21.318714	0.000436	20.815280
63.016603	-2.957600	3.868600	-11.441000	21.331535	0.000437	20.826684
64.015891	-2.984700	3.868000	-11.543000	21.334842	0.000437	20.830941
65.013528	-3.005600	3.866200	-11.619000	21.363260	0.000436	20.853682
66.013451	-3.003400	3.867000	-11.613000	21.350250	0.000434	20.828813
67.018302	-2.978400	3.867200	-11.517000	21.362759	0.000435	20.811930
68.016135	-2.996300	3.866000	-11.583000	21.383260	0.000436	20.849984
69.016894	-2.994000	3.866400	-11.575000	21.391805	0.000434	20.852843
70.016583	-2.999300	3.865000	-11.592000	21.392490	0.000435	20.837882
71.020014	-2.982800	3.866100	-11.531000	21.409206	0.000435	20.852710
72.014244	-2.982100	3.866300	-11.529000	21.394702	0.000434	20.826345
73.019460	-2.990500	3.866600	-11.563000	21.419556	0.000437	20.825134
74.020190	-2.975200	3.866700	-11.504000	21.421760	0.000434	20.839193
75.015429	-2.991800	3.863700	-11.558000	21.400238	0.000436	20.834255
76.022346	-3.000900	3.864500	-11.596000	21.412894	0.000437	20.830322
77.016481	-3.007500	3.863300	-11.617000	21.440394	0.000435	20.838397
78.017477	-3.000300	3.863900	-11.591000	21.446709	0.000437	20.832862
79.015562	-2.982000	3.864600	-11.523000	21.445172	0.000437	20.818522
80.018673	-3.004900	3.863300	-11.607000	21.456503	0.000436	20.834127
81.019177	-3.002600	3.865000	-11.604000	21.490131	0.000436	20.827946
82.015054	-2.985600	3.863200	-11.533000	21.497173	0.000437	20.809862
83.019176	-2.996500	3.864100	-11.577000	21.516019	0.000435	20.823978
84.016666	-3.021400	3.862300	-11.668000	21.509515	0.000436	20.824582
85.017138	-3.001300	3.863200	-11.593000	21.503419	0.000436	20.812792
86.023496	-3.003700	3.863000	-11.602000	21.513075	0.000435	20.808230
87.020225	-3.013500	3.862400	-11.639000	21.521489	0.000437	20.826132
88.017437	-3.008000	3.862000	-11.617000	21.522525	0.000435	20.819582
89.018803	-3.013800	3.862100	-11.639000	21.558773	0.000439	20.800378
90.026691	-2.992300	3.862400	-11.556000	21.551999	0.000437	20.798341
91.025955	-2.995800	3.861200	-11.566000	21.567896	0.000436	20.809033
92.019031	-2.982700	3.863000	-11.521000	21.570182	0.000437	20.819854
93.027540	-3.010700	3.862200	-11.627000	21.591185	0.000438	20.805311
94.021873	-3.033800	3.859900	-11.708000	21.564812	0.000435	20.811637
95.024452	-2.997400	3.862100	-11.575000	21.596075	0.000438	20.821584
96.025469	-3.012000	3.861400	-11.629000	21.614832	0.000437	20.800999
97.023433	-2.993500	3.862900	-11.563000	21.613776	0.000436	20.807529
98.024449	-2.995000	3.862400	-11.567000	21.640310	0.000438	20.788563
99.020742	-3.003000	3.860000	-11.591000	21.619681	0.000438	20.779298
100.025370	-3.000900	3.860100	-11.582000	21.621190	0.000437	20.802146
101.024522	-2.989600	3.860900	-11.542000	21.634440	0.000436	20.796439
102.024226	-2.968500	3.861700	-11.462000	21.635722	0.000437	20.783023
103.025719	-3.001200	3.860900	-11.586000	21.651846	0.000437	20.788728
104.020685	-3.002900	3.859100	-11.587000	21.664663	0.000439	20.790175
105.027461	-3.008300	3.860500	-11.613000	21.659719	0.000436	20.803719
106.023192	-2.989500	3.860900	-11.541000	21.673646	0.000437	20.789207
107.028545	-2.997800	3.858300	-11.565000	21.691836	0.000436	20.792239
108.027369	-3.009400	3.858500	-11.611000	21.688903	0.000435	20.792622
109.025311	-2.975600	3.859400	-11.483000	21.712607	0.000437	20.777938
110.031293	-2.995400	3.859500	-11.560000	21.698401	0.000439	20.777471
111.031942	-3.005400	3.858400	-11.595000	21.714868	0.000438	20.790632
112.032593	-3.004500	3.859400	-11.595000	21.735982	0.000437	20.788530
113.031334	-3.012700	3.858400	-11.623000	21.741755	0.000438	20.791937
114.030155	-3.014800	3.857400	-11.629000	21.756678	0.000440	20.785061
115.035378	-2.998000	3.858700	-11.567000	21.742954	0.000439	20.779860
116.034554	-2.997800	3.856900	-11.561000	21.736230	0.000438	20.767441
117.031436	-3.017500	3.859000	-11.643000	21.770781	0.000437	20.779735
118.030982	-3.004900	3.857300	-11.590000	21.766458	0.000442	20.772564
119.032351	-3.007100	3.857300	-11.598000	21.784297	0.000441	20.774771
120.028119	-3.007000	3.858500	-11.602000	21.757112	0.000440	20.787392
121.028053	-3.027800	3.855800	-11.674000	21.773904	0.000440	20.773378
122.031483	-2.981200	3.858000	-11.500000	21.793409	0.000440	20.760657
123.027390	-2.975400	3.858500	-11.480000	21.806861	0.000441	20.762741
124.030520	-2.987600	3.857000	-11.522000	21.819323	0.000440	20.760515
125.034983	-3.004200	3.855900	-11.582000	21.838697	0.000441	20.752880
126.029978	-3.000000	3.854900	-11.564000	21.842772	0.000441	20.764545
127.029474	-3.012000	3.855400	-11.612000	21.842313	0.000440	20.765508
128.031886	-3.012400	3.856300	-11.616000	21.858109	0.000441	20.771361
129.029224	-3.018300	3.854400	-11.632000	21.848127	0.000441	20.762318
130.032299	-2.983300	3.857100	-11.506000	21.865367	0.000443	20.764402
131.037031	-3.019400	3.854100	-11.636000	21.874204	0.000443	20.754280
132.031096	-2.997800	3.855000	-11.556000	21.874889	0.000442	20.761130
133.031077	-3.022400	3.854800	-11.649000	21.872707	0.000442	20.767955
134.032801	-3.009900	3.854900	-11.601000	21.889817	0.000443	20.741459
135.039398	-3.008300	3.855700	-11.598000	21.896334	0.000441	20.758414
136.034374	-3.017400	3.854700	-11.631000	21.900417	0.000441	20.757758
137.033247	-3.006700	3.854700	-11.590000	21.902768	0.000441	20.761535
138.043775	-2.980900	3.854100	-11.488000	21.910910	0.000441	20.748821
139.033485	-2.984800	3.854700	-11.504000	21.936620	0.000443	20.732355
140.039149	-2.987100	3.854100	-11.511000	21.942049	0.000443	20.748223
141.032565	-2.966500	3.855100	-11.436000	21.964026	0.000442	20.737030
142.033075	-2.988900	3.854300	-11.519000	21.978349	0.000443	20.738566
143.033366	-2.987600	3.854600	-11.515000	21.989227	0.000445	20.743291
144.035674	-3.028200	3.853000	-11.666000	21.980986	0.000442	20.737886
145.034001	-2.998400	3.854400	-11.557000	21.971756	0.000444	20.727698
146.045604	-2.991000	3.853300	-11.525000	21.994721	0.000443	20.730772
147.037927	-3.008000	3.852800	-11.588000	21.994589	0.000445	20.746762
148.035166	-3.012500	3.852300	-11.604000	22.005548	0.000445	20.729756
149.032458	-2.997500	3.854200	-11.552000	22.010798	0.000444	20.735012
150.037082	-3.003800	3.852400	-11.570000	22.017886	0.000446	20.752066
151.038729	-2.991400	3.852700	-11.524000	22.010976	0.000445	20.712430
152.034829	-2.997600	3.852800	-11.549000	22.017574	0.000445	20.724251
153.035364	-3.011700	3.852900	-11.602000	22.021395	0.000445	20.742302
154.033454	-2.980700	3.851100	-11.478000	22.047159	0.000446	20.734903
155.036299	-3.005500	3.851000	-11.573000	22.052964	0.000446	20.752095
156.042081	-2.991500	3.852100	-11.523000	22.048741	0.000447	20.732694
157.038129	-3.011200	3.850700	-11.595000	22.051068	0.000449	20.721746
158.036042	-3.008300	3.851100	-11.584000	22.058344	0.000448	20.734720
159.034635	-3.016800	3.850500	-11.616000	22.065815	0.000446	20.721336
160.036896	-3.025100	3.848600	-11.641000	22.060515	0.000447	20.718874
161.036469	-3.025700	3.849600	-11.647000	22.081272	0.000447	20.739182
162.037130	-3.009600	3.849700	-11.585000	22.105369	0.000448	20.722528
163.039213	-3.002900	3.850400	-11.561000	22.100175	0.000446	20.724914
164.037065	-2.986500	3.849700	-11.496000	22.119886	0.000449	20.717621
165.035371	-2.998000	3.851200	-11.545000	22.130370	0.000447	20.729540
166.040592	-2.980800	3.850000	-11.475000	22.129488	0.000449	20.718225
167.044031	-3.003600	3.849900	-11.563000	22.114299	0.000450	20.724356
168.042596	-2.999100	3.848600	-11.541000	22.127837	0.000449	20.693812
169.040839	-3.015400	3.849500	-11.607000	22.137113	0.000449	20.728230
170.043309	-2.992700	3.849000	-11.517000	22.146233	0.000450	20.714127
171.039626	-3.004400	3.848500	-11.562000	22.164964	0.000450	20.710120
172.045835	-3.002800	3.848600	-11.556000	22.177032	0.000451	20.727894
173.039871	-3.012300	3.848500	-11.592000	22.159631	0.000451	20.703832
174.042245	-2.993400	3.847700	-11.517000	22.176100	0.000451	20.690448
175.040709	-2.988600	3.849100	-11.501000	22.171037	0.000450	20.721417
176.044057	-2.993600	3.847100	-11.516000	22.172442	0.000452	20.711443
177.045440	-2.992600	3.848800	-11.516000	22.188763	0.000452	20.714508
178.045200	-3.017400	3.847200	-11.608000	22.187653	0.000450	20.714344
179.051597	-3.015600	3.847900	-11.604000	22.211854	0.000451	20.700642
180.045626	-2.994200	3.847100	-11.518000	22.216858	0.000453	20.703756
181.044022	-2.995900	3.847100	-11.524000	22.221079	0.000453	20.707983
182.050009	-2.997200	3.846300	-11.527000	22.208954	0.000452	20.691100
183.050695	-3.014100	3.846600	-11.593000	22.235171	0.000452	20.698384
184.042794	-3.005500	3.847300	-11.563000	22.247753	0.000452	20.683005
185.046189	-3.008200	3.846500	-11.570000	22.282036	0.000454	20.706428
186.056106	-2.991400	3.846800	-11.506000	22.271536	0.000453	20.692121
187.044091	-2.997800	3.846600	-11.531000	22.297728	0.000452	20.710761
188.057064	-3.002200	3.845600	-11.545000	22.286681	0.000455	20.676464
189.049179	-2.983500	3.845900	-11.473000	22.304137	0.000454	20.692047
190.050014	-3.016800	3.845200	-11.599000	22.301818	0.000454	20.705373
191.053097	-2.986200	3.846300	-11.484000	22.332270	0.000456	20.709788
192.048048	-3.006100	3.844900	-11.557000	22.322294	0.000456	20.674665
193.050435	-3.017100	3.844200	-11.597000	22.332948	0.000456	20.698137
194.055212	-3.009500	3.844700	-11.569000	22.341112	0.000459	20.682603
195.050773	-2.986200	3.844700	-11.480000	22.349439	0.000458	20.717972
196.048613	-3.000200	3.844100	-11.531000	22.360918	0.000459	20.693902
197.051510	-3.015700	3.844400	-11.592000	22.366445	0.000457	20.698489
198.052382	-3.010100	3.843300	-11.568000	22.342916	0.000459	20.686781
199.060859	-3.011300	3.843500	-11.572000	22.354126	0.000457	20.690894
200.052702	-2.987800	3.842200	-11.479000	22.349734	0.000456	20.685547
201.053736	-2.980300	3.844900	-11.458000	22.352844	0.000457	20.688662
202.053828	-3.004300	3.842700	-11.544000	22.394856	0.000458	20.675254
203.052567	-3.000700	3.841800	-11.527000	22.404701	0.000459	20.679424
204.064907	-2.988000	3.842200	-11.480000	22.375981	0.000458	20.673897
205.054279	-2.995200	3.843000	-11.509000	22.385076	0.000460	20.669728
206.053113	-3.005800	3.841100	-11.545000	22.413862	0.000460	20.662043
207.054800	-2.993900	3.842200	-11.503000	22.426834	0.000458	20.679777
208.056193	-3.010700	3.840300	-11.561000	22.410801	0.000460	20.664194
209.056244	-3.004700	3.841400	-11.541000	22.457324	0.000461	20.681388
210.059846	-3.012800	3.840800	-11.570000	22.455227	0.000460	20.684503
211.053743	-2.986100	3.841900	-11.472000	22.452982	0.000460	20.677039
212.056859	-3.028500	3.840500	-11.630000	22.454493	0.000460	20.663852
213.059663	-2.995000	3.840300	-11.501000	22.446608	0.000462	20.665438
214.057581	-2.988600	3.841900	-11.481000	22.482992	0.000462	20.685282
215.052790	-2.998600	3.841000	-11.517000	22.498902	0.000462	20.671343
216.054990	-2.998100	3.841000	-11.515000	22.466928	0.000462	20.676306
217.056950	-2.996800	3.840800	-11.509000	22.491148	0.000463	20.673535
218.052735	-2.993700	3.840200	-11.495000	22.488798	0.000464	20.656006
219.057379	-3.014100	3.840200	-11.574000	22.516887	0.000462	20.669440
220.062707	-3.000800	3.840200	-11.522000	22.506382	0.000465	20.660815
221.056779	-2.978900	3.842100	-11.445000	22.530969	0.000465	20.667896
222.056821	-2.992600	3.838900	-11.488000	22.537900	0.000464	20.644489
223.062022	-3.008400	3.838500	-11.547000	22.539337	0.000463	20.653990
224.053988	-2.972200	3.840200	-11.414000	22.523911	0.000466	20.651342
225.056638	-3.009200	3.837700	-11.547000	22.495080	0.000465	20.645702
226.054558	-3.006200	3.838900	-11.540000	22.564488	0.000467	20.664957
227.054535	-2.999300	3.838000	-11.510000	22.567852	0.000468	20.658842
228.057072	-3.005300	3.837500	-11.531000	22.568123	0.000467	20.655319
229.054766	-2.991300	3.837000	-11.477000	22.577910	0.000465	20.673185
230.057043	-3.020300	3.836600	-11.586000	22.593085	0.000469	20.645232
231.059120	-3.004200	3.837800	-11.528000	22.601639	0.000465	20.641945
232.061277	-3.019800	3.837600	-11.587000	22.606824	0.000466	20.636706
233.061059	-2.997100	3.836900	-11.499000	22.597577	0.000466	20.644989
234.057568	-3.004600	3.837000	-11.528000	22.617681	0.000467	20.637150
235.057389	-2.985100	3.837200	-11.453000	22.626024	0.000468	20.636971
236.060723	-3.014700	3.836100	-11.564000	22.623577	0.000470	20.630251
237.057288	-3.012900	3.835600	-11.555000	22.622582	0.000467	20.640636
238.063278	-2.988300	3.836400	-11.463000	22.649852	0.000470	20.634758
239.062009	-2.965900	3.837300	-11.380000	22.654930	0.000469	20.631783
240.057975	-3.006300	3.837200	-11.534000	22.670675	0.000468	20.635227
241.062032	-3.008000	3.836400	-11.539000	22.674039	0.000470	20.658988
242.066067	-3.020800	3.834600	-11.583000	22.672334	0.000470	20.625982
243.058795	-2.981200	3.836500	-11.436000	22.672009	0.000469	20.611429
244.057328	-3.026800	3.835200	-11.607000	22.660070	0.000470	20.627922
245.061141	-3.013100	3.834800	-11.554000	22.637471	0.000471	20.631840
246.060475	-3.021000	3.833300	-11.579000	22.653511	0.000471	20.646011
247.060837	-3.019900	3.834800	-11.580000	22.663078	0.000472	20.631884
248.062109	-3.012400	3.832600	-11.544000	22.709984	0.000470	20.621019
249.060065	-2.993000	3.833800	-11.474000	22.727940	0.000472	20.640431
250.062953	-3.018000	3.833100	-11.567000	22.701858	0.000473	20.616198
251.057056	-3.006300	3.833600	-11.524000	22.711065	0.000475	20.605030
252.060742	-3.006500	3.833000	-11.523000	22.747140	0.000473	20.609398
253.059317	-3.009300	3.832700	-11.533000	22.764549	0.000474	20.625891
254.057081	-3.002000	3.832300	-11.504000	22.779215	0.000473	20.634895
255.058619	-2.995800	3.833100	-11.482000	22.745830	0.000473	20.646498
256.056723	-3.012200	3.832400	-11.543000	22.733827	0.000474	20.618350
257.062850	-3.007900	3.831400	-11.524000	22.727463	0.000474	20.624303
258.058438	-3.014000	3.831300	-11.547000	22.749981	0.000475	20.650657
259.065914	-3.001200	3.832600	-11.501000	22.737203	0.000477	20.644968
260.059314	-3.009400	3.831500	-11.528000	22.757379	0.000476	20.610172
261.062297	-3.022200	3.831000	-11.577000	22.757519	0.000475	20.625488
262.065331	-3.003300	3.832400	-11.509000	22.760361	0.000475	20.624067
263.061076	-2.993500	3.830900	-11.467000	22.764761	0.000474	20.618991
264.073262	-2.990600	3.831200	-11.457000	22.777290	0.000478	20.629647
265.068913	-2.979900	3.830100	-11.412000	22.777684	0.000478	20.618659
266.065320	-3.001200	3.830000	-11.493000	22.776486	0.000477	20.612243
267.063617	-2.989800	3.830700	-11.452000	22.793437	0.000478	20.619742
268.069214	-2.988500	3.829900	-11.445000	22.829338	0.000476	20.618722
269.063539	-2.967300	3.830700	-11.366000	22.848982	0.000479	20.629394
270.065938	-2.977900	3.829700	-11.404000	22.855855	0.000480	20.617785
271.063989	-2.986000	3.829300	-11.434000	22.859488	0.000479	20.601034
272.063775	-2.993400	3.828900	-11.461000	22.871968	0.000479	20.622548
273.064221	-2.992700	3.829000	-11.458000	22.872948	0.000481	20.609778
274.069130	-2.987500	3.829500	-11.439000	22.869891	0.000479	20.597704
275.070367	-3.016700	3.828100	-11.546000	22.873997	0.000480	20.619365
276.064754	-3.002100	3.828300	-11.492000	22.888058	0.000480	20.623021
277.070154	-2.993100	3.828600	-11.458000	22.878073	0.000480	20.622027
278.067142	-2.988600	3.828700	-11.442000	22.909646	0.000481	20.602920
279.067145	-2.981000	3.829000	-11.413000	22.905780	0.000482	20.611850
280.069810	-2.999100	3.828300	-11.481000	22.900030	0.000484	20.641182
281.070117	-3.016500	3.827700	-11.546000	22.895609	0.000481	20.609246
282.066654	-2.988100	3.828200	-11.438000	22.898173	0.000481	20.617033
283.067048	-2.981000	3.828800	-11.412000	22.892210	0.000483	20.625284
284.068955	-3.006600	3.827600	-11.507000	22.907978	0.000483	20.619269
285.070233	-3.010200	3.826900	-11.519000	22.913022	0.000483	20.620055
286.069400	-3.015400	3.827800	-11.542000	22.911074	0.000484	20.613361
287.075528	-2.995000	3.827500	-11.463000	22.876967	0.000486	20.602897
288.074203	-3.007900	3.824700	-11.503000	22.878600	0.000484	20.615916
289.075548	-2.998800	3.825100	-11.470000	22.898326	0.000484	20.602484
290.074202	-3.007600	3.825700	-11.505000	22.923296	0.000483	20.613279
291.084637	-3.017200	3.825400	-11.541000	22.958516	0.000485	20.616323
292.082893	-2.986400	3.825500	-11.423000	22.989687	0.000483	20.613413
293.077493	-2.992800	3.825300	-11.447000	22.980103	0.000485	20.614243
294.076595	-3.004700	3.825500	-11.494000	23.005154	0.000487	20.626542
295.074729	-2.999300	3.824500	-11.470000	23.013364	0.000486	20.619594
296.076025	-3.011400	3.823500	-11.512000	23.012592	0.000485	20.623088
297.078677	-2.988500	3.824800	-11.429000	22.983972	0.000486	20.611480
298.072944	-2.985500	3.824800	-11.418000	22.976165	0.000484	20.610297
299.073653	-3.027100	3.821800	-11.568000	22.973998	0.000488	20.604805
300.077366	-3.017500	3.824100	-11.539000	22.967830	0.000488	20.606212
301.084869	-2.994800	3.822400	-11.446000	23.020217	0.000485	20.612234
302.071801	-2.993300	3.822600	-11.441000	23.004897	0.000486	20.597356
303.076423	-2.999000	3.823000	-11.464000	23.013907	0.000488	20.622509
304.079627	-3.023400	3.822300	-11.555000	23.054656	0.000488	20.599798
305.075715	-2.975100	3.824300	-11.377000	23.069320	0.000489	20.629194
306.075089	-2.988600	3.823400	-11.425000	23.065504	0.000489	20.606876
307.082273	-2.996500	3.821700	-11.451000	23.086778	0.000489	20.600690
308.080725	-2.999700	3.822100	-11.464000	23.071703	0.000491	20.599809
309.078341	-3.003800	3.821200	-11.477000	23.108992	0.000488	20.617736
310.086222	-3.005900	3.821200	-11.485000	23.102981	0.000490	20.605547
311.080325	-2.982500	3.822200	-11.398000	23.106214	0.000490	20.607839
312.082414	-2.992900	3.822200	-11.439000	23.109433	0.000492	20.601580
313.076616	-3.003200	3.821500	-11.476000	23.093119	0.000491	20.610365
314.078518	-3.006800	3.820800	-11.487000	23.072571	0.000490	20.613483
315.077117	-2.989700	3.821200	-11.423000	23.062735	0.000490	20.624492
316.078570	-2.980500	3.821600	-11.389000	23.080335	0.000491	20.597079
317.077720	-3.004000	3.819300	-11.472000	23.083774	0.000492	20.611432
318.083010	-2.996900	3.819000	-11.444000	23.121878	0.000493	20.627804
319.081558	-2.990700	3.820200	-11.424000	23.133653	0.000492	20.604039
320.082935	-3.010900	3.817800	-11.494000	23.110071	0.000490	20.617869
321.078966	-3.006600	3.818300	-11.479000	23.140227	0.000494	20.614896
322.080088	-3.008600	3.818200	-11.486000	23.143168	0.000491	20.605513
323.083549	-3.008500	3.819100	-11.489000	23.150987	0.000492	20.619989
324.080441	-2.999900	3.819100	-11.456000	23.155494	0.000490	20.601743
325.081589	-3.014500	3.818200	-11.508000	23.161152	0.000494	20.608836
326.091010	-3.000400	3.818300	-11.455000	23.190141	0.000494	20.604220
327.082935	-3.006200	3.816700	-11.473000	23.184990	0.000493	20.614707
328.085143	-2.993800	3.817500	-11.428000	23.195321	0.000493	20.626009
329.084845	-3.014700	3.817000	-11.506000	23.204388	0.000493	20.607592
330.097252	-3.008300	3.816800	-11.482000	23.194920	0.000494	20.594309
331.085499	-3.018100	3.815600	-11.514000	23.218255	0.000494	20.617223
332.082762	-3.009800	3.818100	-11.491000	23.217631	0.000495	20.603793
333.086006	-3.022400	3.815100	-11.530000	23.241195	0.000495	20.630256
334.083821	-3.017200	3.815800	-11.512000	23.214059	0.000495	20.618708
335.086795	-2.994600	3.815700	-11.425000	23.228224	0.000496	20.605875
336.083335	-3.020200	3.814600	-11.519000	23.224844	0.000494	20.608651
337.083226	-3.020500	3.814800	-11.522000	23.250861	0.000495	20.615286
338.087018	-2.998800	3.814900	-11.439000	23.221180	0.000495	20.609722
339.089532	-2.999700	3.814500	-11.440000	23.205523	0.000499	20.608729
340.089995	-2.993300	3.815700	-11.420000	23.190679	0.000498	20.598120
341.089385	-3.016300	3.812700	-11.500000	23.193099	0.000497	20.625679
342.091947	-2.995100	3.813200	-11.420000	23.210527	0.000497	20.621807
343.088540	-3.007600	3.814300	-11.471000	23.216454	0.000499	20.606407
344.088078	-3.024700	3.813600	-11.534000	23.232765	0.000498	20.596673
345.093674	-3.018500	3.811900	-11.505000	23.270416	0.000499	20.623504
346.088425	-3.011700	3.813700	-11.484000	23.287077	0.000499	20.618864
347.093491	-2.998200	3.812300	-11.429000	23.282961	0.000498	20.600986
348.092638	-3.004400	3.812400	-11.453000	23.274947	0.000498	20.627098
349.093534	-2.980900	3.813200	-11.366000	23.291043	0.000498	20.606242
350.093054	-3.018500	3.811000	-11.502000	23.312787	0.000499	20.616181
351.093067	-2.986600	3.812700	-11.387000	23.326185	0.000500	20.622024
352.096866	-3.007000	3.810900	-11.459000	23.306067	0.000501	20.609445
353.092803	-2.991800	3.812500	-11.405000	23.324050	0.000501	20.612770
354.096347	-2.996800	3.811300	-11.421000	23.315008	0.000500	20.628840
355.094500	-2.982300	3.811100	-11.366000	23.331513	0.000501	20.609343
356.095894	-2.994700	3.810700	-11.411000	23.351013	0.000499	20.624622
357.094945	-2.988500	3.811700	-11.390000	23.325705	0.000502	20.612057
358.095677	-3.007100	3.809900	-11.456000	23.313931	0.000502	20.604524
359.097790	-3.004900	3.809500	-11.446000	23.311025	0.000502	20.622477
360.096705	-2.993900	3.810600	-11.408000	23.350702	0.000500	20.609609
361.100177	-3.015400	3.808300	-11.482000	23.349591	0.000501	20.628887
362.100717	-3.008300	3.809300	-11.458000	23.343388	0.000500	20.606071
363.102168	-3.022400	3.809500	-11.513000	23.339184	0.000501	20.633631
364.097082	-2.995300	3.809400	-11.410000	23.341521	0.000500	20.613684
365.103626	-3.018700	3.808300	-11.495000	23.336396	0.000503	20.628939
366.097718	-2.994400	3.809100	-11.405000	23.368293	0.000504	20.630562
367.103026	-2.977400	3.809700	-11.342000	23.366250	0.000504	20.602906
368.106819	-2.972800	3.808700	-11.321000	23.398498	0.000502	20.637604
369.105889	-3.002200	3.808500	-11.433000	23.404268	0.000504	20.638172
370.103616	-2.989900	3.807400	-11.383000	23.382328	0.000503	20.603374
371.110223	-2.989000	3.807800	-11.380000	23.370511	0.000504	20.616662
372.101318	-2.975100	3.807000	-11.326000	23.406241	0.000504	20.636356
373.104584	-2.956600	3.808000	-11.258000	23.410797	0.000504	20.622902
374.104245	-3.001100	3.805700	-11.420000	23.400991	0.000505	20.622556
375.102639	-2.999300	3.805800	-11.413000	23.406190	0.000504	20.639150
376.107974	-2.993100	3.805800	-11.390000	23.423022	0.000505	20.623301
377.107565	-3.009400	3.806000	-11.452000	23.454604	0.000503	20.636467
378.105237	-3.008600	3.804600	-11.445000	23.447296	0.000507	20.618233
379.113930	-2.993200	3.804900	-11.388000	23.458391	0.000505	20.635995
380.107038	-2.985000	3.805100	-11.357000	23.468477	0.000508	20.617179
381.104715	-2.996100	3.803200	-11.393000	23.471516	0.000508	20.622123
382.104210	-2.985200	3.803400	-11.353000	23.476584	0.000504	20.617244
383.118760	-2.985600	3.804700	-11.358000	23.501710	0.000508	20.608763
384.105251	-2.983900	3.804800	-11.352000	23.499243	0.000507	20.629528
385.107824	-3.002100	3.805000	-11.421000	23.491890	0.000508	20.608878
386.106165	-2.990200	3.803200	-11.372000	23.489312	0.000507	20.622417
387.107626	-3.002300	3.802500	-11.415000	23.495750	0.000508	20.614170
388.108290	-2.993000	3.803600	-11.383000	23.509742	0.000506	20.633888
389.106738	-2.998100	3.803000	-11.401000	23.525796	0.000508	20.604458
390.107786	-2.982000	3.803500	-11.341000	23.550145	0.000508	20.634561
391.107734	-3.007800	3.802900	-11.437000	23.556885	0.000510	20.639895
392.111134	-3.010500	3.803000	-11.447000	23.531983	0.000508	20.627258
393.106913	-3.007800	3.802200	-11.435000	23.552367	0.000510	20.647221
394.115098	-3.008900	3.801400	-11.436000	23.542250	0.000510	20.630912
395.105597	-2.989200	3.800900	-11.360000	23.548381	0.000507	20.646544
396.111287	-2.983800	3.802200	-11.344000	23.569252	0.000510	20.629057
397.114116	-2.999300	3.800700	-11.398000	23.572521	0.000509	20.631386
398.108022	-2.992700	3.800500	-11.373000	23.588453	0.000512	20.619380
399.111810	-3.001800	3.801400	-11.410000	23.557305	0.000509	20.633676
400.113932	-3.001000	3.800200	-11.403000	23.566737	0.000509	20.635545
401.107985	-3.009100	3.799100	-11.431000	23.553451	0.000512	20.635503
402.109277	-3.008300	3.799400	-11.429000	23.564667	0.000510	20.637738
403.114127	-3.000500	3.799000	-11.398000	23.579702	0.000510	20.633369
404.109902	-3.024100	3.798400	-11.484000	23.611788	0.000512	20.638509
405.113539	-2.999000	3.799200	-11.393000	23.593109	0.000511	20.621203
406.113428	-2.974800	3.798700	-11.300000	23.664948	0.000510	20.628264
407.114801	-2.987300	3.797200	-11.342000	23.665477	0.000513	20.631166
408.114438	-3.000300	3.797800	-11.394000	23.680111	0.000513	20.614540
409.115180	-2.974300	3.799700	-11.300000	23.661043	0.000512	20.669399
410.111800	-2.992700	3.797600	-11.364000	23.639976	0.000512	20.649224
411.110724	-2.988300	3.797000	-11.346000	23.628851	0.000512	20.638070
412.115375	-2.998900	3.797600	-11.388000	23.639388	0.000511	20.646264
413.118909	-3.011100	3.796600	-11.431000	23.690523	0.000515	20.657701
414.111518	-2.985600	3.797400	-11.337000	23.685961	0.000513	20.641746
415.119681	-3.011400	3.795700	-11.430000	23.681179	0.000513	20.623673
416.114602	-2.992500	3.796900	-11.361000	23.713833	0.000515	20.652621
417.113181	-2.998700	3.796100	-11.382000	23.723372	0.000514	20.653650
418.112716	-3.002800	3.795400	-11.396000	23.714192	0.000514	20.636383
419.121110	-3.008600	3.794200	-11.414000	23.702595	0.000515	20.631868
420.113064	-3.010800	3.793600	-11.421000	23.695341	0.000514	20.644038
421.118301	-2.990400	3.795600	-11.349000	23.717649	0.000515	20.648386
422.118886	-3.004700	3.793500	-11.397000	23.702672	0.000515	20.658502
423.116425	-2.991200	3.795300	-11.352000	23.747573	0.000516	20.650412
424.115706	-3.001300	3.794900	-11.389000	23.753001	0.000516	20.645897
425.121067	-3.007300	3.793000	-11.406000	23.743421	0.000515	20.643404
426.117675	-3.025600	3.793000	-11.475000	23.757992	0.000515	20.646160
427.114081	-3.009400	3.792500	-11.412000	23.743864	0.000514	20.651435
428.120942	-3.012900	3.793100	-11.426000	23.750276	0.000515	20.653598
429.117607	-3.016700	3.793000	-11.442000	23.756032	0.000516	20.681656
430.120704	-3.011700	3.792300	-11.420000	23.765622	0.000517	20.649069
431.115951	-3.003800	3.792800	-11.392000	23.755420	0.000516	20.642633
432.116971	-3.006200	3.793000	-11.402000	23.760755	0.000516	20.655569
433.119895	-2.987100	3.792700	-11.329000	23.763262	0.000518	20.650496
434.115737	-2.997400	3.792400	-11.366000	23.802378	0.000518	20.662216
435.118933	-2.984300	3.792000	-11.316000	23.809166	0.000516	20.649580
436.113795	-3.010100	3.791600	-11.412000	23.797535	0.000519	20.653091
437.118438	-3.002400	3.791400	-11.383000	23.769947	0.000518	20.654828
438.116847	-2.995800	3.790800	-11.355000	23.757735	0.000517	20.672932
439.119163	-3.013000	3.789500	-11.417000	23.792352	0.000519	20.662594
440.117505	-2.995400	3.789200	-11.349000	23.799807	0.000518	20.675761
441.119643	-3.021400	3.788700	-11.446000	23.759426	0.000521	20.671783
442.114771	-2.986900	3.791300	-11.324000	23.750184	0.000518	20.683854
443.117292	-2.979400	3.790200	-11.292000	23.731073	0.000519	20.649042
444.118646	-2.996600	3.788800	-11.353000	23.765096	0.000518	20.643324
445.114674	-2.977400	3.790300	-11.285000	23.795070	0.000517	20.647774
446.117450	-3.037600	3.787300	-11.503000	23.827891	0.000520	20.662192
447.117397	-3.013600	3.789600	-11.419000	23.855183	0.000519	20.672964
448.117470	-2.991800	3.788100	-11.333000	23.883409	0.000519	20.666178
449.118171	-3.001100	3.787200	-11.366000	23.885419	0.000520	20.660607
450.119071	-3.013300	3.786600	-11.409000	23.843223	0.000520	20.693216
451.123259	-3.023800	3.784900	-11.443000	23.823651	0.000519	20.661734
452.121270	-2.991000	3.786700	-11.325000	23.844493	0.000520	20.685480
453.119931	-2.986400	3.786500	-11.307000	23.871141	0.000520	20.664308
454.128998	-2.981900	3.785900	-11.288000	23.886162	0.000522	20.683640
455.117908	-2.994500	3.786300	-11.337000	23.911647	0.000520	20.672684
456.126952	-2.997700	3.785800	-11.348000	23.924690	0.000521	20.666322
457.125184	-2.985100	3.786900	-11.303000	23.918748	0.000521	20.693083
458.123563	-3.005000	3.786300	-11.376000	23.901688	0.000521	20.694467
459.117558	-3.021600	3.784400	-11.434000	23.865337	0.000522	20.686466
460.121766	-3.018700	3.784500	-11.424000	23.914428	0.000523	20.691595
461.125463	-2.981400	3.785900	-11.286000	23.932261	0.000522	20.694779
462.122543	-2.972200	3.785100	-11.248000	23.952277	0.000525	20.677865
463.136528	-2.992700	3.784500	-11.324000	23.944395	0.000522	20.668538
464.124102	-2.999900	3.784300	-11.352000	23.955135	0.000522	20.694958
465.124853	-2.995800	3.783300	-11.332000	23.969706	0.000522	20.680171
466.131042	-3.014900	3.783300	-11.406000	23.960563	0.000522	20.695660
467.126493	-3.004100	3.782900	-11.364000	23.965438	0.000522	20.674467
468.124046	-3.014800	3.782400	-11.402000	23.981281	0.000524	20.681347
469.133583	-3.006100	3.782300	-11.369000	24.024207	0.000522	20.674608
470.126575	-3.001700	3.780800	-11.348000	23.998892	0.000525	20.690474
471.125678	-2.987100	3.783000	-11.299000	24.035746	0.000522	20.693769
472.128662	-3.007100	3.781200	-11.369000	24.011026	0.000524	20.682253
473.127102	-2.985400	3.781500	-11.288000	24.020093	0.000522	20.700830
474.129241	-3.006100	3.781000	-11.365000	24.020601	0.000525	20.709401
475.127162	-2.997700	3.781000	-11.333000	24.049258	0.000524	20.698785
476.131372	-2.992200	3.779800	-11.309000	24.026853	0.000524	20.690065
477.130882	-3.000700	3.780000	-11.341000	24.013625	0.000524	20.692447
478.128203	-2.987200	3.779700	-11.290000	23.984722	0.000524	20.686220
479.128540	-2.995500	3.779600	-11.321000	23.987910	0.000523	20.694160
480.130229	-2.998700	3.779100	-11.332000	23.943910	0.000522	20.716420
481.129014	-2.984300	3.779500	-11.278000	23.964204	0.000523	20.705950
482.128539	-3.004500	3.777700	-11.349000	23.967125	0.000524	20.708405
483.129630	-3.003600	3.779700	-11.352000	23.972556	0.000523	20.694884
484.129986	-3.010300	3.778700	-11.375000	23.981259	0.000525	20.710725
485.131576	-2.997700	3.779500	-11.329000	23.990507	0.000525	20.681116
486.130834	-2.993400	3.778800	-11.311000	24.007261	0.000525	20.705506
487.135993	-3.008400	3.778100	-11.365000	24.012170	0.000526	20.718017
488.132255	-2.993200	3.779000	-11.311000	23.998383	0.000523	20.703715
489.133759	-2.996700	3.777500	-11.319000	24.023891	0.000525	20.704639
490.131359	-3.024200	3.774900	-11.415000	24.033503	0.000525	20.718548
491.129757	-3.012100	3.776900	-11.374000	24.035708	0.000523	20.716966
492.129531	-3.009200	3.775800	-11.360000	24.105861	0.000526	20.724735
493.133286	-3.032900	3.775400	-11.449000	24.079469	0.000526	20.721499
494.131912	-3.017300	3.776600	-11.394000	24.114368	0.000525	20.741328
495.137987	-3.018100	3.775100	-11.393000	24.104051	0.000525	20.700633
496.135235	-3.001900	3.775800	-11.334000	24.103287	0.000527	20.732585
497.134580	-2.994700	3.775300	-11.305000	24.107564	0.000525	20.702733
498.134357	-3.008800	3.773900	-11.354000	24.089282	0.000526	20.738454
499.137529	-2.978800	3.775200	-11.245000	24.106167	0.000526	20.728361
500.141423	-3.024200	3.773800	-11.411000	24.115064	0.000525	20.742026
501.135657	-2.988600	3.774700	-11.281000	24.097801	0.000526	20.742257
502.133924	-2.998000	3.773700	-11.313000	24.139766	0.000527	20.723179
503.139480	-2.998100	3.773800	-11.313000	24.150918	0.000526	20.726303
504.134037	-3.004500	3.773500	-11.336000	24.144807	0.000526	20.723493
505.137592	-2.991400	3.772300	-11.284000	24.168056	0.000526	20.716465
506.147905	-3.007000	3.772800	-11.344000	24.167291	0.000527	20.710956
507.133963	-2.984600	3.773700	-11.262000	24.160781	0.000527	20.727661
508.141148	-2.994600	3.772300	-11.296000	24.153871	0.000528	20.729265
509.141834	-3.001100	3.773000	-11.322000	24.154549	0.000525	20.707659
510.143508	-2.999800	3.771900	-11.314000	24.172452	0.000528	20.729883
511.140018	-2.984800	3.772000	-11.257000	24.177082	0.000528	20.723147
512.136900	-3.010300	3.770100	-11.349000	24.205700	0.000528	20.748534
513.135458	-3.000800	3.771000	-11.315000	24.236426	0.000527	20.747585
514.136477	-2.997000	3.770700	-11.299000	24.211516	0.000529	20.734927
515.138046	-2.996400	3.771600	-11.300000	24.223552	0.000528	20.753165
516.139111	-2.978900	3.770600	-11.232000	24.240060	0.000527	20.739850
517.142210	-2.967100	3.771100	-11.188000	24.230933	0.000530	20.736385
518.137360	-2.973900	3.770900	-11.213000	24.230725	0.000529	20.755143
519.142078	-3.016100	3.768800	-11.366000	24.223683	0.000526	20.762779
520.137654	-2.986200	3.769700	-11.256000	24.232481	0.000527	20.763543
521.140921	-3.014200	3.769400	-11.360000	24.216530	0.000527	20.738060
522.141503	-2.988400	3.770000	-11.265000	24.248661	0.000528	20.743737
523.143313	-3.005500	3.770500	-11.331000	24.232406	0.000529	20.735492
524.138754	-2.995100	3.769200	-11.289000	24.238030	0.000529	20.739711
525.142586	-3.005100	3.768300	-11.323000	24.243060	0.000526	20.754714
526.140123	-3.014900	3.767100	-11.356000	24.262937	0.000527	20.751893
527.141897	-3.007300	3.768100	-11.331000	24.251845	0.000528	20.736972
528.142538	-3.004500	3.768100	-11.320000	24.250402	0.000529	20.747854
529.138187	-3.022100	3.766900	-11.383000	24.263927	0.000528	20.753360
530.142929	-3.040300	3.765200	-11.446000	24.270969	0.000530	20.742405
531.143713	-3.004500	3.767300	-11.318000	24.267466	0.000530	20.746478
532.140675	-3.022100	3.766500	-11.382000	24.254303	0.000532	20.762199
533.139078	-3.005200	3.765600	-11.315000	24.226109	0.000530	20.740555
534.142880	-3.002300	3.765500	-11.305000	24.260446	0.000530	20.754610
535.140501	-2.995100	3.766600	-11.280000	24.246108	0.000529	20.781480
536.139737	-3.004200	3.765200	-11.311000	24.226957	0.000529	20.748044
537.144855	-3.001400	3.765800	-11.302000	24.236508	0.000529	20.759996
538.145176	-2.993900	3.763700	-11.267000	24.274227	0.000531	20.774124
539.142089	-3.010900	3.764300	-11.332000	24.278638	0.000531	20.751521
540.142772	-2.988700	3.763300	-11.246000	24.303726	0.000529	20.753453
541.145126	-3.005300	3.764200	-11.312000	24.310527	0.000529	20.776397
542.139647	-2.991500	3.765400	-11.263000	24.335287	0.000530	20.746706
543.150668	-3.006500	3.763400	-11.313000	24.305776	0.000531	20.739387
544.145681	-3.013300	3.763500	-11.340000	24.324537	0.000530	20.756311
545.145886	-2.999500	3.763400	-11.286000	24.352751	0.000530	20.759959
546.142519	-3.006000	3.763500	-11.312000	24.323143	0.000528	20.741162
547.145891	-2.997700	3.761800	-11.275000	24.324440	0.000530	20.755266
548.144823	-2.996500	3.762700	-11.274000	24.360872	0.000530	20.753407
549.141886	-3.020100	3.760500	-11.356000	24.383098	0.000529	20.743934
550.144797	-3.015700	3.761800	-11.344000	24.375779	0.000529	20.769783
551.144004	-2.993300	3.760800	-11.256000	24.402574	0.000529	20.735022
552.150594	-3.013300	3.761200	-11.333000	24.359393	0.000531	20.729636
553.145530	-3.011300	3.761400	-11.326000	24.365186	0.000530	20.759631
554.149694	-3.008500	3.760600	-11.313000	24.348462	0.000529	20.747595
555.151411	-2.989200	3.761100	-11.242000	24.329834	0.000529	20.755935
556.144828	-2.999900	3.760600	-11.281000	24.333966	0.000529	20.761029
557.148181	-2.998800	3.759400	-11.273000	24.324367	0.000531	20.765624
558.152975	-2.990100	3.760500	-11.243000	24.356351	0.000529	20.753138
559.149872	-3.003900	3.759100	-11.291000	24.349491	0.000530	20.741040
560.145607	-2.990100	3.759700	-11.241000	24.321906	0.000532	20.751302
561.152253	-2.967400	3.759900	-11.156000	24.332062	0.000530	20.732091
562.146732	-3.007100	3.759300	-11.304000	24.376287	0.000529	20.746110
563.148746	-2.982000	3.759400	-11.210000	24.404329	0.000530	20.749587
564.159223	-3.016200	3.756700	-11.330000	24.407492	0.000529	20.743276
565.150212	-2.978400	3.758500	-11.193000	24.415114	0.000529	20.733378
566.156342	-3.002500	3.757100	-11.281000	24.395590	0.000529	20.741767
567.152827	-2.978200	3.758100	-11.191000	24.383204	0.000529	20.762059
568.158489	-3.004500	3.756800	-11.287000	24.391917	0.000527	20.739505
569.152673	-2.986600	3.757300	-11.221000	24.375688	0.000531	20.750252
570.153837	-2.989100	3.756300	-11.227000	24.424068	0.000528	20.729559
571.153835	-2.999700	3.755500	-11.263000	24.425351	0.000530	20.742701
572.156566	-3.005600	3.756900	-11.291000	24.440680	0.000529	20.755235
573.151202	-2.994600	3.756600	-11.248000	24.459366	0.000529	20.754067
574.153409	-3.015100	3.756100	-11.323000	24.479132	0.000530	20.756828
575.152847	-3.008700	3.755700	-11.298000	24.453755	0.000530	20.747489
576.152349	-2.984200	3.755600	-11.206000	24.446677	0.000531	20.742284
577.151988	-3.006900	3.755400	-11.290000	24.471458	0.000529	20.742016
578.155377	-3.003300	3.753800	-11.272000	24.460127	0.000531	20.739182
579.151513	-2.999000	3.754500	-11.258000	24.477308	0.000531	20.720384
580.150051	-3.007000	3.754700	-11.289000	24.485840	0.000531	20.735582
581.147585	-3.017100	3.752700	-11.321000	24.488008	0.000530	20.733490
582.153673	-2.984500	3.753400	-11.200000	24.485864	0.000531	20.736080
583.153047	-3.000300	3.753700	-11.261000	24.511093	0.000532	20.730098
584.153069	-2.982000	3.752800	-11.190000	24.545130	0.000531	20.724893
585.156912	-2.990900	3.753500	-11.225000	24.530456	0.000532	20.745733
586.152725	-2.994800	3.751600	-11.235000	24.497774	0.000532	20.734753
587.154551	-2.996700	3.752000	-11.243000	24.478808	0.000533	20.730424
588.159668	-2.995300	3.751700	-11.237000	24.492404	0.000532	20.725097
589.153665	-3.003400	3.752000	-11.267000	24.480710	0.000530	20.733280
590.158032	-3.036000	3.751600	-11.388000	24.497032	0.000532	20.725474
591.171820	-2.999000	3.751600	-11.251000	24.519293	0.000532	20.740222
592.161592	-3.021800	3.751200	-11.335000	24.466507	0.000532	20.726143
593.156603	-2.987200	3.750500	-11.202000	24.473815	0.000531	20.745330
594.163117	-3.003300	3.751400	-11.266000	24.455757	0.000531	20.732902
595.160948	-2.999900	3.750100	-11.250000	24.485823	0.000530	20.735091
596.160217	-3.008000	3.749600	-11.278000	24.517899	0.000534	20.734557
597.162098	-3.040700	3.749500	-11.400000	24.514918	0.000531	20.726349
598.159858	-3.002500	3.750700	-11.261000	24.526587	0.000533	20.702494
599.159375	-3.011100	3.749400	-11.289000	24.559692	0.000531	20.744246
600.160212	-3.008600	3.750900	-11.284000	24.500038	0.000532	20.727541
601.163894	-3.017200	3.748300	-11.309000	24.523522	0.000534	20.727395
602.157895	-2.998500	3.749400	-11.241000	24.513330	0.000531	20.724282
603.162257	-3.012300	3.748000	-11.289000	24.551004	0.000533	20.722252
604.161998	-3.006000	3.748300	-11.266000	24.527910	0.000530	20.730849
605.162437	-2.984400	3.748500	-11.185000	24.539506	0.000534	20.737269
606.162583	-2.996500	3.747800	-11.230000	24.563426	0.000532	20.728077
607.164439	-2.982900	3.748300	-11.180000	24.559948	0.000532	20.726484
608.164541	-2.995300	3.746700	-11.221000	24.583624	0.000530	20.718946
609.161998	-3.004800	3.746400	-11.256000	24.607241	0.000532	20.726522
610.160919	-3.004200	3.745600	-11.252000	24.616425	0.000532	20.711554
611.160750	-3.002800	3.747300	-11.252000	24.589176	0.000533	20.736845
612.173429	-2.983900	3.745500	-11.176000	24.565099	0.000532	20.740189
613.160093	-2.981900	3.745800	-11.168000	24.579967	0.000532	20.717647
614.163953	-2.996900	3.746200	-11.226000	24.594338	0.000532	20.726852
615.171768	-3.001900	3.745200	-11.242000	24.612138	0.000531	20.729539
616.161307	-3.002500	3.744900	-11.243000	24.653128	0.000531	20.731788
617.164602	-3.012400	3.743700	-11.276000	24.626132	0.000531	20.721295
618.163919	-3.007200	3.743500	-11.257000	24.628677	0.000533	20.716736
619.160378	-2.998500	3.745200	-11.229000	24.646307	0.000530	20.719728
620.161989	-3.003600	3.744600	-11.246000	24.646040	0.000530	20.702863
621.167727	-3.009200	3.744500	-11.267000	24.645956	0.000529	20.734075
622.163145	-3.009700	3.743100	-11.265000	24.629380	0.000530	20.722183
623.164083	-2.986200	3.743700	-11.179000	24.628737	0.000530	20.731022
624.166511	-3.007600	3.742700	-11.256000	24.615980	0.000528	20.710634
625.167163	-3.003700	3.743500	-11.243000	24.586742	0.000530	20.727765
626.182887	-3.003500	3.742500	-11.239000	24.595539	0.000529	20.727583
627.169390	-2.990900	3.742100	-11.191000	24.584428	0.000528	20.731133
628.163263	-3.016300	3.742600	-11.288000	24.577472	0.000528	20.726524
629.168585	-3.000300	3.741900	-11.226000	24.555977	0.000528	20.729138
630.170770	-2.991700	3.741300	-11.192000	24.596714	0.000527	20.710743
631.164870	-3.008100	3.741500	-11.253000	24.619081	0.000532	20.713271
632.166037	-2.994100	3.742200	-11.203000	24.660372	0.000529	20.735739
633.167070	-3.018200	3.739800	-11.287000	24.646682	0.000527	20.728640
634.166402	-3.019800	3.740000	-11.293000	24.662905	0.000529	20.714572
635.163401	-3.007200	3.738300	-11.240000	24.638431	0.000528	20.714669
636.166589	-3.001200	3.740300	-11.224000	24.664530	0.000525	20.712883
637.164589	-3.008500	3.739200	-11.249000	24.679311	0.000528	20.733406
638.164172	-2.996300	3.738500	-11.201000	24.677942	0.000528	20.725868
639.164465	-3.010400	3.738700	-11.254000	24.673168	0.000528	20.733406
640.167695	-2.977900	3.740600	-11.138000	24.667462	0.000527	20.726732
641.171144	-2.991900	3.738100	-11.182000	24.712097	0.000529	20.734064
642.162003	-2.968800	3.738300	-11.098000	24.666312	0.000526	20.717990
643.168149	-3.007100	3.738200	-11.241000	24.643158	0.000530	20.703291
644.163995	-2.987600	3.738300	-11.167000	24.661297	0.000527	20.737141
645.165131	-3.006400	3.737600	-11.236000	24.670324	0.000526	20.726284
646.176153	-3.004800	3.737600	-11.230000	24.674952	0.000528	20.725238
647.166497	-2.986200	3.737900	-11.161000	24.649859	0.000526	20.723767
648.167213	-3.009700	3.736800	-11.244000	24.656863	0.000526	20.737908
649.167967	-3.020000	3.737100	-11.285000	24.673633	0.000526	20.719647
650.165706	-3.015700	3.736000	-11.266000	24.672289	0.000527	20.715453
651.166131	-3.014300	3.736200	-11.261000	24.669442	0.000526	20.708329
652.168593	-2.983900	3.735300	-11.145000	24.678553	0.000525	20.725058
653.164338	-3.002100	3.735500	-11.213000	24.707643	0.000525	20.722007
654.164974	-3.004300	3.735200	-11.220000	24.704846	0.000527	20.728683
655.164256	-2.978800	3.735000	-11.125000	24.703671	0.000526	20.716598
656.178319	-2.988400	3.735500	-11.163000	24.677294	0.000524	20.729960
657.173476	-3.016100	3.734800	-11.263000	24.697480	0.000524	20.728878
658.169765	-2.990400	3.734800	-11.167000	24.687594	0.000524	20.719432
659.168100	-2.989800	3.735200	-11.167000	24.664938	0.000524	20.723724
660.173451	-3.032900	3.733400	-11.322000	24.687678	0.000524	20.716671
661.167420	-3.019100	3.733400	-11.271000	24.664403	0.000527	20.733146
662.171406	-2.981000	3.734300	-11.132000	24.686722	0.000523	20.721876
663.172529	-2.982400	3.733400	-11.133000	24.671928	0.000523	20.706556
664.167414	-3.006800	3.733500	-11.224000	24.701659	0.000525	20.735444
665.171904	-2.984200	3.732900	-11.139000	24.741533	0.000525	20.718083
666.169190	-3.004300	3.731200	-11.209000	24.755926	0.000523	20.723992
667.168190	-2.995400	3.731900	-11.178000	24.816426	0.000526	20.710739
668.173196	-3.008200	3.730600	-11.222000	24.831048	0.000524	20.718776
669.172779	-2.977600	3.731900	-11.111000	24.825754	0.000526	20.707298
670.172047	-3.019300	3.731100	-11.264000	24.850116	0.000526	20.727482
671.173274	-2.987700	3.731200	-11.146000	24.830940	0.000524	20.721513
672.170026	-3.001500	3.730200	-11.196000	24.847367	0.000525	20.722352
673.173233	-3.014000	3.729300	-11.239000	24.860401	0.000521	20.725003
674.174841	-3.006000	3.730900	-11.215000	24.865574	0.000526	20.723082
675.174592	-3.017600	3.730100	-11.255000	24.831898	0.000525	20.716310
676.176302	-3.012500	3.730100	-11.235000	24.828045	0.000524	20.711021
677.174494	-2.996100	3.730300	-11.176000	24.795507	0.000523	20.722937
678.177268	-2.984600	3.730300	-11.132000	24.778499	0.000525	20.702547
679.178374	-2.993800	3.731400	-11.170000	24.747352	0.000525	20.707801
680.174256	-2.989100	3.730200	-11.149000	24.745522	0.000524	20.708335
681.172786	-3.010400	3.727700	-11.220000	24.806606	0.000525	20.710367
682.177260	-3.007300	3.727600	-11.209000	24.790917	0.000524	20.711692
683.174008	-3.000800	3.728700	-11.187000	24.787405	0.000523	20.730927
684.178917	-3.003700	3.728300	-11.197000	24.782196	0.000524	20.718588
685.177654	-3.020800	3.727500	-11.259000	24.742095	0.000523	20.710112
686.174683	-3.001200	3.728000	-11.188000	24.741139	0.000524	20.721481
687.175683	-2.985500	3.728100	-11.130000	24.744592	0.000521	20.705505
688.177197	-2.984200	3.728600	-11.126000	24.756998	0.000524	20.723646
689.178425	-2.996200	3.726200	-11.163000	24.732453	0.000523	20.723196
690.182019	-3.008600	3.726900	-11.212000	24.766243	0.000524	20.731501
691.180956	-3.018600	3.725800	-11.246000	24.765686	0.000522	20.714821
692.181598	-2.993400	3.727600	-11.158000	24.802855	0.000524	20.699963
693.179347	-2.974600	3.725900	-11.082000	24.834534	0.000522	20.735077
694.176637	-2.971000	3.725500	-11.067000	24.830646	0.000522	20.700827
695.179818	-3.017900	3.726000	-11.244000	24.852621	0.000521	20.711503
696.179174	-3.006500	3.725200	-11.199000	24.809072	0.000522	20.721851
697.178435	-2.995800	3.726200	-11.162000	24.799320	0.000521	20.715857
698.181321	-3.009700	3.723700	-11.206000	24.816523	0.000520	20.724114
699.178037	-3.006300	3.725700	-11.199000	24.817735	0.000521	20.705414
700.182829	-2.995500	3.724400	-11.155000	24.791992	0.000520	20.717987
701.176927	-2.991300	3.723700	-11.138000	24.794101	0.000521	20.705403
702.179784	-3.006600	3.723800	-11.195000	24.816487	0.000518	20.703688
703.174726	-3.012600	3.723000	-11.214000	24.832540	0.000519	20.697512
704.179213	-2.971300	3.724800	-11.067000	24.847936	0.000519	20.685937
705.180634	-3.020800	3.723300	-11.246000	24.879905	0.000518	20.713283
706.177785	-2.984100	3.722500	-11.108000	24.865309	0.000519	20.706219
707.179000	-3.004500	3.722500	-11.183000	24.864898	0.000518	20.711022
708.180719	-3.011700	3.722900	-11.211000	24.855800	0.000516	20.712797
709.179571	-3.003800	3.720700	-11.175000	24.880075	0.000519	20.710134
710.179183	-3.002300	3.722400	-11.175000	24.912648	0.000519	20.706790
711.186648	-2.994800	3.723100	-11.149000	24.888277	0.000518	20.705088
712.182239	-3.013200	3.721400	-11.212000	24.807937	0.000518	20.707909
713.183765	-2.979300	3.722900	-11.091000	24.823274	0.000520	20.717138
714.179190	-2.981100	3.721500	-11.093000	24.819967	0.000519	20.716190
715.179926	-2.984000	3.721500	-11.104000	24.839278	0.000516	20.712811
716.184495	-2.999200	3.721200	-11.159000	24.815969	0.000520	20.702693
717.183733	-3.025800	3.720300	-11.255000	24.861410	0.000516	20.695192
718.183886	-2.987800	3.721400	-11.118000	24.884305	0.000518	20.707741
719.185681	-3.010900	3.719500	-11.198000	24.911390	0.000514	20.711217
720.183585	-2.998700	3.719000	-11.151000	24.916211	0.000519	20.685234
721.184021	-3.016200	3.718900	-11.216000	24.922571	0.000516	20.697783
722.184151	-3.027500	3.718200	-11.256000	24.963295	0.000514	20.704519
723.184019	-2.998300	3.720700	-11.155000	24.992958	0.000515	20.703473
724.184329	-2.992000	3.719100	-11.127000	24.998773	0.000516	20.695084
725.181032	-3.011700	3.718600	-11.198000	25.000141	0.000516	20.688871
726.190650	-3.034300	3.717100	-11.277000	24.986515	0.000514	20.692263
727.185040	-3.015700	3.716100	-11.205000	24.987714	0.000515	20.706744
728.185922	-3.006400	3.718300	-11.177000	24.957456	0.000517	20.693916
729.187339	-3.025500	3.716800	-11.244000	24.963924	0.000514	20.684286
730.186843	-2.996600	3.717800	-11.140000	24.918646	0.000516	20.695740
731.183430	-2.995700	3.717500	-11.136000	24.918368	0.000514	20.690719
732.183328	-2.974100	3.717800	-11.056000	24.879557	0.000513	20.703449
733.193617	-2.983500	3.715700	-11.085000	24.916902	0.000515	20.673599
734.185901	-3.012100	3.716000	-11.193000	24.952333	0.000512	20.696834
735.185850	-3.000500	3.715300	-11.147000	25.006622	0.000513	20.700118
736.185170	-2.989100	3.716200	-11.107000	24.984747	0.000514	20.692385
737.186043	-2.988400	3.717000	-11.107000	24.923262	0.000514	20.704641
738.191237	-2.990600	3.714100	-11.107000	24.927865	0.000514	20.694561
739.188521	-3.016700	3.713700	-11.202000	24.920536	0.000513	20.701430
740.189350	-3.010000	3.712900	-11.175000	24.902584	0.000515	20.690049
741.191083	-2.995400	3.714800	-11.126000	24.864244	0.000512	20.691399
742.191020	-3.003500	3.714200	-11.156000	24.888411	0.000515	20.700482
743.185778	-3.004700	3.714200	-11.159000	24.950322	0.000513	20.692445
744.186623	-2.995700	3.713300	-11.124000	24.903904	0.000510	20.669561
745.199202	-2.988700	3.714900	-11.102000	24.916551	0.000514	20.691266
746.185930	-2.994700	3.712200	-11.116000	24.948845	0.000512	20.675314
747.189993	-2.995800	3.712500	-11.121000	24.967074	0.000514	20.700251
748.196002	-3.004900	3.712500	-11.155000	24.987036	0.000512	20.676663
749.192466	-3.004500	3.711800	-11.151000	25.006997	0.000511	20.681053
750.188835	-3.038000	3.711400	-11.273000	25.025347	0.000511	20.690938
751.187924	-3.017200	3.711200	-11.197000	25.017098	0.000511	20.693090
752.189425	-2.988600	3.712000	-11.093000	24.978679	0.000512	20.673964
753.189813	-2.991500	3.711500	-11.102000	24.976244	0.000511	20.689540
754.189746	-2.989600	3.711500	-11.094000	24.970915	0.000508	20.679923
755.188582	-3.000700	3.712400	-11.138000	24.965962	0.000509	20.666415
756.191346	-2.978700	3.711200	-11.054000	24.953825	0.000511	20.702600
757.189232	-3.005400	3.709800	-11.148000	24.927492	0.000509	20.686125
758.194013	-2.985500	3.711700	-11.081000	24.911176	0.000511	20.679231
759.195330	-2.981300	3.710300	-11.060000	24.953971	0.000510	20.663388
760.190400	-3.007300	3.709400	-11.154000	24.938381	0.000511	20.684253
761.203673	-3.016600	3.708800	-11.186000	24.964606	0.000510	20.685445
762.197700	-2.999200	3.710500	-11.127000	25.019124	0.000506	20.706030
763.195663	-3.001200	3.710200	-11.135000	25.026259	0.000508	20.683792
764.190162	-2.993400	3.709800	-11.104000	25.010865	0.000508	20.671183
765.198208	-3.011300	3.708400	-11.167000	25.029408	0.000509	20.671305
766.192709	-2.980800	3.708600	-11.053000	25.008152	0.000507	20.700705
767.191141	-3.002100	3.707900	-11.131000	25.004845	0.000506	20.677944
768.193625	-3.003200	3.708200	-11.135000	24.971452	0.000508	20.677142
769.193210	-2.993500	3.707700	-11.099000	24.968048	0.000509	20.697909
770.198352	-3.010000	3.707600	-11.160000	24.918033	0.000508	20.684217
771.196763	-2.981600	3.708000	-11.055000	24.944560	0.000508	20.672435
772.200023	-2.997600	3.706200	-11.109000	24.960525	0.000506	20.693677
773.197587	-2.996000	3.707400	-11.106000	24.984387	0.000507	20.668314
774.196334	-3.014500	3.705700	-11.170000	25.012584	0.000507	20.671013
775.199926	-2.994200	3.707200	-11.099000	25.021184	0.000508	20.695294
776.197995	-2.983900	3.706300	-11.058000	25.073216	0.000510	20.670235
777.194180	-3.008500	3.705200	-11.146000	25.035730	0.000506	20.684290
778.194717	-2.986800	3.706200	-11.068000	24.976551	0.000507	20.684632
779.195818	-3.002900	3.705000	-11.125000	24.973838	0.000507	20.668631
780.199257	-2.974600	3.705800	-11.022000	24.993133	0.000504	20.685629
781.199257	-2.987600	3.705100	-11.069000	25.035150	0.000506	20.679914
782.196317	-2.983100	3.705400	-11.053000	25.054989	0.000506	20.693666
783.197217	-2.993000	3.703500	-11.084000	25.042937	0.000506	20.678722
784.199705	-2.989900	3.704300	-11.075000	25.069958	0.000504	20.689252
785.199138	-2.999600	3.703300	-11.107000	25.068687	0.000505	20.680388
786.196125	-2.996000	3.704500	-11.098000	25.081478	0.000504	20.688961
787.205626	-2.984500	3.705400	-11.058000	25.122558	0.000505	20.687051
788.213394	-3.001300	3.703800	-11.115000	25.116501	0.000505	20.673384
789.199967	-2.991900	3.705400	-11.086000	25.107721	0.000503	20.672156
790.207285	-3.007000	3.702100	-11.132000	25.068190	0.000505	20.675622
791.199495	-2.997500	3.702700	-11.098000	25.096882	0.000500	20.669335
792.202713	-3.011100	3.700800	-11.143000	25.099038	0.000502	20.669603
793.203213	-2.989900	3.702600	-11.069000	25.092728	0.000502	20.688401
794.201333	-2.992700	3.703200	-11.082000	25.065780	0.000501	20.684109
795.200449	-3.021400	3.701800	-11.182000	25.036070	0.000502	20.674673
796.201088	-3.006400	3.701500	-11.127000	25.038032	0.000503	20.695611
797.201404	-2.993400	3.702400	-11.082000	25.022226	0.000501	20.666940
798.201432	-2.987300	3.702400	-11.059000	25.036167	0.000499	20.666709
799.203918	-2.988100	3.701300	-11.059000	25.041363	0.000500	20.692790
800.204069	-2.988800	3.701200	-11.061000	25.028863	0.000500	20.693994
801.202674	-3.006000	3.700900	-11.124000	24.999044	0.000500	20.689666
802.207803	-3.001400	3.700700	-11.107000	25.021173	0.000501	20.688170
803.210637	-3.029500	3.699900	-11.208000	25.036445	0.000501	20.682637
804.204201	-3.010700	3.700400	-11.140000	25.079478	0.000499	20.691222
805.207057	-2.982300	3.700500	-11.035000	25.061893	0.000499	20.685897
806.201948	-2.978200	3.699900	-11.019000	25.087956	0.000498	20.672229
807.208946	-3.004800	3.699800	-11.116000	25.052856	0.000499	20.691051
808.200918	-3.007900	3.699200	-11.126000	25.067051	0.000500	20.669262
809.201074	-2.989900	3.698500	-11.058000	25.109114	0.000499	20.698687
810.211389	-3.000500	3.697500	-11.093000	25.034955	0.000498	20.695842
811.204471	-3.006300	3.698300	-11.117000	25.068298	0.000501	20.707501
812.204736	-2.994000	3.697100	-11.068000	25.079502	0.000499	20.700730
813.209687	-2.999300	3.697000	-11.087000	25.066954	0.000499	20.702833
814.206920	-2.991100	3.697000	-11.057000	25.054165	0.000497	20.691891
815.206427	-2.991800	3.697500	-11.062000	25.053329	0.000498	20.693422
816.207742	-2.996500	3.695800	-11.074000	25.084455	0.000497	20.680570
817.205030	-3.005700	3.696700	-11.110000	25.121370	0.000497	20.693446
818.206726	-3.008400	3.695700	-11.117000	25.094253	0.000497	20.675232
819.205806	-2.999800	3.696700	-11.088000	25.132028	0.000495	20.692766
820.204939	-3.005400	3.694900	-11.104000	25.118426	0.000495	20.688594
821.209713	-2.995200	3.695000	-11.066000	25.086356	0.000496	20.688168
822.211094	-3.000400	3.695200	-11.086000	25.130307	0.000495	20.672544
823.211377	-3.005800	3.695500	-11.107000	25.141232	0.000495	20.701532
824.211324	-3.001500	3.695100	-11.090000	25.122023	0.000494	20.677979
825.206666	-3.002600	3.694700	-11.092000	25.102283	0.000494	20.686138
826.212306	-3.021800	3.693500	-11.161000	25.095778	0.000497	20.696205
827.209918	-2.995500	3.695500	-11.069000	25.088221	0.000495	20.684350
828.214493	-2.990300	3.694400	-11.047000	25.100356	0.000493	20.700801
829.217213	-2.994600	3.694400	-11.062000	25.128296	0.000495	20.703719
830.221513	-2.971500	3.694500	-10.977000	25.100137	0.000496	20.702952
831.212334	-2.985600	3.693600	-11.026000	25.069545	0.000493	20.686941
832.219085	-2.998300	3.692900	-11.071000	25.077163	0.000494	20.688897
833.216663	-3.001600	3.693600	-11.086000	25.078604	0.000494	20.681334
834.214587	-2.991300	3.692700	-11.045000	25.070623	0.000493	20.704619
835.218124	-2.990100	3.693700	-11.044000	25.046956	0.000492	20.701251
836.221565	-3.003800	3.692500	-11.091000	25.064444	0.000494	20.698416
837.217060	-2.996400	3.692000	-11.062000	25.026656	0.000492	20.689881
838.216457	-2.988600	3.692500	-11.035000	25.063197	0.000492	20.694794
839.222279	-2.995400	3.692500	-11.060000	25.084515	0.000493	20.702443
840.217894	-2.981600	3.691600	-11.006000	25.081414	0.000492	20.695536
841.216787	-3.009700	3.691600	-11.109000	25.134218	0.000492	20.702077
842.215991	-2.995000	3.690200	-11.051000	25.158754	0.000490	20.708217
843.217638	-2.981900	3.690900	-11.005000	25.117832	0.000490	20.718346
844.219830	-3.004300	3.690000	-11.084000	25.123390	0.000491	20.685516
845.218965	-3.015800	3.690700	-11.129000	25.107816	0.000490	20.704497
846.221977	-2.993000	3.690500	-11.045000	25.056924	0.000490	20.708886
847.226557	-2.999000	3.690200	-11.066000	25.073432	0.000489	20.671400
848.224069	-2.988500	3.690100	-11.026000	25.047707	0.000491	20.694891
849.222087	-3.007800	3.688800	-11.094000	25.041264	0.000489	20.712607
850.221881	-2.992100	3.688800	-11.037000	25.061794	0.000491	20.718991
851.221867	-2.982500	3.688200	-10.999000	25.068879	0.000489	20.698600
852.224517	-3.016400	3.687100	-11.121000	25.107743	0.000488	20.692569
853.221515	-2.992700	3.688300	-11.037000	25.107077	0.000489	20.712764
854.224878	-3.014700	3.688200	-11.118000	25.150168	0.000491	20.699598
855.229048	-3.020600	3.687600	-11.138000	25.131748	0.000487	20.698175
856.226521	-3.013400	3.688400	-11.114000	25.167293	0.000489	20.705884
857.227222	-3.027200	3.686800	-11.159000	25.120860	0.000487	20.715221
858.228174	-3.002900	3.686900	-11.071000	25.119432	0.000487	20.685336
859.222070	-2.990400	3.687300	-11.026000	25.103953	0.000488	20.711051
860.224412	-2.981700	3.687500	-10.994000	25.115422	0.000489	20.699329
861.227775	-3.008900	3.685700	-11.089000	25.078218	0.000488	20.719356
862.223994	-2.974100	3.686900	-10.964000	25.089033	0.000488	20.718833
863.228632	-2.997700	3.685000	-11.046000	25.082274	0.000487	20.709203
864.226688	-2.985000	3.685800	-11.001000	25.091370	0.000488	20.705057
865.227421	-3.011000	3.684900	-11.094000	25.095403	0.000486	20.714796
866.226279	-2.990100	3.684100	-11.015000	25.115181	0.000486	20.702407
867.228618	-2.973900	3.686000	-10.961000	25.110361	0.000489	20.720329
868.231075	-3.015400	3.684800	-11.110000	25.082155	0.000486	20.711929
869.235323	-2.991800	3.684300	-11.022000	25.077370	0.000485	20.719454
870.225571	-3.013800	3.684100	-11.102000	25.073750	0.000486	20.726726
871.228277	-3.029900	3.683100	-11.158000	25.089640	0.000484	20.712330
872.233167	-3.009300	3.683500	-11.084000	25.139186	0.000487	20.704694
873.228874	-3.003700	3.683700	-11.063000	25.177443	0.000485	20.717023
874.237655	-3.007700	3.683800	-11.078000	25.186478	0.000486	20.708075
875.230970	-2.997300	3.682100	-11.036000	25.175070	0.000483	20.719857
876.231881	-2.979300	3.682100	-10.969000	25.192545	0.000486	20.717486
877.236582	-2.978800	3.683100	-10.971000	25.215930	0.000485	20.722946
878.234573	-2.993400	3.682900	-11.022000	25.185691	0.000482	20.707284
879.234468	-3.016400	3.681000	-11.102000	25.163578	0.000483	20.733451
880.233038	-3.002100	3.682400	-11.055000	25.172830	0.000482	20.726617
881.229026	-2.993500	3.680700	-11.017000	25.152437	0.000482	20.717524
882.228877	-2.986700	3.681900	-10.997000	25.166909	0.000482	20.719724
883.235206	-3.016700	3.681900	-11.106000	25.192632	0.000483	20.732746
884.230925	-3.000400	3.680300	-11.041000	25.195938	0.000481	20.729427
885.231369	-3.026000	3.679100	-11.131000	25.231057	0.000482	20.717269
886.243223	-3.005800	3.679300	-11.058000	25.187002	0.000485	20.727568
887.236141	-2.982800	3.680900	-10.978000	25.197354	0.000480	20.721366
888.232916	-3.028000	3.679600	-11.141000	25.185329	0.000481	20.717827
889.233902	-3.020400	3.678500	-11.109000	25.182144	0.000480	20.730278
890.233089	-2.989000	3.680400	-10.999000	25.195454	0.000481	20.731787
891.235394	-3.001200	3.679400	-11.042000	25.204609	0.000480	20.724856
892.232257	-2.995400	3.679500	-11.020000	25.278186	0.000479	20.722862
893.237466	-2.991500	3.678800	-11.004000	25.252188	0.000479	20.709086
894.232634	-3.000900	3.678500	-11.038000	25.192122	0.000481	20.710896
895.232019	-3.014600	3.678400	-11.088000	25.196931	0.000480	20.739434
896.237005	-2.996200	3.678200	-11.019000	25.204355	0.000479	20.742620
897.236665	-3.029800	3.676300	-11.137000	25.161279	0.000479	20.716442
898.236193	-2.990800	3.677700	-10.998000	25.179820	0.000477	20.746912
899.235979	-2.965300	3.678100	-10.906000	25.210954	0.000478	20.720794
900.239288	-2.983700	3.676800	-10.970000	25.253858	0.000480	20.726411
901.234313	-2.977900	3.677600	-10.951000	25.262057	0.000477	20.717098
902.237213	-2.985000	3.676900	-10.974000	25.294256	0.000477	20.734255
903.237712	-3.006600	3.675400	-11.049000	25.325254	0.000476	20.746887
904.235546	-2.991000	3.677000	-10.997000	25.280148	0.000474	20.738583
905.236438	-2.984600	3.675400	-10.969000	25.284835	0.000477	20.731909
906.234797	-2.999400	3.674800	-11.021000	25.277134	0.000477	20.731288
907.243641	-3.013500	3.675200	-11.074000	25.233855	0.000474	20.728614
908.250757	-3.015800	3.674000	-11.079000	25.206862	0.000475	20.726644
909.240450	-3.037700	3.674200	-11.159000	25.214891	0.000477	20.735653
910.235887	-3.024400	3.673600	-11.110000	25.253388	0.000475	20.724991
911.235469	-3.007400	3.673300	-11.046000	25.293687	0.000475	20.737477
912.242387	-2.987200	3.674300	-10.975000	25.332508	0.000475	20.747058
913.235769	-3.015400	3.673000	-11.075000	25.330001	0.000476	20.737902
914.236778	-3.017100	3.673100	-11.080000	25.289485	0.000475	20.743690
915.237800	-3.016600	3.672100	-11.076000	25.280113	0.000474	20.745660
916.235467	-2.994100	3.672900	-10.996000	25.265594	0.000473	20.732979
917.235682	-3.003100	3.673200	-11.030000	25.273442	0.000474	20.729004
918.237307	-2.995600	3.672800	-11.001000	25.325643	0.000473	20.739216
919.243453	-2.998100	3.671400	-11.007000	25.267483	0.000473	20.750524
920.239263	-3.001300	3.672900	-11.022000	25.287270	0.000471	20.732930
921.240925	-2.999700	3.671700	-11.013000	25.226409	0.000472	20.748166
922.240322	-3.028200	3.669400	-11.110000	25.214081	0.000468	20.718244
923.240053	-3.009900	3.670800	-11.048000	25.238348	0.000471	20.731229
924.241701	-3.004500	3.670200	-11.027000	25.292140	0.000472	20.753468
925.241521	-3.008900	3.669900	-11.041000	25.297176	0.000472	20.728177
926.239007	-2.983500	3.670900	-10.951000	25.316079	0.000471	20.752374
927.243358	-2.991300	3.670300	-10.978000	25.327329	0.000471	20.750393
928.243103	-3.007300	3.668900	-11.033000	25.294768	0.000471	20.758004
929.244294	-3.018200	3.668100	-11.070000	25.331325	0.000471	20.755828
930.241259	-2.990100	3.670100	-10.973000	25.329171	0.000471	20.769313
931.243078	-3.004700	3.669700	-11.026000	25.291441	0.000469	20.745653
932.242805	-2.999600	3.669600	-11.007000	25.308066	0.000468	20.766614
933.243146	-2.991700	3.668500	-10.974000	25.297169	0.000466	20.755199
934.244043	-3.003800	3.669200	-11.020000	25.317392	0.000470	20.748002
935.244718	-2.986200	3.669100	-10.955000	25.318531	0.000469	20.760526
936.243405	-2.974500	3.667900	-10.909000	25.345097	0.000469	20.758277
937.245291	-2.987200	3.667900	-10.956000	25.360791	0.000470	20.753172
938.248266	-2.993500	3.667100	-10.977000	25.332638	0.000467	20.762363
939.243164	-2.972800	3.667700	-10.902000	25.331804	0.000467	20.766267
940.246207	-2.998900	3.667600	-10.997000	25.339203	0.000466	20.757575
941.247682	-2.998400	3.666800	-10.993000	25.345742	0.000467	20.767459
942.246429	-2.998000	3.666300	-10.991000	25.364196	0.000467	20.741892
943.247210	-2.984400	3.667200	-10.943000	25.365359	0.000468	20.741163
944.246119	-3.008700	3.666100	-11.030000	25.365275	0.000466	20.779486
945.244509	-3.000800	3.665200	-10.997000	25.305326	0.000466	20.767182
946.243867	-3.011700	3.665200	-11.037000	25.327292	0.000468	20.760788
947.244113	-2.994800	3.665800	-10.977000	25.360299	0.000464	20.774490
948.243748	-3.010400	3.665200	-11.033000	25.300425	0.000465	20.738553
949.246021	-2.989300	3.664200	-10.953000	25.287661	0.000467	20.775050
950.252138	-2.987900	3.664200	-10.947000	25.327246	0.000466	20.764061
951.246995	-2.982200	3.663900	-10.926000	25.288497	0.000465	20.762139
952.245121	-3.002100	3.663900	-10.999000	25.306141	0.000464	20.768000
953.252253	-2.984900	3.664100	-10.936000	25.329801	0.000464	20.760462
954.246940	-2.975700	3.663000	-10.899000	25.330783	0.000464	20.778044
955.244884	-2.988300	3.663900	-10.948000	25.317029	0.000463	20.785097
956.246578	-2.997100	3.662900	-10.977000	25.309522	0.000463	20.778981
957.244402	-2.990000	3.662900	-10.951000	25.311035	0.000461	20.773863
958.245761	-2.988600	3.663200	-10.947000	25.332553	0.000462	20.788356
959.248299	-2.986500	3.662400	-10.936000	25.348598	0.000462	20.776965
960.249978	-2.994900	3.660700	-10.963000	25.365539	0.000463	20.766000
961.251101	-2.993700	3.661300	-10.959000	25.365031	0.000463	20.782086
962.249858	-2.970500	3.661400	-10.875000	25.378774	0.000463	20.772177
963.252506	-2.984900	3.660800	-10.926000	25.332399	0.000461	20.779666
964.248423	-2.988600	3.661600	-10.942000	25.348541	0.000461	20.785443
965.253835	-3.012300	3.659300	-11.021000	25.367468	0.000462	20.812982
966.252592	-3.019400	3.659300	-11.048000	25.391273	0.000463	20.786150
967.250085	-3.035300	3.658000	-11.102000	25.414605	0.000459	20.787767
968.259414	-2.989300	3.660100	-10.940000	25.411202	0.000461	20.786722
969.252585	-2.997200	3.660200	-10.970000	25.404896	0.000460	20.782286
970.251338	-3.003500	3.659600	-10.991000	25.396736	0.000458	20.791162
971.253534	-2.995900	3.659200	-10.962000	25.382716	0.000460	20.770920
972.254653	-2.994700	3.659300	-10.958000	25.436317	0.000458	20.793923
973.252583	-2.994200	3.657800	-10.951000	25.451343	0.000458	20.795262
974.255425	-3.018200	3.658000	-11.039000	25.379861	0.000457	20.779907
975.251615	-3.018800	3.656700	-11.038000	25.383603	0.000458	20.795519
976.256082	-2.998600	3.657800	-10.967000	25.416585	0.000455	20.803506
977.254192	-2.990300	3.658800	-10.940000	25.422664	0.000456	20.790170
978.253953	-2.976000	3.658700	-10.887000	25.404564	0.000458	20.765831
979.252621	-3.002200	3.656800	-10.977000	25.412192	0.000457	20.812845
980.257889	-2.996500	3.656400	-10.955000	25.384575	0.000456	20.794123
981.253760	-2.993300	3.657400	-10.947000	25.381439	0.000454	20.807096
982.251797	-3.000300	3.655900	-10.968000	25.371123	0.000455	20.783461
983.254843	-2.989100	3.656600	-10.929000	25.359186	0.000454	20.811778
984.251520	-2.979600	3.655200	-10.889000	25.319810	0.000454	20.802587
985.251756	-2.990300	3.655200	-10.929000	25.331785	0.000455	20.801810
986.266405	-3.001300	3.655500	-10.971000	25.364140	0.000455	20.803002
987.254077	-3.003000	3.654900	-10.975000	25.370146	0.000452	20.807136
988.254663	-3.003900	3.653700	-10.974000	25.369445	0.000452	20.794104
989.255810	-2.991600	3.654000	-10.930000	25.378017	0.000453	20.805083
990.254595	-3.007900	3.653400	-10.988000	25.374385	0.000454	20.805229
991.251991	-2.999500	3.655100	-10.963000	25.396291	0.000452	20.802568
992.260163	-3.017800	3.653500	-11.025000	25.420397	0.000451	20.800696
993.265704	-2.994800	3.653400	-10.940000	25.458040	0.000453	20.816210
994.255250	-3.001400	3.653800	-10.966000	25.482423	0.000452	20.805608
995.256796	-3.019300	3.652500	-11.027000	25.464674	0.000454	20.801536
996.253462	-3.000400	3.652700	-10.958000	25.454494	0.000453	20.810753
997.254010	-2.994100	3.653300	-10.938000	25.477124	0.000452	20.804554
998.258437	-2.992600	3.651400	-10.927000	25.439058	0.000449	20.799520
999.259848	-3.001200	3.652800	-10.962000	25.471541	0.000450	20.838302
1000.258034	-3.020000	3.650600	-11.024000	25.492149	0.000452	20.805418
1001.257242	-2.980200	3.650700	-10.879000	25.497864	0.000451	20.814476
1002.260184	-2.986500	3.651300	-10.904000	25.445188	0.000450	20.834599
1003.257776	-3.004400	3.649500	-10.963000	25.414641	0.000449	20.808667
1004.260308	-2.992000	3.650500	-10.921000	25.423915	0.000447	20.821772
1005.260253	-3.002000	3.651300	-10.960000	25.391649	0.000447	20.840581
1006.257911	-3.008900	3.649400	-10.980000	25.383139	0.000449	20.807854
1007.256297	-3.010100	3.649300	-10.984000	25.382194	0.000448	20.831561
1008.258038	-3.018600	3.648800	-11.012000	25.405249	0.000449	20.831477
1009.260437	-3.019600	3.648100	-11.015000	25.375246	0.000448	20.816524
1010.261185	-3.001000	3.647800	-10.946000	25.383600	0.000447	20.824913
1011.258653	-3.011800	3.649500	-10.991000	25.359749	0.000447	20.827990
1012.263254	-3.002100	3.648700	-10.953000	25.366832	0.000447	20.845534
1013.262547	-2.985000	3.647700	-10.887000	25.364447	0.000445	20.822276
1014.262822	-2.970900	3.647300	-10.835000	25.361749	0.000445	20.832369
1015.259658	-2.973000	3.647700	-10.844000	25.406501	0.000447	20.829416
1016.259811	-2.994900	3.647000	-10.921000	25.418209	0.000445	20.842594
1017.263152	-2.994600	3.646000	-10.918000	25.417361	0.000442	20.847433
1018.259288	-3.014200	3.645200	-10.986000	25.413670	0.000445	20.842778
1019.260717	-2.986100	3.645800	-10.886000	25.443442	0.000445	20.838061
1020.262174	-3.000100	3.645800	-10.937000	25.418527	0.000445	20.845284
1021.264560	-3.009000	3.646600	-10.972000	25.442064	0.000444	20.862280
1022.264518	-3.008000	3.644600	-10.962000	25.449014	0.000448	20.844604
1023.264034	-3.001200	3.645600	-10.941000	25.454500	0.000443	20.837311
1024.265738	-3.002900	3.643000	-10.938000	25.453798	0.000444	20.844667
1025.263206	-3.008500	3.643600	-10.961000	25.446583	0.000444	20.842637
1026.267048	-2.992200	3.645300	-10.907000	25.470761	0.000443	20.840838
1027.262999	-3.002300	3.644400	-10.940000	25.469442	0.000444	20.823393
1028.266933	-3.010100	3.644200	-10.969000	25.494758	0.000443	20.829849
1029.262794	-3.007900	3.643100	-10.957000	25.496903	0.000442	20.821098
1030.263899	-2.992100	3.643600	-10.901000	25.488102	0.000442	20.834071
1031.265722	-3.009500	3.642200	-10.961000	25.461539	0.000443	20.824466
1032.269581	-3.008900	3.642800	-10.960000	25.432350	0.000443	20.832139
1033.268023	-3.009000	3.643000	-10.961000	25.467521	0.000442	20.840429
1034.267885	-3.003200	3.640900	-10.934000	25.482086	0.000442	20.838934
1035.267472	-2.974700	3.641500	-10.832000	25.417313	0.000440	20.850703
1036.270306	-2.987300	3.641400	-10.877000	25.456300	0.000439	20.831058
1037.265007	-3.027800	3.639300	-11.018000	25.479280	0.000441	20.851289
1038.270166	-3.000600	3.639400	-10.920000	25.479061	0.000440	20.819776
1039.271811	-3.017300	3.640200	-10.983000	25.499208	0.000441	20.849964
1040.264734	-2.981900	3.640200	-10.853000	25.523566	0.000437	20.815156
1041.269970	-2.996800	3.640200	-10.909000	25.525152	0.000440	20.800629
1042.269875	-3.000900	3.640300	-10.923000	25.534681	0.000437	20.820630
1043.270014	-2.999300	3.638200	-10.911000	25.507199	0.000436	20.810101
1044.269928	-3.009100	3.639300	-10.949000	25.518048	0.000436	20.814831
1045.268810	-2.986400	3.639400	-10.868000	25.546933	0.000438	20.804484
1046.265022	-3.010800	3.639800	-10.958000	25.560940	0.000437	20.810491
1047.268090	-2.994200	3.637900	-10.892000	25.573337	0.000434	20.803027
1048.270052	-2.986300	3.638000	-10.863000	25.556716	0.000434	20.831852
1049.266041	-3.006900	3.637000	-10.935000	25.527418	0.000435	20.809543
1050.272049	-2.993300	3.637300	-10.886000	25.518958	0.000433	20.808158
1051.267333	-3.004900	3.637000	-10.928000	25.551886	0.000433	20.811830
1052.267794	-2.986700	3.636200	-10.859000	25.551063	0.000435	20.812900
1053.268452	-3.002500	3.636400	-10.917000	25.509334	0.000434	20.810822
1054.274809	-2.977700	3.636900	-10.828000	25.501536	0.000432	20.813423
1055.268733	-2.994800	3.637000	-10.891000	25.457093	0.000433	20.801984
1056.269529	-3.010100	3.635200	-10.941000	25.473123	0.000433	20.801959
1057.272031	-3.016500	3.634200	-10.961000	25.506331	0.000433	20.799746
1058.270041	-3.009800	3.634300	-10.938000	25.506247	0.000432	20.834748
1059.271568	-3.006000	3.634500	-10.924000	25.482021	0.000429	20.785765
1060.267822	-3.006300	3.635500	-10.929000	25.508705	0.000431	20.804975
1061.266892	-3.014300	3.634000	-10.952000	25.542023	0.000429	20.798605
1062.274551	-3.028500	3.633300	-11.001000	25.550848	0.000431	20.797036
1063.269359	-3.021300	3.632700	-10.975000	25.491030	0.000430	20.800502
1064.270856	-3.023100	3.632500	-10.980000	25.514770	0.000430	20.813910
1065.267649	-3.006500	3.632900	-10.921000	25.522908	0.000428	20.818289
1066.268848	-2.967100	3.634000	-10.782000	25.523269	0.000429	20.799212
1067.271229	-2.995200	3.634100	-10.884000	25.533441	0.000430	20.805159
1068.276050	-3.009000	3.633300	-10.932000	25.548029	0.000430	20.809852
1069.270079	-3.007100	3.630500	-10.917000	25.547678	0.000429	20.794327
1070.275582	-2.986600	3.632700	-10.848000	25.551441	0.000429	20.792891
1071.268741	-3.006500	3.630900	-10.916000	25.549445	0.000426	20.785196
1072.271609	-2.994600	3.631400	-10.874000	25.552132	0.000427	20.783627
1073.272475	-2.986800	3.632000	-10.847000	25.543137	0.000428	20.783603
1074.270980	-3.005500	3.629800	-10.908000	25.511177	0.000425	20.800344
1075.270852	-2.981600	3.630500	-10.823000	25.481795	0.000425	20.795969
1076.271091	-2.987100	3.629500	-10.841000	25.490402	0.000425	20.797025
1077.270939	-3.007200	3.630100	-10.915000	25.503997	0.000423	20.771323
1078.273729	-2.999900	3.628600	-10.884000	25.503744	0.000424	20.773914
1079.277165	-2.993900	3.628800	-10.863000	25.487787	0.000427	20.779701
1080.271062	-3.010400	3.628200	-10.921000	25.539384	0.000423	20.793584
1081.274979	-2.996100	3.630300	-10.876000	25.535184	0.000424	20.767554
1082.279718	-3.014400	3.628400	-10.937000	25.479930	0.000421	20.792674
1083.273541	-2.995400	3.628100	-10.867000	25.487374	0.000423	20.774545
1084.271365	-3.021200	3.627100	-10.957000	25.538731	0.000424	20.784868
1085.274201	-3.008300	3.627500	-10.911000	25.584806	0.000423	20.777561
1086.276209	-2.993500	3.627900	-10.859000	25.627321	0.000423	20.788965
1087.284811	-2.994000	3.627200	-10.859000	25.667171	0.000421	20.740321
1088.277996	-2.997600	3.627300	-10.872000	25.663926	0.000419	20.759821
1089.282204	-3.007200	3.625800	-10.903000	25.670379	0.000421	20.783847
1090.277549	-3.018500	3.626600	-10.946000	25.674204	0.000420	20.769671
1091.279602	-3.006100	3.624500	-10.895000	25.633191	0.000420	20.774472
1092.279694	-2.998800	3.625100	-10.870000	25.670486	0.000421	20.772101
1093.280443	-2.997300	3.624400	-10.862000	25.673527	0.000418	20.750024
1094.277297	-3.003300	3.624300	-10.884000	25.617625	0.000418	20.772115
1095.279034	-2.987200	3.625700	-10.830000	25.601525	0.000417	20.772540
1096.279439	-3.014600	3.623400	-10.922000	25.579033	0.000419	20.757063
1097.280027	-3.004600	3.622400	-10.883000	25.556503	0.000419	20.775214
1098.275554	-3.002000	3.622200	-10.873000	25.578863	0.000416	20.756418
1099.276740	-3.001900	3.623800	-10.878000	25.534822	0.000417	20.779520
1100.276779	-3.003400	3.623400	-10.882000	25.548587	0.000415	20.772480
1101.280238	-2.987000	3.622300	-10.819000	25.584118	0.000418	20.757903
1102.276790	-3.008100	3.621800	-10.893000	25.582133	0.000414	20.770608
1103.278670	-2.996900	3.622500	-10.856000	25.603923	0.000415	20.759775
1104.281078	-3.014600	3.622300	-10.919000	25.617010	0.000414	20.761539
1105.278727	-3.013400	3.621100	-10.910000	25.642396	0.000415	20.754319
1106.279421	-2.986900	3.622500	-10.819000	25.675564	0.000414	20.743535
1107.278697	-3.003600	3.622000	-10.878000	25.707241	0.000414	20.766818
1108.277363	-2.990500	3.621400	-10.829000	25.681895	0.000412	20.742781
1109.278520	-2.983900	3.620600	-10.802000	25.619797	0.000414	20.778089
1110.284568	-2.980400	3.620800	-10.791000	25.617596	0.000414	20.757860
1111.284867	-2.998700	3.620400	-10.855000	25.612802	0.000414	20.749252
1112.284991	-2.988700	3.619400	-10.816000	25.569561	0.000413	20.752766
1113.284720	-3.005000	3.618600	-10.872000	25.557504	0.000411	20.741132
1114.284149	-3.007600	3.619200	-10.884000	25.565350	0.000410	20.747114
1115.284148	-2.965100	3.618800	-10.729000	25.640017	0.000413	20.768999
1116.284689	-3.001300	3.617800	-10.858000	25.624354	0.000410	20.774605
1117.288505	-3.009900	3.618200	-10.889000	25.603279	0.000409	20.762448
1118.286804	-3.009700	3.618000	-10.888000	25.586293	0.000408	20.757717
1119.286449	-2.999200	3.617200	-10.848000	25.573317	0.000411	20.750374
1120.288173	-3.009500	3.616200	-10.882000	25.572143	0.000408	20.766740
1121.293567	-2.986100	3.617500	-10.801000	25.613231	0.000409	20.747312
1122.282736	-3.000200	3.617300	-10.852000	25.602699	0.000409	20.760443
1123.289783	-3.001500	3.615900	-10.852000	25.632310	0.000409	20.729015
1124.285616	-3.007400	3.615800	-10.873000	25.610534	0.000407	20.755509
1125.285583	-3.008800	3.616300	-10.879000	25.639780	0.000409	20.750269
1126.287022	-2.993400	3.616600	-10.824000	25.655880	0.000406	20.757430
1127.295097	-2.993000	3.615000	-10.818000	25.618778	0.000406	20.752883
1128.286809	-3.006800	3.615700	-10.871000	25.579180	0.000406	20.756736
1129.284160	-3.021100	3.614700	-10.919000	25.541978	0.000407	20.732177
1130.288939	-2.977400	3.614900	-10.762000	25.553504	0.000408	20.736640
1131.283037	-2.998100	3.613200	-10.831000	25.593478	0.000407	20.756398
1132.285708	-2.987200	3.614500	-10.796000	25.590416	0.000407	20.760909
1133.287709	-2.986700	3.613100	-10.790000	25.616286	0.000407	20.753699
1134.286709	-2.985500	3.613800	-10.788000	25.664478	0.000405	20.730028
1135.286220	-2.993800	3.613500	-10.817000	25.665797	0.000405	20.775451
1136.291041	-2.988400	3.611900	-10.793000	25.645847	0.000405	20.736447
1137.285466	-2.988000	3.612500	-10.794000	25.624967	0.000404	20.745349
1138.289158	-3.019700	3.611900	-10.906000	25.596894	0.000406	20.735171
1139.305981	-3.011300	3.611000	-10.873000	25.626432	0.000403	20.724533
1140.289139	-3.026600	3.610800	-10.927000	25.649735	0.000405	20.751258
1141.286786	-3.013900	3.611700	-10.884000	25.648354	0.000402	20.740387
1142.288361	-3.003300	3.611400	-10.845000	25.658305	0.000403	20.744693
1143.288003	-2.993000	3.610400	-10.805000	25.635513	0.000402	20.742189
1144.287803	-3.005600	3.609200	-10.847000	25.680868	0.000399	20.729896
1145.296499	-2.991100	3.609900	-10.797000	25.631191	0.000400	20.752074
1146.292208	-2.988300	3.609400	-10.785000	25.625852	0.000401	20.743867
1147.289778	-2.999900	3.609600	-10.828000	25.612067	0.000401	20.722908
1148.290361	-2.984100	3.609600	-10.771000	25.606884	0.000400	20.726238
1149.297041	-2.983000	3.609600	-10.766000	25.642365	0.000401	20.729630
1150.290469	-2.986200	3.608500	-10.775000	25.663113	0.000399	20.726287
1151.292206	-2.998900	3.608200	-10.820000	25.690591	0.000401	20.730178
1152.296620	-2.987100	3.608700	-10.779000	25.647124	0.000399	20.732040
1153.292083	-3.003000	3.607200	-10.832000	25.642656	0.000398	20.718543
1154.291460	-2.992900	3.606500	-10.792000	25.628833	0.000397	20.720781
1155.292999	-3.017500	3.606100	-10.880000	25.617104	0.000398	20.729390
1156.294325	-3.007700	3.605800	-10.844000	25.603305	0.000399	20.730230
1157.295103	-2.996800	3.606100	-10.806000	25.590096	0.000395	20.729292
1158.296227	-3.001400	3.605700	-10.821000	25.578174	0.000396	20.727276
1159.296066	-3.013400	3.604800	-10.862000	25.578622	0.000398	20.739581
1160.295965	-3.005400	3.605100	-10.834000	25.545694	0.000395	20.735435
1161.294852	-3.007300	3.605700	-10.843000	25.591977	0.000395	20.722172
1162.306303	-2.991300	3.604000	-10.779000	25.606418	0.000395	20.726718
1163.295756	-2.998500	3.602900	-10.802000	25.642298	0.000395	20.737624
1164.296661	-2.991900	3.603500	-10.780000	25.641791	0.000394	20.726209
1165.293935	-2.992800	3.604200	-10.786000	25.633318	0.000394	20.744252
1166.292767	-2.975100	3.604500	-10.723000	25.666982	0.000393	20.718793
1167.294894	-2.966300	3.603900	-10.689000	25.649793	0.000391	20.720020
1168.295130	-3.003100	3.602700	-10.819000	25.657540	0.000392	20.727328
1169.294629	-3.017800	3.600800	-10.866000	25.671255	0.000391	20.713127
1170.294770	-2.997500	3.601200	-10.793000	25.673845	0.000391	20.718099
1171.298880	-3.028000	3.601400	-10.904000	25.615659	0.000390	20.724619
1172.294390	-3.002700	3.602200	-10.816000	25.565492	0.000390	20.704107
1173.295681	-2.986100	3.601700	-10.754000	25.564524	0.000391	20.728740
1174.300046	-2.992300	3.601100	-10.774000	25.601422	0.000391	20.700836
1175.300295	-3.033900	3.599900	-10.921000	25.634300	0.000391	20.717736
1176.298007	-2.991700	3.601100	-10.773000	25.679683	0.000391	20.718273
1177.300944	-3.000200	3.600400	-10.801000	25.695709	0.000390	20.725836
1178.297888	-3.030700	3.599500	-10.908000	25.692950	0.000390	20.716899
1179.299588	-3.004300	3.599100	-10.811000	25.645595	0.000390	20.708217
1180.301873	-2.996700	3.598300	-10.782000	25.581523	0.000387	20.711673
1181.300197	-3.023900	3.598800	-10.881000	25.606945	0.000388	20.710177
1182.301794	-2.982500	3.597700	-10.730000	25.612551	0.000388	20.722920
1183.302658	-3.000100	3.597800	-10.793000	25.628301	0.000388	20.698433
1184.300153	-3.034500	3.596600	-10.913000	25.661733	0.000388	20.723004
1185.299978	-2.993700	3.596700	-10.767000	25.667533	0.000386	20.695637
1186.301365	-2.986700	3.598200	-10.745000	25.664180	0.000387	20.724040
1187.301765	-3.023000	3.596700	-10.871000	25.651229	0.000388	20.702021
1188.302935	-3.024900	3.596000	-10.876000	25.657682	0.000385	20.717986
1189.299966	-3.005700	3.596200	-10.809000	25.654752	0.000385	20.706983
1190.297235	-3.013600	3.596600	-10.838000	25.683039	0.000385	20.706944
1191.300271	-2.986500	3.595900	-10.738000	25.679845	0.000386	20.717488
1192.298736	-2.987200	3.595900	-10.741000	25.680415	0.000384	20.709050
1193.299885	-3.013500	3.594600	-10.832000	25.682761	0.000384	20.694811
1194.306142	-3.015600	3.594000	-10.837000	25.710204	0.000384	20.705780
1195.299864	-3.033600	3.592900	-10.899000	25.724887	0.000382	20.710570
1196.301774	-2.996900	3.595500	-10.773000	25.747618	0.000383	20.709695
1197.311979	-2.982700	3.594100	-10.719000	25.768933	0.000382	20.708346
1198.300924	-2.983800	3.593600	-10.722000	25.755764	0.000383	20.720249
1199.304479	-3.013900	3.594000	-10.830000	25.731423	0.000382	20.701487
1200.301698	-2.999700	3.593000	-10.776000	25.686600	0.000380	20.722850
1201.302459	-2.997200	3.592900	-10.767000	25.666579	0.000379	20.712697
1202.305107	-2.986700	3.592700	-10.729000	25.707833	0.000382	20.718572
1203.302117	-3.009300	3.591200	-10.806000	25.741749	0.000381	20.699531
1204.301155	-3.009600	3.591800	-10.808000	25.760582	0.000379	20.698060
1205.305227	-3.013600	3.590900	-10.821000	25.757448	0.000379	20.713879
1206.303289	-2.996700	3.591700	-10.762000	25.678648	0.000378	20.699214
1207.306170	-3.019300	3.590100	-10.839000	25.663905	0.000379	20.688199
1208.304677	-2.990500	3.590600	-10.737000	25.714636	0.000382	20.685100
1209.305889	-2.990100	3.590800	-10.736000	25.778096	0.000379	20.699531
1210.302062	-3.005500	3.588900	-10.786000	25.700075	0.000378	20.687070
1211.303319	-2.999500	3.589500	-10.766000	25.698017	0.000378	20.681683
1212.302981	-3.011300	3.589500	-10.808000	25.683407	0.000377	20.688346
1213.315766	-3.015400	3.588000	-10.818000	25.638801	0.000375	20.693806
1214.304005	-2.986000	3.588900	-10.715000	25.640894	0.000376	20.705867
1215.302915	-3.008500	3.588100	-10.793000	25.627481	0.000375	20.681962
1216.305682	-3.010800	3.588400	-10.803000	25.663701	0.000375	20.712652
1217.304867	-2.993500	3.587400	-10.738000	25.687461	0.000374	20.706644
1218.305499	-2.991000	3.587000	-10.727000	25.716875	0.000374	20.707265
1219.306753	-2.996200	3.587600	-10.748000	25.708934	0.000371	20.700710
1220.303746	-3.032200	3.586300	-10.874000	25.681928	0.000375	20.696819
1221.303596	-2.989400	3.586700	-10.722000	25.652745	0.000375	20.704967
1222.305352	-2.980700	3.587100	-10.691000	25.651062	0.000373	20.698060
1223.303179	-2.992300	3.586200	-10.730000	25.696285	0.000374	20.690849
1224.303587	-2.996300	3.586100	-10.744000	25.742318	0.000373	20.684455
1225.303883	-2.994300	3.586000	-10.736000	25.743963	0.000372	20.696540
1226.303688	-2.986000	3.585500	-10.705000	25.712554	0.000374	20.675895
1227.303549	-3.003400	3.586100	-10.769000	25.695389	0.000372	20.685682
1228.308880	-2.996500	3.584200	-10.739000	25.700533	0.000372	20.682314
1229.303094	-2.978500	3.585300	-10.678000	25.663420	0.000370	20.677753
1230.320411	-2.972000	3.585400	-10.655000	25.691189	0.000371	20.700431
1231.309928	-2.988000	3.584100	-10.708000	25.682195	0.000370	20.694242
1232.303151	-3.002900	3.584200	-10.762000	25.707833	0.000370	20.692017
1233.317585	-2.989300	3.583200	-10.710000	25.716223	0.000368	20.682899
1234.315006	-2.985500	3.583400	-10.697000	25.775531	0.000370	20.693635
1235.303062	-2.989000	3.582600	-10.708000	25.816174	0.000368	20.679458
1236.304389	-2.986300	3.581900	-10.696000	25.830311	0.000369	20.673269
1237.307331	-2.993500	3.582000	-10.722000	25.854917	0.000367	20.705577
1238.308335	-3.000400	3.582100	-10.747000	25.870192	0.000366	20.701954
1239.309111	-3.006700	3.580700	-10.765000	25.883310	0.000366	20.689053
1240.311372	-2.998400	3.581600	-10.738000	25.884011	0.000366	20.692129
1241.313514	-2.996400	3.580300	-10.726000	25.878385	0.000367	20.697857
1242.309871	-3.012700	3.580300	-10.786000	25.880031	0.000366	20.687655
1243.309989	-2.986400	3.580000	-10.691000	25.913882	0.000366	20.694161
1244.309745	-2.994500	3.579300	-10.716000	25.836814	0.000366	20.690709
1245.310462	-2.984600	3.580600	-10.685000	25.857353	0.000365	20.677676
1246.307458	-2.979200	3.580000	-10.665000	25.836790	0.000364	20.686891
1247.306970	-3.011200	3.577900	-10.773000	25.779373	0.000364	20.671888
1248.315646	-3.006400	3.578700	-10.758000	25.749912	0.000365	20.679280
1249.312882	-2.972700	3.578300	-10.636000	25.765368	0.000363	20.677261
1250.309368	-3.000000	3.577200	-10.731000	25.790979	0.000364	20.686867
1251.308239	-3.017500	3.575900	-10.789000	25.773455	0.000363	20.687756
1252.309798	-2.998100	3.577600	-10.725000	25.764389	0.000363	20.684339
1253.311429	-3.007600	3.577600	-10.758000	25.790809	0.000363	20.686696
1254.311727	-2.989300	3.577600	-10.694000	25.769859	0.000361	20.692679
1255.311442	-3.016600	3.575400	-10.784000	25.787484	0.000362	20.700901
1256.311922	-3.006400	3.575400	-10.747000	25.806327	0.000361	20.698966
1257.312538	-2.990200	3.575600	-10.690000	25.800663	0.000361	20.690904
1258.314622	-2.965700	3.576500	-10.606000	25.783163	0.000361	20.687076
1259.316398	-2.986000	3.575100	-10.675000	25.779664	0.000360	20.684984
1260.315725	-3.013200	3.574300	-10.768000	25.745823	0.000360	20.689872
1261.316490	-3.021000	3.573300	-10.794000	25.725948	0.000359	20.684133
1262.321274	-3.012000	3.572500	-10.760000	25.756062	0.000361	20.678819
1263.319007	-3.016700	3.572600	-10.776000	25.793100	0.000358	20.686152
1264.319065	-2.979000	3.573800	-10.646000	25.765007	0.000358	20.697289
1265.315421	-3.009900	3.571900	-10.750000	25.733563	0.000358	20.697473
1266.313947	-3.018800	3.572000	-10.783000	25.728999	0.000359	20.701424
1267.314438	-3.013400	3.572400	-10.764000	25.757843	0.000357	20.696256
1268.319486	-3.005600	3.573500	-10.739000	25.770383	0.000358	20.699844
1269.320307	-2.976400	3.572000	-10.631000	25.754320	0.000358	20.675646
1270.319870	-2.986400	3.571900	-10.666000	25.735330	0.000356	20.683599
1271.319970	-2.986300	3.571700	-10.666000	25.711449	0.000355	20.673362
1272.321752	-2.983800	3.571300	-10.655000	25.719124	0.000354	20.678226
1273.323872	-3.002900	3.570100	-10.720000	25.713726	0.000355	20.688927
1274.320555	-2.992400	3.570600	-10.684000	25.725503	0.000353	20.694119
1275.317100	-3.005800	3.570400	-10.730000	25.705253	0.000356	20.701755
1276.317483	-2.987700	3.570500	-10.667000	25.733358	0.000354	20.678299
1277.319971	-3.010500	3.568900	-10.743000	25.783166	0.000355	20.711737
1278.323158	-3.000400	3.569900	-10.710000	25.807628	0.000354	20.705015
1279.318722	-2.990400	3.569600	-10.674000	25.825989	0.000355	20.700698
1280.325185	-2.999500	3.567200	-10.699000	25.833128	0.000353	20.687006
1281.318707	-2.980900	3.568200	-10.635000	25.789656	0.000352	20.695970
1282.322806	-2.986800	3.569000	-10.660000	25.779671	0.000350	20.700165
1283.322762	-3.018100	3.567000	-10.765000	25.753892	0.000351	20.702720
1284.326377	-2.993900	3.568200	-10.682000	25.771323	0.000352	20.698892
1285.319962	-3.014200	3.566200	-10.749000	25.748009	0.000352	20.719571
1286.320139	-3.000000	3.565400	-10.695000	25.717169	0.000348	20.706137
1287.323133	-3.007000	3.567000	-10.725000	25.682138	0.000350	20.706514
1288.319641	-2.986700	3.566200	-10.651000	25.714531	0.000347	20.691158
1289.324005	-2.999800	3.565400	-10.695000	25.720244	0.000351	20.687887
1290.320921	-2.976500	3.566400	-10.614000	25.729602	0.000349	20.714358
1291.326370	-3.031800	3.564600	-10.807000	25.732872	0.000349	20.687769
1292.325857	-3.026200	3.564600	-10.785000	25.757370	0.000349	20.699101
1293.327487	-3.005400	3.565400	-10.715000	25.708276	0.000348	20.704317
1294.322968	-2.993000	3.564200	-10.667000	25.713868	0.000345	20.704718
1295.327054	-3.001900	3.563600	-10.697000	25.695870	0.000348	20.704658
1296.327929	-2.996800	3.563100	-10.677000	25.725332	0.000346	20.700112
1297.326178	-2.998100	3.562900	-10.681000	25.718081	0.000347	20.707054
1298.324434	-3.002200	3.562100	-10.693000	25.713638	0.000346	20.684097
1299.325104	-3.000200	3.562300	-10.687000	25.745242	0.000346	20.698773
1300.330081	-2.996700	3.563600	-10.678000	25.765880	0.000346	20.716185
1301.330277	-3.004500	3.562900	-10.704000	25.816534	0.000344	20.713012
1302.327605	-3.015300	3.561000	-10.737000	25.811196	0.000347	20.718556
1303.333659	-2.991300	3.562100	-10.654000	25.787316	0.000345	20.708793
1304.326887	-3.014700	3.560600	-10.733000	25.740077	0.000342	20.698800
1305.329347	-3.010200	3.560200	-10.716000	25.748998	0.000344	20.697329
1306.333243	-2.988900	3.561000	-10.643000	25.718664	0.000344	20.703846
1307.327250	-3.008300	3.559900	-10.709000	25.689021	0.000342	20.711056
1308.327055	-3.001900	3.560400	-10.687000	25.671082	0.000342	20.712479
1309.328662	-3.016600	3.559900	-10.738000	25.663421	0.000344	20.709051
1310.334467	-2.993900	3.558500	-10.653000	25.731764	0.000342	20.722220
1311.331773	-3.002500	3.558600	-10.684000	25.743867	0.000341	20.704979
1312.326690	-3.008000	3.559600	-10.707000	25.777407	0.000342	20.718280
1313.331441	-2.998200	3.558800	-10.669000	25.791276	0.000340	20.691433
1314.333253	-2.993000	3.559000	-10.651000	25.772214	0.000341	20.710219
1315.329959	-3.004000	3.556800	-10.684000	25.775460	0.000341	20.696408
1316.331654	-3.005600	3.557700	-10.692000	25.814166	0.000341	20.713953
1317.329142	-2.984300	3.557500	-10.617000	25.879158	0.000340	20.730403
1318.332425	-2.982900	3.557600	-10.611000	25.834487	0.000340	20.722039
1319.331686	-3.008600	3.556300	-10.699000	25.815256	0.000340	20.713626
1320.329962	-2.985300	3.556300	-10.616000	25.772325	0.000339	20.685673
1321.334728	-2.979700	3.557100	-10.598000	25.800078	0.000338	20.720191
1322.334231	-2.992900	3.554100	-10.635000	25.735446	0.000339	20.720229
1323.337385	-2.996500	3.554700	-10.650000	25.723621	0.000339	20.722576
1324.333579	-3.012800	3.554200	-10.707000	25.712617	0.000339	20.698720
1325.334629	-2.981600	3.555100	-10.599000	25.717824	0.000335	20.714382
1326.339470	-3.004200	3.554900	-10.679000	25.719240	0.000336	20.727185
1327.337830	-3.012400	3.553000	-10.703000	25.768757	0.000338	20.718127
1328.340097	-3.020600	3.552600	-10.730000	25.811545	0.000340	20.731711
1329.335617	-3.010700	3.552500	-10.695000	25.790363	0.000336	20.708061
1330.332371	-3.009400	3.552300	-10.689000	25.792918	0.000334	20.730543
1331.336373	-2.993900	3.553000	-10.636000	25.789843	0.000336	20.740256
1332.338099	-3.001000	3.551800	-10.658000	25.761860	0.000334	20.734908
1333.333690	-3.004500	3.552500	-10.672000	25.723395	0.000336	20.700536
1334.340609	-3.003300	3.552000	-10.668000	25.691766	0.000334	20.724246
1335.341215	-2.988000	3.551400	-10.611000	25.688052	0.000333	20.750388
1336.339096	-3.001000	3.551400	-10.657000	25.673744	0.000332	20.718946
1337.346641	-3.008700	3.550900	-10.683000	25.730090	0.000333	20.733816
1338.341398	-3.008900	3.550900	-10.683000	25.756369	0.000333	20.721805
1339.334356	-2.993800	3.549400	-10.625000	25.809504	0.000334	20.712590
1340.333827	-2.989800	3.549400	-10.611000	25.832307	0.000332	20.732652
1341.336853	-2.996000	3.548400	-10.629000	25.801008	0.000333	20.727289
1342.337965	-2.988700	3.549000	-10.606000	25.802486	0.000332	20.733516
1343.337487	-2.980300	3.549000	-10.576000	25.811042	0.000331	20.737369
1344.347329	-3.002500	3.547300	-10.650000	25.848657	0.000332	20.731058
1345.341143	-2.980700	3.548800	-10.577000	25.829537	0.000331	20.731292
1346.333753	-2.991400	3.548200	-10.613000	25.805586	0.000330	20.709127
1347.336462	-3.029800	3.547000	-10.746000	25.818851	0.000330	20.727195
1348.344027	-2.991500	3.548300	-10.613000	25.865216	0.000329	20.739158
1349.337255	-3.006500	3.548500	-10.667000	25.841532	0.000330	20.737177
1350.334792	-3.007500	3.545400	-10.662000	25.817314	0.000328	20.730392
1351.335145	-2.982100	3.547000	-10.576000	25.820014	0.000329	20.719354
1352.343183	-2.975100	3.547100	-10.551000	25.785424	0.000328	20.743404
1353.337228	-2.999200	3.545300	-10.633000	25.731864	0.000329	20.737969
1354.342662	-3.018700	3.545400	-10.701000	25.727386	0.000330	20.736790
1355.342351	-3.012600	3.544000	-10.675000	25.724772	0.000326	20.732268
1356.339847	-3.013000	3.543500	-10.676000	25.783015	0.000328	20.737191
1357.340466	-3.024800	3.542900	-10.716000	25.798557	0.000327	20.742372
1358.349751	-3.002200	3.543800	-10.638000	25.854425	0.000326	20.748707
1359.338070	-3.020700	3.542100	-10.699000	25.847491	0.000325	20.749802
1360.338968	-3.009300	3.542400	-10.659000	25.804562	0.000326	20.737024
1361.344898	-3.026900	3.541400	-10.718000	25.834469	0.000325	20.763274
1362.339814	-3.008200	3.542200	-10.654000	25.861544	0.000324	20.730253
1363.342275	-3.020500	3.540800	-10.693000	25.858278	0.000326	20.742145
1364.341470	-2.995400	3.542200	-10.610000	25.922034	0.000325	20.725113
1365.344605	-3.000900	3.540900	-10.625000	25.943613	0.000325	20.752009
1366.343932	-3.003900	3.541900	-10.638000	25.878747	0.000325	20.769822
1367.341724	-2.980800	3.542100	-10.557000	25.922073	0.000327	20.740800
1368.342674	-2.979200	3.542100	-10.551000	25.913591	0.000323	20.745081
1369.340905	-2.996600	3.539600	-10.605000	25.940712	0.000320	20.762845
1370.340676	-3.022300	3.538100	-10.691000	25.902267	0.000322	20.743188
1371.342977	-2.996900	3.539800	-10.607000	25.898647	0.000321	20.763260
1372.347806	-3.006400	3.538000	-10.636000	25.873066	0.000321	20.750363
1373.340939	-3.002300	3.538300	-10.622000	25.883075	0.000321	20.747142
1374.343039	-2.998700	3.539200	-10.612000	25.871542	0.000322	20.746936
1375.348678	-2.997100	3.538900	-10.605000	25.891064	0.000320	20.751848
1376.345884	-3.005000	3.537700	-10.630000	25.846686	0.000319	20.756580
1377.343829	-2.993900	3.537300	-10.590000	25.849917	0.000320	20.765990
1378.350651	-2.999300	3.538100	-10.611000	25.817435	0.000319	20.767025
1379.343763	-2.995000	3.537300	-10.593000	25.815911	0.000319	20.768340
1380.347353	-2.997400	3.537000	-10.601000	25.860075	0.000320	20.756280
1381.356008	-3.005600	3.537300	-10.631000	25.850913	0.000318	20.749446
1382.341999	-2.962800	3.536300	-10.477000	25.836742	0.000319	20.780731
1383.350673	-3.000000	3.535400	-10.606000	25.847866	0.000316	20.754920
1384.348785	-2.991200	3.535600	-10.574000	25.851812	0.000319	20.769316
1385.345021	-2.990700	3.535300	-10.573000	25.864979	0.000318	20.740817
1386.345467	-2.992600	3.535300	-10.579000	25.888617	0.000318	20.757926
1387.347987	-2.989300	3.534800	-10.566000	25.903127	0.000316	20.776770
1388.344503	-3.017800	3.532100	-10.658000	25.832098	0.000316	20.774169
1389.349890	-2.992400	3.533400	-10.572000	25.848064	0.000315	20.747058
1390.347471	-2.993600	3.533800	-10.578000	25.799991	0.000317	20.772262
1391.345389	-2.985000	3.532700	-10.545000	25.800657	0.000315	20.790475
1392.350666	-3.011100	3.532100	-10.635000	25.831314	0.000314	20.770536
1393.347174	-3.029000	3.531800	-10.697000	25.832307	0.000313	20.750196
1394.344945	-2.983100	3.532300	-10.536000	25.818341	0.000314	20.763668
1395.344993	-3.018900	3.532200	-10.663000	25.819212	0.000314	20.780665
1396.350021	-3.017300	3.532000	-10.656000	25.765424	0.000315	20.774999
1397.347286	-3.020700	3.531100	-10.665000	25.761214	0.000313	20.782150
1398.346219	-3.009800	3.530800	-10.626000	25.806276	0.000313	20.766248
1399.347017	-3.021700	3.530700	-10.668000	25.833834	0.000314	20.775438
1400.350334	-2.985900	3.530500	-10.540000	25.840310	0.000314	20.780048
1401.352885	-3.012800	3.528800	-10.630000	25.849521	0.000310	20.772705
1402.346338	-2.982500	3.529500	-10.526000	25.852728	0.000312	20.776401
1403.346938	-2.990900	3.531000	-10.560000	25.861092	0.000312	20.764414
1404.346966	-2.998700	3.528200	-10.579000	25.860548	0.000313	20.765289
1405.352693	-3.012100	3.527700	-10.624000	25.851472	0.000310	20.787941
1406.345636	-2.981900	3.528600	-10.521000	25.858396	0.000311	20.777827
1407.351525	-2.992300	3.527800	-10.555000	25.822426	0.000311	20.772988
1408.346914	-2.996800	3.526600	-10.568000	25.809369	0.000311	20.783579
1409.353487	-3.018700	3.527700	-10.648000	25.846103	0.000309	20.768323
1410.349850	-3.005100	3.527900	-10.601000	25.881659	0.000308	20.784601
1411.351553	-3.017900	3.526200	-10.641000	25.884928	0.000309	20.780299
1412.348648	-3.004500	3.525400	-10.591000	25.925387	0.000308	20.785382
1413.351494	-2.999400	3.526900	-10.578000	25.925096	0.000307	20.785563
1414.349424	-3.002300	3.524200	-10.580000	25.885741	0.000307	20.793917
1415.349751	-3.001700	3.523700	-10.576000	25.878602	0.000305	20.766831
1416.350081	-2.995400	3.523700	-10.554000	25.856744	0.000307	20.768107
1417.357494	-2.998100	3.525500	-10.569000	25.883443	0.000306	20.774065
1418.354293	-3.000300	3.525800	-10.576000	25.883214	0.000308	20.795646
1419.350547	-2.987500	3.525100	-10.530000	25.867565	0.000307	20.793676
1420.353315	-3.004500	3.524600	-10.589000	25.877901	0.000307	20.777506
1421.352623	-2.999600	3.525100	-10.573000	25.873351	0.000306	20.791428
1422.350947	-3.019500	3.521900	-10.633000	25.929385	0.000306	20.799356
1423.357383	-3.018800	3.523300	-10.635000	25.923142	0.000304	20.798300
1424.353431	-2.984600	3.522100	-10.510000	25.930367	0.000304	20.792756
1425.353202	-2.988900	3.521600	-10.525000	25.943423	0.000304	20.794018
1426.356820	-2.992700	3.522100	-10.539000	25.934844	0.000305	20.802469
1427.355656	-2.987500	3.521300	-10.519000	25.909455	0.000305	20.793558
1428.351168	-3.011600	3.519600	-10.598000	25.944901	0.000305	20.792184
1429.358474	-2.998400	3.520400	-10.555000	25.927706	0.000303	20.795772
1430.353060	-2.983000	3.521300	-10.503000	25.920723	0.000304	20.792076
1431.352352	-2.981200	3.519300	-10.491000	25.943281	0.000303	20.809522
1432.352502	-3.002500	3.518900	-10.564000	25.960695	0.000303	20.788611
1433.354709	-2.984100	3.520800	-10.505000	25.956423	0.000305	20.769620
1434.350962	-2.989900	3.517800	-10.517000	25.962451	0.000304	20.817876
1435.353050	-3.025500	3.519800	-10.647000	25.935875	0.000301	20.796867
1436.355901	-2.997400	3.519300	-10.547000	25.923555	0.000303	20.812465
1437.354626	-2.991900	3.519300	-10.529000	25.880327	0.000304	20.785633
1438.356509	-3.004800	3.517100	-10.567000	25.891533	0.000302	20.804478
1439.358320	-3.028000	3.515000	-10.642000	25.887733	0.000301	20.806350
1440.356973	-2.995700	3.517600	-10.537000	25.908924	0.000299	20.810568
1441.356560	-3.005900	3.517500	-10.573000	25.899158	0.000301	20.803603
1442.359278	-2.972000	3.517400	-10.453000	25.918776	0.000298	20.819044
1443.355162	-2.990500	3.516700	-10.515000	25.925443	0.000300	20.789231
1444.359068	-3.008600	3.515200	-10.575000	25.949888	0.000299	20.799565
1445.357741	-2.992200	3.515000	-10.517000	25.937402	0.000298	20.800298
1446.355021	-2.985900	3.515700	-10.497000	25.918849	0.000299	20.808212
1447.357662	-2.989100	3.513800	-10.503000	25.854245	0.000298	20.817754
1448.354596	-2.970400	3.515000	-10.440000	25.873028	0.000299	20.803432
1449.362282	-3.002200	3.513700	-10.548000	25.871602	0.000297	20.817172
1450.356647	-2.981100	3.514500	-10.476000	25.860152	0.000297	20.821791
1451.357725	-2.988600	3.513300	-10.499000	25.837399	0.000297	20.812210
1452.358683	-2.994500	3.512200	-10.516000	25.821545	0.000296	20.820940
1453.355968	-2.982100	3.513900	-10.478000	25.857963	0.000295	20.800151
1454.357570	-2.984000	3.512800	-10.481000	25.865490	0.000295	20.801075
1455.359015	-3.002000	3.512700	-10.544000	25.896024	0.000296	20.815627
1456.359896	-3.013000	3.512100	-10.581000	25.918825	0.000294	20.814825
1457.354931	-3.000600	3.510500	-10.532000	25.950846	0.000296	20.826606
1458.363556	-3.029200	3.510500	-10.634000	25.918402	0.000294	20.837159
1459.358153	-3.003600	3.509400	-10.540000	25.882968	0.000294	20.811520
1460.361084	-3.002100	3.510000	-10.537000	25.908212	0.000294	20.835932
1461.364790	-2.998500	3.510000	-10.524000	25.922892	0.000295	20.812747
1462.360239	-3.015400	3.509200	-10.581000	25.887868	0.000293	20.832090
1463.361001	-3.001200	3.509300	-10.532000	25.918391	0.000294	20.821976
1464.360058	-3.002100	3.508800	-10.532000	25.928945	0.000294	20.800336
1465.360757	-2.990700	3.508400	-10.491000	25.924298	0.000294	20.813211
1466.359406	-3.009300	3.508700	-10.558000	25.917461	0.000293	20.829102
1467.366624	-2.991900	3.508400	-10.495000	25.948539	0.000291	20.809115
1468.362939	-2.997200	3.507100	-10.511000	25.956999	0.000292	20.815244
1469.361500	-3.004800	3.507400	-10.538000	25.961729	0.000291	20.843229
1470.364317	-3.004700	3.506700	-10.536000	25.931791	0.000288	20.844445
1471.359571	-3.001400	3.507100	-10.526000	25.906561	0.000292	20.815781
1472.364214	-3.038900	3.505700	-10.653000	25.890236	0.000289	20.828304
1473.366618	-3.006800	3.506200	-10.541000	25.854690	0.000290	20.823416
1474.367767	-3.022000	3.505500	-10.592000	25.906040	0.000290	20.833749
1475.371181	-3.034800	3.503900	-10.632000	25.949257	0.000288	20.829277
1476.366190	-3.008800	3.505400	-10.546000	25.989144	0.000287	20.830943
1477.364691	-3.012300	3.503300	-10.552000	25.987257	0.000287	20.837581
1478.361882	-3.001500	3.503700	-10.515000	25.965439	0.000288	20.842214
1479.375622	-2.984300	3.504000	-10.455000	25.979914	0.000288	20.832101
1480.362335	-3.012400	3.503600	-10.552000	25.955868	0.000288	20.840186
1481.366170	-3.029300	3.501800	-10.606000	25.924864	0.000288	20.826108
1482.367144	-3.031500	3.501900	-10.615000	25.902633	0.000287	20.831275
1483.366385	-2.979800	3.502200	-10.435000	25.919818	0.000287	20.856599
1484.366296	-2.972300	3.502900	-10.409000	25.976274	0.000288	20.845987
1485.367434	-3.023500	3.500100	-10.581000	25.966727	0.000285	20.825965
1486.368267	-3.012700	3.501600	-10.548000	25.942078	0.000286	20.837236
1487.367066	-3.019300	3.500000	-10.567000	25.926346	0.000285	20.829493
1488.371225	-3.014900	3.501000	-10.554000	25.921165	0.000284	20.847047
1489.364469	-2.965000	3.502600	-10.385000	25.900860	0.000282	20.849881
1490.363801	-2.997400	3.500200	-10.491000	25.914245	0.000285	20.838199
1491.367435	-2.993200	3.499600	-10.474000	25.950285	0.000284	20.824620
1492.366894	-3.008400	3.499400	-10.527000	25.950237	0.000282	20.837847
1493.368095	-3.031100	3.497900	-10.601000	25.921641	0.000283	20.843258
1494.369714	-3.000400	3.498800	-10.497000	25.880748	0.000282	20.826834
1495.367448	-2.994900	3.499500	-10.480000	25.877736	0.000283	20.833764
1496.373563	-2.987900	3.498400	-10.452000	25.940641	0.000283	20.837690
1497.371979	-2.988900	3.498500	-10.456000	25.935464	0.000281	20.850032
1498.367439	-2.994500	3.496600	-10.469000	25.909869	0.000282	20.844234
1499.369034	-3.013600	3.496900	-10.537000	25.937681	0.000280	20.850837
1500.369349	-2.994200	3.496400	-10.468000	25.967040	0.000281	20.848564
1501.370557	-2.993400	3.496800	-10.466000	25.951865	0.000281	20.838534
1502.366939	-3.004000	3.495800	-10.501000	25.967478	0.000279	20.839047
1503.374940	-2.991000	3.497000	-10.459000	25.963084	0.000279	20.828469
1504.366899	-3.036000	3.494600	-10.609000	25.992734	0.000280	20.822222
1505.370043	-3.008700	3.495300	-10.515000	26.029559	0.000280	20.816546
1506.371499	-3.005500	3.495600	-10.505000	26.064904	0.000277	20.824558
1507.369944	-2.998000	3.495100	-10.477000	26.030284	0.000279	20.820594
1508.369190	-2.989400	3.494800	-10.447000	25.995424	0.000279	20.821131
1509.370067	-2.972800	3.494500	-10.387000	25.988500	0.000278	20.822710
1510.370517	-2.985300	3.493600	-10.429000	25.957682	0.000277	20.829680
1511.373682	-3.000900	3.492900	-10.481000	25.980832	0.000277	20.843454
1512.376424	-3.004800	3.494300	-10.499000	26.036257	0.000274	20.802887
1513.379292	-2.995800	3.492200	-10.460000	26.002604	0.000277	20.816965
1514.370894	-2.999800	3.492800	-10.477000	26.006476	0.000277	20.797623
1515.371542	-2.991900	3.493600	-10.452000	25.974520	0.000273	20.807716
1516.373589	-2.989200	3.491700	-10.437000	25.951696	0.000275	20.814183
1517.372448	-2.974900	3.491000	-10.385000	25.964584	0.000276	20.810536
1518.375512	-2.997700	3.490600	-10.463000	25.982859	0.000275	20.825577
1519.372169	-2.995900	3.491100	-10.458000	26.033731	0.000274	20.823108
1520.371972	-2.987600	3.491100	-10.429000	26.047927	0.000273	20.807974
1521.379293	-2.997700	3.490300	-10.462000	26.024355	0.000273	20.832180
1522.378492	-2.987400	3.490300	-10.427000	25.977331	0.000273	20.823342
1523.378556	-2.992500	3.489400	-10.440000	25.933064	0.000272	20.816328
1524.379568	-2.995000	3.489000	-10.448000	25.916705	0.000273	20.806531
1525.378714	-3.005300	3.487800	-10.481000	25.925648	0.000272	20.819783
1526.379591	-2.993600	3.488700	-10.442000	25.964967	0.000271	20.811395
1527.381202	-2.998800	3.489000	-10.462000	26.004367	0.000271	20.829168
1528.379249	-3.026200	3.487900	-10.554000	26.066180	0.000273	20.806399
1529.381498	-3.010100	3.486800	-10.494000	26.060624	0.000275	20.805559
1530.388256	-3.009600	3.486000	-10.490000	26.007238	0.000271	20.811663
1531.380107	-3.006300	3.486100	-10.479000	25.966820	0.000273	20.795713
1532.381731	-3.009800	3.486000	-10.492000	25.933530	0.000267	20.795459
1533.386621	-3.017700	3.486300	-10.520000	25.944010	0.000270	20.806936
1534.378317	-2.990100	3.486500	-10.424000	25.998975	0.000268	20.789138
1535.383771	-3.000900	3.484200	-10.455000	25.997778	0.000268	20.811169
1536.383689	-3.008200	3.483900	-10.479000	25.965481	0.000268	20.811437
1537.382647	-3.021400	3.483900	-10.525000	25.988909	0.000268	20.810318
1538.382675	-3.002600	3.484100	-10.460000	25.989370	0.000269	20.797506
1539.382539	-3.019100	3.483000	-10.514000	25.998143	0.000266	20.809164
1540.384047	-2.983800	3.483400	-10.393000	26.041779	0.000267	20.806539
1541.381714	-2.988400	3.482500	-10.407000	26.071947	0.000267	20.804608
1542.382996	-2.996700	3.483300	-10.438000	26.062704	0.000268	20.792001
1543.383027	-3.013700	3.482100	-10.493000	26.032438	0.000266	20.801895
1544.384355	-3.015300	3.482200	-10.499000	26.033396	0.000267	20.822298
1545.380945	-3.006500	3.481900	-10.467000	26.062499	0.000266	20.803649
1546.383644	-3.011900	3.481700	-10.485000	26.040246	0.000265	20.809266
1547.379887	-3.018400	3.480500	-10.504000	26.018357	0.000266	20.811455
1548.383709	-3.025400	3.480700	-10.530000	26.010441	0.000264	20.819150
1549.387031	-2.985200	3.481600	-10.393000	26.015355	0.000262	20.789948
1550.381794	-3.016700	3.480000	-10.497000	26.043213	0.000263	20.796126
1551.384581	-2.986400	3.480000	-10.391000	26.014134	0.000267	20.783031
1552.383963	-2.983100	3.480400	-10.382000	26.032286	0.000264	20.798898
1553.383506	-3.008800	3.479400	-10.468000	25.983083	0.000262	20.795931
1554.385515	-2.997700	3.479200	-10.428000	25.997411	0.000263	20.782825
1555.383606	-3.010600	3.477400	-10.468000	26.036631	0.000262	20.796150
1556.391938	-3.024500	3.477600	-10.516000	26.039209	0.000264	20.805379
1557.383740	-2.990500	3.477500	-10.398000	25.984756	0.000263	20.790973
1558.386611	-3.008700	3.476400	-10.458000	25.956862	0.000261	20.791399
1559.384800	-2.994700	3.478100	-10.415000	25.959149	0.000260	20.793222
1560.384163	-2.986000	3.478300	-10.385000	26.003561	0.000260	20.791374
1561.383399	-3.006500	3.477100	-10.453000	25.994924	0.000260	20.774162
1562.383594	-2.977000	3.477500	-10.352000	26.024944	0.000260	20.789624
1563.386522	-3.016000	3.476600	-10.484000	26.004023	0.000262	20.778087
1564.388081	-2.975300	3.477500	-10.346000	26.009710	0.000260	20.786647
1565.384514	-2.988200	3.476600	-10.388000	26.017480	0.000258	20.795875
1566.394136	-3.024100	3.474200	-10.504000	26.006431	0.000259	20.794258
1567.399811	-3.003700	3.474500	-10.435000	25.976202	0.000261	20.769577
1568.390355	-2.987900	3.473600	-10.378000	25.920840	0.000256	20.786978
1569.389975	-3.022400	3.473500	-10.497000	25.951976	0.000260	20.787438
1570.388955	-2.996000	3.474400	-10.408000	25.941836	0.000255	20.792898
1571.396266	-2.978700	3.473500	-10.344000	25.981529	0.000258	20.789628
1572.390178	-2.988900	3.473600	-10.381000	26.002781	0.000258	20.782056
1573.393262	-3.007600	3.472600	-10.443000	25.995663	0.000257	20.779646
1574.389634	-3.003300	3.471400	-10.425000	26.002815	0.000256	20.796789
1575.391670	-3.011000	3.472800	-10.455000	25.986190	0.000256	20.779137
1576.392550	-2.993100	3.471900	-10.391000	25.997069	0.000256	20.772998
1577.391695	-3.014100	3.472600	-10.466000	26.050893	0.000255	20.761168
1578.394189	-2.994800	3.471500	-10.396000	26.072966	0.000255	20.765328
1579.396325	-2.998500	3.471900	-10.409000	26.080891	0.000256	20.787990
1580.392611	-3.011800	3.468800	-10.447000	26.031038	0.000256	20.781997
1581.392349	-2.987600	3.471000	-10.369000	26.046938	0.000253	20.780902
1582.397469	-2.985000	3.470300	-10.358000	26.088514	0.000253	20.762458
1583.393425	-2.974400	3.471000	-10.323000	26.052601	0.000252	20.775212
1584.393410	-2.974400	3.469800	-10.320000	26.050012	0.000254	20.766921
1585.392310	-2.988500	3.468900	-10.366000	26.060273	0.000251	20.760635
1586.391132	-2.983900	3.468900	-10.350000	26.042958	0.000251	20.784015
1587.393787	-3.006700	3.467900	-10.426000	26.060321	0.000255	20.782969
1588.393325	-2.965800	3.468400	-10.285000	26.030566	0.000252	20.750228
1589.391818	-3.000700	3.467400	-10.404000	26.046684	0.000250	20.766423
1590.390600	-2.958700	3.467600	-10.259000	26.026864	0.000250	20.775906
1591.394438	-3.015300	3.466300	-10.450000	26.053788	0.000252	20.760283
1592.393701	-2.994100	3.467600	-10.381000	26.101946	0.000250	20.758885
1593.395595	-3.009100	3.466300	-10.429000	26.085999	0.000249	20.773682
1594.394824	-2.988000	3.467000	-10.358000	26.032624	0.000250	20.780271
1595.394495	-3.005000	3.465400	-10.412000	26.043648	0.000248	20.764794
1596.393008	-2.997800	3.465100	-10.387000	26.036399	0.000248	20.755140
1597.399375	-3.009800	3.464500	-10.427000	26.034911	0.000249	20.775456
1598.395719	-3.027200	3.463400	-10.483000	26.009208	0.000248	20.749157
1599.393034	-3.011200	3.465300	-10.434000	26.007514	0.000249	20.760733
1600.398695	-3.004200	3.464600	-10.406000	25.991638	0.000249	20.767068
1601.393334	-3.008600	3.464500	-10.422000	25.936760	0.000248	20.779738
1602.391782	-2.991100	3.463900	-10.360000	25.992607	0.000248	20.781791
1603.395829	-3.012100	3.462800	-10.430000	25.992159	0.000247	20.754788
1604.393147	-3.024400	3.463000	-10.472000	26.005363	0.000248	20.762839
1605.392252	-3.000300	3.463200	-10.390000	25.980131	0.000247	20.753610
1606.396947	-2.996000	3.462500	-10.372000	26.022426	0.000248	20.755799
1607.394349	-3.010800	3.462000	-10.422000	26.066703	0.000246	20.751923
1608.394909	-3.007600	3.462600	-10.413000	26.049058	0.000245	20.769756
1609.399206	-3.019800	3.461300	-10.451000	26.014851	0.000245	20.751982
1610.394389	-3.003500	3.461800	-10.397000	26.006974	0.000246	20.744541
1611.396792	-3.016200	3.461200	-10.439000	26.038423	0.000243	20.761441
1612.401371	-2.998800	3.460200	-10.376000	25.997233	0.000246	20.761783
1613.393461	-2.988200	3.461400	-10.343000	25.983245	0.000245	20.746306
1614.395146	-3.007800	3.459600	-10.405000	25.973903	0.000244	20.746878
1615.400942	-3.005100	3.459400	-10.395000	25.991331	0.000243	20.767232
1616.394385	-2.983200	3.460000	-10.321000	26.014855	0.000243	20.771901
1617.396781	-2.994400	3.459200	-10.357000	26.017312	0.000241	20.760618
1618.408905	-2.970900	3.458600	-10.274000	26.063185	0.000241	20.753604
1619.396413	-2.992700	3.458500	-10.350000	26.020494	0.000241	20.760971
1620.399099	-2.990300	3.458200	-10.340000	26.061638	0.000243	20.765800
1621.401857	-3.020200	3.456800	-10.440000	26.029971	0.000240	20.747732
1622.397931	-2.995200	3.456800	-10.353000	25.968136	0.000242	20.742981
1623.401060	-2.982200	3.458300	-10.313000	25.961227	0.000239	20.762118
1624.401090	-3.000700	3.457600	-10.375000	25.927669	0.000239	20.777243
1625.402734	-2.972100	3.456300	-10.272000	25.959981	0.000240	20.749961
1626.401404	-2.998700	3.456000	-10.363000	26.045485	0.000239	20.758105
1627.400901	-3.029500	3.454400	-10.464000	26.079005	0.000239	20.755274
1628.402042	-2.998600	3.455900	-10.361000	26.073897	0.000242	20.739710
1629.404650	-3.016100	3.453500	-10.416000	26.113843	0.000241	20.752346
1630.407730	-2.988500	3.454900	-10.324000	26.131955	0.000237	20.739250
1631.399128	-2.986200	3.455600	-10.318000	26.125966	0.000238	20.746509
1632.406590	-3.000400	3.454200	-10.363000	26.051878	0.000238	20.765002
1633.408178	-2.990700	3.454600	-10.330000	25.985977	0.000238	20.727713
1634.400358	-3.000800	3.453800	-10.363000	25.993372	0.000238	20.732298
1635.406845	-3.012300	3.452700	-10.399000	25.997352	0.000236	20.745781
1636.414593	-3.007200	3.453000	-10.382000	26.041509	0.000234	20.754110
1637.402399	-2.994600	3.452900	-10.339000	26.022258	0.000236	20.749941
1638.404025	-3.014200	3.451900	-10.403000	26.049303	0.000236	20.750087
1639.405715	-3.000500	3.451100	-10.354000	26.056576	0.000236	20.733212
1640.404248	-3.002800	3.452000	-10.365000	26.060133	0.000236	20.726354
1641.400958	-2.996400	3.450400	-10.337000	26.029663	0.000236	20.741733
1642.404719	-3.009500	3.451200	-10.386000	26.071605	0.000235	20.743097
1643.404670	-3.028300	3.450000	-10.447000	26.039466	0.000236	20.716968
1644.407790	-3.000900	3.449500	-10.351000	26.073916	0.000235	20.732142
1645.407699	-2.990200	3.451700	-10.320000	26.018097	0.000234	20.735803
1646.403138	-3.011800	3.449000	-10.387000	26.004703	0.000233	20.726138
1647.417548	-2.991200	3.448900	-10.315000	26.028300	0.000232	20.744157
1648.405789	-2.996400	3.450000	-10.337000	26.032922	0.000233	20.738369
1649.409266	-2.992500	3.449500	-10.322000	26.078372	0.000233	20.750844
1650.406569	-3.004300	3.447500	-10.355000	26.069201	0.000232	20.739258
1651.408134	-3.020700	3.447800	-10.414000	26.059957	0.000234	20.738031
1652.409137	-2.981000	3.448800	-10.280000	26.027755	0.000232	20.711365
1653.403962	-2.999200	3.447500	-10.339000	26.022977	0.000231	20.739283
1654.406754	-3.049200	3.444700	-10.502000	26.064652	0.000230	20.716669
1655.416892	-3.029100	3.444600	-10.433000	26.106967	0.000231	20.703235
1656.406250	-2.988800	3.446200	-10.300000	26.103640	0.000231	20.729765
1657.408823	-2.991400	3.446300	-10.309000	26.136769	0.000230	20.721327
1658.407879	-2.997300	3.446100	-10.328000	26.131908	0.000229	20.719762
1659.407153	-2.987300	3.445700	-10.292000	26.144902	0.000230	20.719068
1660.414848	-2.981900	3.444300	-10.270000	26.130371	0.000229	20.715372
1661.407492	-2.999700	3.444700	-10.332000	26.125978	0.000230	20.709536
1662.407982	-2.992300	3.444000	-10.304000	26.141297	0.000230	20.737732
1663.411469	-3.010600	3.443900	-10.367000	26.108606	0.000229	20.697294
1664.408837	-2.990900	3.444200	-10.300000	26.135274	0.000227	20.732154
1665.413155	-2.996100	3.443100	-10.315000	26.139716	0.000228	20.724762
1666.410754	-3.002100	3.442900	-10.335000	26.145583	0.000230	20.715484
1667.413290	-3.001400	3.443700	-10.335000	26.123842	0.000227	20.706440
1668.411102	-2.985100	3.441900	-10.273000	26.131996	0.000227	20.726488
1669.413514	-3.001400	3.441700	-10.328000	26.112239	0.000227	20.718490
1670.414587	-3.021900	3.440800	-10.396000	26.058744	0.000228	20.734916
1671.413742	-3.013600	3.441600	-10.371000	26.012048	0.000226	20.727353
1672.412165	-2.975900	3.441400	-10.240000	26.015969	0.000225	20.710429
1673.412722	-2.993700	3.440200	-10.298000	25.989457	0.000224	20.714613
1674.424862	-2.983200	3.441300	-10.265000	26.008554	0.000224	20.719101
1675.418487	-2.974000	3.441000	-10.233000	26.033143	0.000226	20.720098
1676.415610	-2.979800	3.439700	-10.248000	26.075640	0.000224	20.698310
1677.410656	-3.011000	3.439100	-10.353000	26.034243	0.000224	20.708874
1678.416279	-2.999900	3.437800	-10.313000	26.053036	0.000223	20.716852
1679.416027	-2.999000	3.438600	-10.311000	26.065958	0.000224	20.704704
1680.415390	-3.026800	3.438900	-10.408000	26.048862	0.000223	20.697009
1681.413443	-3.011400	3.438300	-10.354000	26.038796	0.000223	20.703966
1682.414666	-2.998300	3.438000	-10.307000	26.080373	0.000224	20.688366
1683.414478	-3.003300	3.437100	-10.323000	26.072604	0.000222	20.708062
1684.412412	-2.996400	3.436800	-10.297000	26.077639	0.000222	20.716441
1685.416233	-3.014300	3.437200	-10.360000	26.052846	0.000220	20.709074
1686.416857	-2.992500	3.437300	-10.285000	26.030967	0.000222	20.692306
1687.416349	-3.015300	3.436100	-10.360000	26.059828	0.000221	20.713718
1688.418737	-2.994700	3.436100	-10.289000	26.033896	0.000222	20.697146
1689.417364	-3.000400	3.435600	-10.307000	26.020877	0.000221	20.712515
1690.419333	-3.004000	3.434900	-10.317000	26.032519	0.000222	20.698607
1691.418133	-3.006400	3.433900	-10.323000	26.039067	0.000220	20.698548
1692.416710	-3.005600	3.434800	-10.323000	26.040858	0.000220	20.693708
1693.421299	-2.998300	3.435000	-10.299000	26.095891	0.000220	20.711073
1694.418278	-2.980300	3.435900	-10.238000	26.021124	0.000220	20.707073
1695.418370	-2.971800	3.434400	-10.205000	26.029376	0.000220	20.697820
1696.425173	-2.981100	3.433300	-10.235000	26.041417	0.000218	20.707073
1697.422868	-3.004100	3.432300	-10.310000	26.065932	0.000220	20.697565
1698.421515	-3.005000	3.432400	-10.313000	26.122370	0.000220	20.707332
1699.423598	-3.002400	3.432500	-10.305000	26.152872	0.000217	20.696729
1700.425516	-3.013600	3.431600	-10.341000	26.155693	0.000218	20.692925
1701.422928	-3.005200	3.431400	-10.311000	26.126354	0.000216	20.699481
1702.424179	-2.996300	3.431800	-10.281000	26.111434	0.000216	20.684487
1703.423204	-3.017500	3.431100	-10.352000	26.086836	0.000214	20.713354
1704.425154	-3.011600	3.430800	-10.332000	26.062988	0.000214	20.724480
1705.426273	-3.001100	3.431200	-10.296000	26.084199	0.000214	20.697901
1706.422783	-3.008400	3.430100	-10.319000	26.048684	0.000216	20.683553
1707.426717	-2.992800	3.429600	-10.263000	26.086452	0.000215	20.717235
1708.425593	-3.002800	3.429600	-10.298000	26.090397	0.000214	20.686584
1709.426242	-3.014300	3.427900	-10.331000	26.102520	0.000213	20.684540
1710.426426	-2.993900	3.430100	-10.269000	26.072017	0.000215	20.703205
1711.427674	-3.017000	3.427600	-10.340000	26.043653	0.000214	20.693672
1712.424809	-2.994900	3.428400	-10.266000	26.018957	0.000212	20.697783
1713.425256	-2.989400	3.427800	-10.246000	26.060559	0.000213	20.672724
1714.430186	-3.003100	3.428300	-10.294000	26.104748	0.000213	20.677295
1715.427395	-3.003300	3.427200	-10.291000	26.136948	0.000213	20.688314
1716.429595	-3.020900	3.427400	-10.352000	26.158509	0.000211	20.682951
1717.426339	-3.008600	3.426000	-10.306000	26.180589	0.000211	20.690915
1718.430227	-2.990600	3.426300	-10.247000	26.138495	0.000212	20.675643
1719.429974	-2.997200	3.426100	-10.267000	26.177495	0.000211	20.706773
1720.431005	-2.995100	3.425200	-10.258000	26.213876	0.000211	20.694967
1721.427627	-2.992100	3.425700	-10.249000	26.212218	0.000212	20.681445
1722.429183	-3.002500	3.424700	-10.281000	26.203350	0.000209	20.694820
1723.428679	-3.041600	3.423700	-10.412000	26.185045	0.000211	20.667415
1724.427001	-3.007500	3.423800	-10.295000	26.147066	0.000210	20.670030
1725.428111	-2.999300	3.423000	-10.264000	26.113178	0.000206	20.709002
1726.427416	-2.988800	3.424900	-10.235000	26.080856	0.000209	20.673677
1727.432657	-3.025200	3.422000	-10.351000	26.089583	0.000208	20.680076
1728.428219	-3.008700	3.422800	-10.298000	26.088566	0.000209	20.704186
1729.432789	-3.010100	3.422500	-10.301000	26.115017	0.000208	20.693779
1730.431537	-3.002400	3.422800	-10.275000	26.080593	0.000208	20.674361
1731.430752	-3.021200	3.421900	-10.337000	26.084382	0.000207	20.705672
1732.429551	-3.007000	3.421000	-10.286000	26.059395	0.000207	20.718974
1733.431072	-3.005800	3.421800	-10.284000	26.095674	0.000208	20.695680
1734.431460	-2.985700	3.421800	-10.215000	26.160867	0.000206	20.683898
1735.432214	-2.987600	3.420300	-10.217000	26.128862	0.000206	20.687301
1736.435046	-3.000600	3.420500	-10.263000	26.115396	0.000206	20.694634
1737.431946	-2.973100	3.420500	-10.169000	26.119088	0.000207	20.685541
1738.429901	-3.005400	3.418600	-10.274000	26.096316	0.000204	20.684944
1739.432563	-2.988900	3.420500	-10.223000	26.070847	0.000207	20.698236
1740.433135	-2.983200	3.419500	-10.200000	26.082076	0.000205	20.680593
1741.431263	-2.998900	3.418300	-10.250000	26.101958	0.000203	20.704366
1742.435309	-2.997000	3.418700	-10.244000	26.126001	0.000203	20.691064
1743.434733	-2.998100	3.419100	-10.250000	26.134168	0.000203	20.674140
1744.438601	-2.995200	3.417800	-10.236000	26.169826	0.000203	20.693376
1745.433248	-3.002000	3.416500	-10.255000	26.137160	0.000204	20.707494
1746.433279	-2.986300	3.418200	-10.207000	26.092802	0.000202	20.684259
1747.438933	-3.018200	3.416100	-10.310000	26.107066	0.000202	20.699067
1748.439239	-3.000700	3.416000	-10.249000	26.087587	0.000202	20.705573
1749.440069	-2.998300	3.416000	-10.242000	26.081574	0.000200	20.700479
1750.436817	-3.023200	3.415900	-10.325000	26.048627	0.000201	20.684918
1751.438931	-3.008300	3.415500	-10.274000	26.100693	0.000203	20.689817
1752.436917	-2.970200	3.418100	-10.152000	26.072972	0.000201	20.680455
1753.439535	-3.022600	3.415700	-10.323000	26.102060	0.000202	20.691665
1754.438707	-3.016600	3.413900	-10.297000	26.117282	0.000201	20.703168
1755.442741	-2.997700	3.414500	-10.234000	26.111391	0.000201	20.698196
1756.440594	-3.002400	3.414800	-10.252000	26.071717	0.000199	20.692471
1757.438004	-3.009700	3.413800	-10.273000	26.103188	0.000200	20.709395
1758.440790	-2.967100	3.414400	-10.130000	26.168488	0.000198	20.692506
1759.441859	-2.995300	3.412800	-10.222000	26.206276	0.000199	20.680689
1760.442372	-2.992300	3.412600	-10.211000	26.212663	0.000199	20.689005
1761.440474	-2.982000	3.413000	-10.177000	26.185455	0.000198	20.704340
1762.439824	-2.988100	3.413100	-10.198000	26.176753	0.000200	20.703656
1763.441426	-2.988500	3.412400	-10.197000	26.168624	0.000199	20.722042
1764.443980	-2.994000	3.412100	-10.215000	26.174783	0.000197	20.699780
1765.443554	-2.980400	3.411100	-10.166000	26.218120	0.000199	20.722941
1766.445196	-2.992500	3.411300	-10.208000	26.180771	0.000196	20.687778
1767.441882	-3.025900	3.410100	-10.317000	26.193511	0.000196	20.680191
1768.443153	-2.987200	3.410300	-10.186000	26.164076	0.000197	20.689020
1769.444234	-2.987500	3.410400	-10.188000	26.195350	0.000197	20.707171
1770.441704	-2.987100	3.411300	-10.189000	26.154225	0.000196	20.683388
1771.443443	-2.993000	3.409200	-10.203000	26.146626	0.000194	20.697565
1772.442108	-2.979700	3.410800	-10.162000	26.149423	0.000194	20.722663
1773.444777	-2.988900	3.409200	-10.189000	26.160228	0.000193	20.709337
1774.452122	-3.003900	3.408700	-10.239000	26.169884	0.000193	20.693434
1775.445457	-3.010800	3.408500	-10.261000	26.171421	0.000193	20.711575
1776.448556	-2.985400	3.408500	-10.175000	26.150041	0.000194	20.715696
1777.443938	-3.008500	3.407300	-10.250000	26.146377	0.000193	20.691151
1778.447723	-3.002500	3.407500	-10.229000	26.118692	0.000193	20.708378
1779.446197	-3.020300	3.406000	-10.286000	26.109230	0.000192	20.683221
1780.445420	-3.010100	3.407000	-10.255000	26.144563	0.000193	20.711140
1781.444165	-3.017100	3.406200	-10.276000	26.213781	0.000194	20.705777
1782.446851	-3.002000	3.406400	-10.226000	26.248940	0.000191	20.696064
1783.447896	-3.005000	3.405800	-10.233000	26.280445	0.000192	20.690740
1784.448930	-2.993300	3.405300	-10.192000	26.248108	0.000192	20.709927
1785.447514	-3.000700	3.404900	-10.217000	26.195359	0.000191	20.701964
1786.447262	-2.999100	3.405300	-10.211000	26.168244	0.000189	20.682776
1787.449691	-3.023300	3.403000	-10.287000	26.199231	0.000189	20.708226
1788.445698	-2.999300	3.404900	-10.211000	26.228052	0.000191	20.722490
1789.448773	-3.002800	3.403400	-10.218000	26.275780	0.000190	20.709287
1790.446038	-3.017800	3.402900	-10.269000	26.252563	0.000189	20.721992
1791.447969	-3.003800	3.402100	-10.218000	26.193680	0.000191	20.686525
1792.448168	-2.998500	3.401600	-10.198000	26.168467	0.000189	20.691536
1793.449435	-2.994400	3.402100	-10.186000	26.208371	0.000189	20.703185
1794.450270	-2.987100	3.402800	-10.163000	26.191880	0.000190	20.702261
1795.449014	-2.988700	3.400800	-10.163000	26.172971	0.000187	20.706495
1796.450074	-2.992300	3.401800	-10.179000	26.145228	0.000188	20.708489
1797.451690	-2.985400	3.402200	-10.156000	26.133553	0.000190	20.702447
1798.451097	-2.980900	3.401200	-10.138000	26.139775	0.000187	20.726718
1799.448895	-2.989900	3.400100	-10.165000	26.149684	0.000187	20.724347
1800.449882	-2.973900	3.401200	-10.114000	26.170689	0.000187	20.694243
1801.448162	-2.997900	3.400000	-10.192000	26.169361	0.000188	20.718041
1802.451696	-2.992800	3.399300	-10.172000	26.192156	0.000189	20.712971
1803.451341	-3.002300	3.399000	-10.204000	26.191033	0.000188	20.709945
1804.453853	-2.984100	3.399300	-10.143000	26.207509	0.000188	20.693784
1805.451978	-2.992900	3.398100	-10.169000	26.203276	0.000187	20.700911
1806.454457	-2.981200	3.397500	-10.128000	26.169862	0.000188	20.702421
1807.452370	-3.011300	3.397900	-10.231000	26.163231	0.000186	20.711407
1808.449320	-2.978900	3.398900	-10.123000	26.215296	0.000188	20.702558
1809.453551	-2.992400	3.398100	-10.168000	26.236758	0.000185	20.696149
1810.454212	-2.987200	3.396500	-10.146000	26.257727	0.000185	20.720069
1811.452482	-2.993600	3.396600	-10.167000	26.249633	0.000185	20.730902
1812.452230	-3.008000	3.395500	-10.212000	26.206214	0.000184	20.695328
1813.454669	-3.018800	3.394800	-10.247000	26.196232	0.000184	20.718964
1814.454608	-3.011300	3.394400	-10.220000	26.177236	0.000182	20.722635
1815.454609	-2.989600	3.395900	-10.152000	26.176477	0.000183	20.708595
1816.454242	-3.019100	3.394200	-10.247000	26.196718	0.000185	20.720875
1817.451372	-2.998800	3.395400	-10.181000	26.197711	0.000183	20.719975
1818.455078	-2.992600	3.394400	-10.157000	26.220374	0.000182	20.727103
1819.452754	-3.006300	3.393900	-10.202000	26.215256	0.000182	20.723857
1820.454324	-3.001500	3.393200	-10.184000	26.150597	0.000181	20.730955
1821.454390	-3.002600	3.394000	-10.190000	26.169194	0.000182	20.705070
1822.455710	-2.992600	3.393000	-10.152000	26.106074	0.000181	20.737427
1823.457103	-3.008100	3.393100	-10.205000	26.070511	0.000179	20.741998
1824.455811	-2.996200	3.391400	-10.161000	26.085311	0.000180	20.715140
1825.456816	-3.009000	3.391300	-10.204000	26.151073	0.000179	20.729063
1826.458426	-3.007100	3.391900	-10.198000	26.200463	0.000178	20.723690
1827.456067	-2.998000	3.392600	-10.170000	26.202035	0.000179	20.730960
1828.454513	-2.985300	3.390300	-10.120000	26.166368	0.000177	20.728784
1829.459257	-2.988100	3.390100	-10.128000	26.208183	0.000177	20.716749
1830.456180	-3.006700	3.389100	-10.189000	26.192758	0.000179	20.735388
1831.454793	-2.985600	3.390300	-10.121000	26.162524	0.000179	20.729664
1832.458735	-2.988400	3.389200	-10.128000	26.188088	0.000178	20.720738
1833.459680	-2.983000	3.390500	-10.113000	26.222329	0.000174	20.709152
1834.456972	-3.012000	3.388600	-10.206000	26.221434	0.000179	20.705881
1835.458941	-3.013000	3.389800	-10.212000	26.245293	0.000176	20.744085
1836.460006	-3.017400	3.386900	-10.219000	26.260148	0.000177	20.717286
1837.457665	-2.998300	3.388900	-10.160000	26.250337	0.000178	20.735403
1838.460032	-3.010600	3.387900	-10.199000	26.239898	0.000175	20.717799
1839.457622	-2.992000	3.387100	-10.134000	26.202526	0.000176	20.712960
1840.458469	-3.001700	3.387600	-10.168000	26.226833	0.000175	20.713204
1841.464463	-3.000000	3.385900	-10.157000	26.226736	0.000175	20.715003
1842.459211	-2.997700	3.387700	-10.154000	26.203883	0.000172	20.751309
1843.457982	-2.983700	3.387300	-10.106000	26.217119	0.000172	20.719090
1844.462919	-3.024900	3.384700	-10.238000	26.250352	0.000175	20.733521
1845.461451	-2.977600	3.386600	-10.083000	26.319130	0.000173	20.732465
1846.469977	-2.989400	3.384900	-10.118000	26.336173	0.000173	20.738688
1847.462369	-2.995000	3.384700	-10.136000	26.280549	0.000172	20.730201
1848.460758	-3.007900	3.384100	-10.178000	26.239285	0.000171	20.752272
1849.461751	-2.988500	3.384300	-10.113000	26.243989	0.000172	20.722385
1850.462904	-3.023200	3.383200	-10.227000	26.261530	0.000170	20.722942
1851.465550	-2.998600	3.384600	-10.148000	26.278880	0.000170	20.740853
1852.465628	-2.994700	3.384700	-10.135000	26.313697	0.000169	20.749291
1853.463746	-3.013300	3.383800	-10.195000	26.309874	0.000169	20.730749
1854.465099	-3.013900	3.381200	-10.190000	26.294401	0.000170	20.731795
1855.463478	-3.009600	3.382300	-10.179000	26.282484	0.000169	20.747321
1856.462270	-3.017600	3.381100	-10.202000	26.286235	0.000170	20.749667
1857.462621	-2.995400	3.382400	-10.131000	26.231999	0.000170	20.735940
1858.463769	-3.009000	3.380400	-10.171000	26.210041	0.000168	20.741850
1859.463941	-2.999200	3.382300	-10.143000	26.241144	0.000169	20.724741
1860.459771	-3.006000	3.381200	-10.163000	26.294183	0.000168	20.741059
1861.464467	-2.977300	3.382300	-10.069000	26.254442	0.000167	20.737632
1862.464229	-2.990600	3.381500	-10.112000	26.252750	0.000166	20.747311
1863.466864	-2.988800	3.381100	-10.104000	26.225369	0.000166	20.737813
1864.464273	-3.017400	3.379000	-10.195000	26.268957	0.000166	20.737045
1865.465809	-3.007800	3.379700	-10.165000	26.293638	0.000168	20.741934
1866.464118	-3.001600	3.378700	-10.141000	26.235457	0.000167	20.747477
1867.466438	-3.005700	3.379300	-10.156000	26.273423	0.000166	20.733472
1868.465370	-3.013300	3.377400	-10.176000	26.268184	0.000167	20.734371
1869.472022	-3.005700	3.378300	-10.154000	26.243274	0.000165	20.747746
1870.469976	-3.000000	3.378300	-10.134000	26.233609	0.000165	20.743248
1871.467575	-2.989000	3.379000	-10.099000	26.245804	0.000165	20.744124
1872.473209	-3.006400	3.377400	-10.153000	26.277100	0.000165	20.756134
1873.470104	-2.987700	3.379400	-10.096000	26.284965	0.000164	20.736063
1874.469989	-2.986400	3.377700	-10.085000	26.274429	0.000163	20.746338
1875.469115	-2.997100	3.377100	-10.121000	26.273826	0.000165	20.754267
1876.471605	-2.998300	3.375600	-10.120000	26.273524	0.000163	20.760128
1877.467118	-3.006900	3.374900	-10.147000	26.329101	0.000162	20.755288
1878.472285	-2.996500	3.374900	-10.111000	26.361027	0.000164	20.739010
1879.470197	-2.993800	3.375800	-10.105000	26.403476	0.000162	20.760812
1880.470244	-2.983600	3.375300	-10.069000	26.392275	0.000163	20.748606
1881.470060	-3.006800	3.373600	-10.143000	26.341941	0.000161	20.748278
1882.467083	-3.022600	3.374200	-10.198000	26.308735	0.000161	20.759951
1883.470359	-3.000700	3.373000	-10.121000	26.295198	0.000160	20.745873
1884.469384	-2.981300	3.374400	-10.059000	26.293579	0.000160	20.768902
1885.471151	-3.021600	3.372600	-10.190000	26.271175	0.000158	20.753499
1886.468125	-3.016000	3.371800	-10.169000	26.297416	0.000160	20.767543
1887.470341	-2.989300	3.373100	-10.082000	26.320559	0.000158	20.755239
1888.472357	-3.002600	3.372700	-10.126000	26.333093	0.000159	20.758827
1889.471468	-2.996200	3.371200	-10.100000	26.306881	0.000159	20.769943
1890.469122	-2.991100	3.370300	-10.079000	26.326648	0.000158	20.768471
1891.471271	-3.002300	3.370600	-10.119000	26.414098	0.000160	20.762004
1892.470174	-2.991400	3.370200	-10.080000	26.471544	0.000159	20.760474
1893.469517	-3.013100	3.370000	-10.153000	26.474291	0.000157	20.745691
1894.472785	-3.003200	3.369400	-10.118000	26.471957	0.000157	20.763260
1895.469453	-3.016400	3.368900	-10.161000	26.467278	0.000157	20.774205
1896.473061	-3.023700	3.369000	-10.186000	26.416437	0.000157	20.774313
1897.470347	-3.012100	3.369200	-10.148000	26.388072	0.000156	20.767616
1898.470582	-3.010100	3.368300	-10.138000	26.358910	0.000158	20.777661
1899.470771	-2.999900	3.369000	-10.105000	26.328618	0.000154	20.752432
1900.473505	-3.000800	3.368700	-10.108000	26.324542	0.000155	20.782476
1901.471665	-2.969400	3.369100	-10.002000	26.329600	0.000156	20.785663
1902.475861	-2.988700	3.368000	-10.064000	26.342883	0.000155	20.782891
1903.471901	-2.992100	3.366800	-10.073000	26.354099	0.000154	20.773300
1904.472223	-3.002400	3.365900	-10.105000	26.286496	0.000153	20.779802
1905.474430	-2.996700	3.365700	-10.084000	26.309546	0.000154	20.787794
1906.475341	-2.983800	3.366900	-10.046000	26.274233	0.000154	20.780755
1907.475238	-2.996200	3.365400	-10.083000	26.294268	0.000156	20.777656
1908.475344	-2.973800	3.367100	-10.011000	26.365437	0.000155	20.772841
1909.476315	-2.993800	3.365800	-10.076000	26.389123	0.000154	20.788586
1910.474504	-3.001600	3.365100	-10.099000	26.472093	0.000154	20.792320
1911.475032	-3.031800	3.364200	-10.199000	26.457274	0.000153	20.763201
1912.475298	-2.981200	3.365700	-10.034000	26.472540	0.000153	20.793244
1913.475527	-3.013300	3.365000	-10.138000	26.447455	0.000153	20.805489
1914.474642	-3.018200	3.363200	-10.149000	26.410503	0.000150	20.776409
1915.473763	-2.983100	3.363900	-10.034000	26.443453	0.000150	20.769223
1916.474155	-2.997700	3.364000	-10.084000	26.472326	0.000151	20.781175
1917.475348	-2.998100	3.363400	-10.082000	26.504379	0.000149	20.816238
1918.479214	-3.000800	3.363300	-10.092000	26.480311	0.000151	20.783986
1919.477760	-2.987800	3.361900	-10.044000	26.478882	0.000148	20.778756
1920.477474	-2.962700	3.364200	-9.965700	26.516006	0.000151	20.781459
1921.473143	-3.012400	3.362000	-10.126000	26.549099	0.000150	20.795282
1922.475851	-3.006900	3.361000	-10.105000	26.581208	0.000149	20.777299
1923.476166	-3.003400	3.360000	-10.090000	26.577206	0.000147	20.791768
1924.474767	-2.989900	3.361400	-10.048000	26.557711	0.000149	20.784025
1925.480317	-3.012000	3.360500	-10.121000	26.531972	0.000146	20.777592
1926.478288	-2.996800	3.361100	-10.071000	26.539558	0.000149	20.780002
1927.476049	-2.981400	3.358700	-10.012000	26.506489	0.000147	20.795126
1928.477261	-2.994200	3.360400	-10.060000	26.571405	0.000148	20.779772
1929.479147	-2.998400	3.358200	-10.068000	26.519722	0.000148	20.766227
1930.477966	-2.998700	3.358000	-10.068000	26.500965	0.000144	20.780564
1931.475590	-2.998800	3.359100	-10.072000	26.474500	0.000144	20.792369
1932.480589	-2.986400	3.358900	-10.030000	26.495338	0.000144	20.785340
1933.476973	-3.019300	3.357300	-10.135000	26.476484	0.000145	20.807166
1934.479990	-2.983600	3.359000	-10.021000	26.475263	0.000143	20.794559
1935.479348	-3.015400	3.355800	-10.118000	26.462682	0.000144	20.785706
1936.479671	-2.987000	3.356900	-10.026000	26.449814	0.000144	20.802644
1937.494699	-2.972400	3.358000	-9.980600	26.446244	0.000146	20.800953
1938.481053	-3.023700	3.355700	-10.146000	26.432529	0.000143	20.793332
1939.482876	-3.011300	3.356200	-10.106000	26.510001	0.000144	20.808138
1940.480203	-3.007900	3.354500	-10.088000	26.553991	0.000142	20.792139
1941.481059	-3.005200	3.355900	-10.084000	26.545174	0.000142	20.801295
1942.486155	-3.005400	3.355600	-10.084000	26.573719	0.000140	20.816238
1943.482094	-3.006500	3.352500	-10.078000	26.557088	0.000140	20.814693
1944.481455	-3.014100	3.353600	-10.107000	26.547873	0.000142	20.783619
1945.483920	-2.996400	3.354800	-10.051000	26.591220	0.000142	20.797321
1946.487143	-3.000200	3.353400	-10.060000	26.594571	0.000141	20.807801
1947.486909	-2.989900	3.353500	-10.025000	26.612966	0.000142	20.802585
1948.491753	-2.999300	3.353300	-10.056000	26.605687	0.000141	20.818975
1949.482298	-2.982900	3.353200	-10.001000	26.665515	0.000141	20.818428
1950.487062	-2.991300	3.353000	-10.029000	26.627792	0.000139	20.795678
1951.485245	-2.990100	3.351600	-10.021000	26.552931	0.000139	20.785384
1952.485373	-2.986400	3.353600	-10.014000	26.529890	0.000138	20.802527
1953.486413	-3.016200	3.351500	-10.108000	26.506110	0.000138	20.820349
1954.485585	-3.014700	3.350400	-10.100000	26.535974	0.000137	20.821918
1955.486585	-3.005100	3.351400	-10.071000	26.542398	0.000137	20.827901
1956.487567	-3.049700	3.349400	-10.213000	26.583493	0.000138	20.809468
1957.484330	-3.003200	3.351100	-10.063000	26.625594	0.000138	20.803900
1958.483132	-2.999100	3.352200	-10.052000	26.664367	0.000137	20.820119
1959.483161	-3.003600	3.349400	-10.060000	26.682484	0.000138	20.816047
1960.486527	-2.995200	3.349400	-10.031000	26.646435	0.000136	20.808730
1961.486601	-3.025700	3.348500	-10.130000	26.622535	0.000137	20.814102
1962.486539	-3.010800	3.347000	-10.076000	26.628487	0.000138	20.803490
1963.486653	-2.996300	3.348600	-10.032000	26.557288	0.000135	20.823428
1964.487166	-2.977400	3.348000	-9.967700	26.563502	0.000135	20.830623
1965.489213	-2.993100	3.349000	-10.023000	26.545772	0.000135	20.826077
1966.486508	-2.976000	3.348600	-9.965200	26.586727	0.000135	20.823150
1967.485718	-2.979200	3.348600	-9.976000	26.629649	0.000136	20.796597
1968.487619	-2.972500	3.348600	-9.952900	26.672050	0.000135	20.825471
1969.489438	-3.016900	3.346600	-10.096000	26.704364	0.000133	20.819552
1970.490260	-2.995800	3.347300	-10.027000	26.728937	0.000133	20.827187
1971.489884	-2.983300	3.346900	-9.984000	26.730474	0.000134	20.804076
1972.491231	-2.982300	3.346900	-9.981000	26.694012	0.000135	20.824318
1973.493515	-3.011200	3.346200	-10.075000	26.651783	0.000135	20.816951
1974.490071	-3.011000	3.344900	-10.070000	26.635834	0.000131	20.828419
1975.489886	-2.992700	3.346000	-10.013000	26.581820	0.000130	20.837657
1976.491967	-3.024800	3.343700	-10.112000	26.584772	0.000131	20.822607
1977.492213	-3.015100	3.345400	-10.086000	26.579511	0.000132	20.827749
1978.491268	-3.018000	3.344600	-10.093000	26.602346	0.000130	20.827471
1979.494190	-3.015800	3.343300	-10.082000	26.650232	0.000132	20.811125
1980.491690	-2.999600	3.344400	-10.030000	26.696692	0.000129	20.834123
1981.490267	-2.993300	3.342800	-10.005000	26.660993	0.000130	20.825735
1982.493366	-2.980900	3.343800	-9.966900	26.694999	0.000133	20.824836
1983.491772	-3.007800	3.342000	-10.051000	26.681954	0.000129	20.829739
1984.492982	-3.003700	3.341200	-10.035000	26.726530	0.000129	20.818129
1985.494411	-3.010300	3.341900	-10.059000	26.702332	0.000129	20.829362
1986.495647	-3.012800	3.340900	-10.065000	26.681521	0.000128	20.828355
1987.491790	-3.001500	3.340700	-10.026000	26.710388	0.000128	20.825608
1988.500066	-2.997900	3.342400	-10.020000	26.686675	0.000129	20.850131
1989.493470	-2.991100	3.340800	-9.991800	26.652342	0.000128	20.829367
1990.493995	-2.991000	3.340100	-9.989100	26.670931	0.000127	20.854692
1991.500352	-2.984300	3.339300	-9.964500	26.660433	0.000125	20.833708
1992.497094	-3.010500	3.338100	-10.048000	26.696439	0.000125	20.837188
1993.495793	-2.985000	3.340300	-9.970200	26.731898	0.000125	20.834905
1994.500320	-2.997700	3.338800	-10.008000	26.769724	0.000125	20.840219
1995.495913	-2.986700	3.338300	-9.969800	26.753340	0.000123	20.828013
1996.499844	-2.997600	3.339000	-10.008000	26.690517	0.000126	20.853519
1997.500656	-2.981500	3.337700	-9.949600	26.656437	0.000124	20.826371
1998.499195	-2.978700	3.337100	-9.939300	26.686320	0.000125	20.836025
1999.496772	-3.023000	3.336300	-10.084000	26.678764	0.000123	20.845972
2000.497211	-2.994600	3.337200	-9.992800	26.702623	0.000122	20.821595
2001.501341	-3.038600	3.335200	-10.133000	26.763851	0.000122	20.819141
2002.497084	-3.002300	3.336900	-10.017000	26.728796	0.000122	20.820407
2003.504174	-2.998700	3.335600	-10.001000	26.762291	0.000122	20.840805
2004.497727	-2.986500	3.335600	-9.961200	26.783177	0.000121	20.821028
2005.500825	-3.014700	3.334900	-10.053000	26.792283	0.000122	20.829709
2006.501446	-2.988500	3.334600	-9.965000	26.756262	0.000121	20.815304
2007.497697	-2.991900	3.334700	-9.975800	26.747437	0.000121	20.832036
2008.500624	-2.993500	3.333500	-9.977800	26.725354	0.000122	20.830223
2009.503010	-2.974800	3.334900	-9.920000	26.697795	0.000120	20.813897
2010.500814	-2.989200	3.334100	-9.966000	26.730532	0.000119	20.826894
2011.497870	-2.995300	3.333200	-9.983300	26.712659	0.000118	20.821727
2012.500350	-2.988200	3.332400	-9.957000	26.701364	0.000120	20.824597
2013.503417	-3.008400	3.332900	-10.024000	26.673105	0.000119	20.832222
2014.502655	-2.997400	3.332000	-9.986400	26.621174	0.000119	20.834544
2015.502257	-2.991200	3.333300	-9.970000	26.588172	0.000120	20.812748
2016.500422	-3.034000	3.331400	-10.106000	26.595407	0.000119	20.817177
2017.504790	-3.010200	3.331100	-10.026000	26.591853	0.000118	20.817871
2018.503977	-2.999200	3.331300	-9.990600	26.643965	0.000118	20.820471
2019.504127	-3.000400	3.330900	-9.993100	26.663244	0.000118	20.826102
2020.503832	-3.010700	3.330600	-10.026000	26.728573	0.000118	20.818286
2021.504910	-3.014600	3.329700	-10.037000	26.788613	0.000117	20.817011
2022.502387	-3.000000	3.330600	-9.990800	26.817574	0.000118	20.816732
2023.502488	-2.988200	3.329300	-9.948200	26.839388	0.000118	20.828708
2024.503196	-2.972800	3.330600	-9.900400	26.791700	0.000117	20.814425
2025.500811	-2.988900	3.329000	-9.949400	26.791010	0.000115	20.816101
2026.506427	-3.011900	3.328600	-10.024000	26.779998	0.000117	20.813091
2027.503717	-3.009500	3.327500	-10.013000	26.775209	0.000114	20.809224
2028.502097	-2.990800	3.329300	-9.956500	26.774777	0.000115	20.797884
2029.501690	-2.989700	3.327800	-9.947700	26.785298	0.000113	20.831695
2030.507405	-3.004700	3.327200	-9.996200	26.808095	0.000114	20.822847
2031.512193	-2.994500	3.326900	-9.959800	26.806412	0.000113	20.816889
2032.503242	-2.997800	3.327500	-9.974300	26.841047	0.000112	20.812358
2033.505961	-2.993000	3.326600	-9.955600	26.815290	0.000112	20.820125
2034.503573	-2.993600	3.325400	-9.953700	26.820759	0.000113	20.809029
2035.503424	-2.985700	3.325300	-9.927400	26.798099	0.000112	20.803315
2036.506689	-2.997200	3.325600	-9.966300	26.763672	0.000111	20.796202
2037.503162	-3.009500	3.325100	-10.005000	26.829817	0.000110	20.797747
2038.504879	-3.014500	3.324400	-10.021000	26.819034	0.000112	20.782638
2039.506191	-3.011700	3.324100	-10.011000	26.869808	0.000112	20.800499
2040.505707	-3.004500	3.324100	-9.986600	26.899394	0.000110	20.814127
2041.504849	-2.984800	3.324900	-9.923000	26.882360	0.000109	20.809327
2042.504637	-3.009800	3.323400	-10.002000	26.880148	0.000109	20.793827
2043.500947	-3.002900	3.324100	-9.980700	26.882302	0.000107	20.815433
2044.504214	-3.010800	3.321800	-10.000000	26.901504	0.000108	20.787800
2045.508854	-2.993400	3.322900	-9.946300	26.846259	0.000107	20.793417
2046.505141	-2.992500	3.322500	-9.941900	26.815592	0.000107	20.784393
2047.512455	-3.015900	3.322500	-10.019000	26.832754	0.000106	20.813502
2048.511139	-2.994400	3.321700	-9.946100	26.842535	0.000107	20.798681
2049.509210	-2.985900	3.322900	-9.920300	26.837314	0.000106	20.805759
2050.510284	-3.016100	3.319600	-10.011000	26.910308	0.000106	20.784325
2051.512719	-2.991000	3.320900	-9.931500	26.899754	0.000105	20.793153
2052.508516	-3.006100	3.319600	-9.978400	26.915738	0.000105	20.786940
2053.505353	-3.022900	3.320200	-10.036000	26.865671	0.000105	20.810090
2054.507699	-2.994900	3.318800	-9.938900	26.827231	0.000105	20.797992
2055.510354	-3.003700	3.319300	-9.969100	26.805212	0.000103	20.796242
2056.506716	-2.997500	3.319000	-9.948200	26.828296	0.000104	20.801908
2057.506958	-3.008300	3.318000	-9.980500	26.879492	0.000102	20.787952
2058.505186	-3.011700	3.317800	-9.991300	26.847800	0.000103	20.788802
2059.508193	-3.014800	3.317900	-10.002000	26.821431	0.000102	20.785997
2060.507798	-3.014100	3.317300	-9.998200	26.799520	0.000101	20.793837
2061.508498	-2.995800	3.316400	-9.934100	26.818334	0.000102	20.791418
2062.507717	-3.004200	3.316900	-9.964300	26.895467	0.000100	20.777462
2063.510248	-3.005500	3.316100	-9.965800	26.965253	0.000102	20.778410
2064.509206	-2.995000	3.316000	-9.930700	26.954554	0.000101	20.791833
2065.508226	-3.017800	3.315200	-10.004000	26.946271	0.000104	20.792987
2066.510856	-2.994200	3.315500	-9.926300	26.991575	0.000100	20.792078
2067.510199	-3.007100	3.314800	-9.967000	26.991080	0.000100	20.771665
2068.512964	-3.007400	3.313900	-9.965400	26.916010	0.000101	20.782947
2069.512639	-3.008100	3.314200	-9.968400	26.902603	9.994783E-5	20.792225
2070.510573	-2.975400	3.314800	-9.862400	26.883124	9.859473E-5	20.782121
2071.514715	-2.991900	3.315200	-9.917700	26.892676	0.000100	20.782717
2072.515287	-2.998800	3.314300	-9.937700	26.897319	0.000100	20.794972
2073.512068	-2.998500	3.312800	-9.932700	26.896439	0.000101	20.786501
2074.513507	-3.004000	3.312100	-9.948900	26.901301	9.935378E-5	20.776216
2075.517392	-2.998400	3.313300	-9.933200	26.964583	9.707662E-5	20.785797
2076.517866	-2.993100	3.311600	-9.910800	27.024668	9.760466E-5	20.773200
2077.519960	-2.995800	3.311000	-9.918300	26.997214	9.767066E-5	20.770721
2078.521580	-2.993500	3.311900	-9.913400	26.931664	9.605354E-5	20.777824
2079.519310	-2.989300	3.312000	-9.898800	26.885429	9.664759E-5	20.778274
2080.518736	-3.004100	3.310100	-9.943100	26.925957	9.565751E-5	20.773034
2081.517457	-2.986500	3.310100	-9.883900	26.953874	9.684560E-5	20.787830
2082.517000	-3.044400	3.308300	-10.070000	26.932850	9.658158E-5	20.770008
2083.520681	-3.006100	3.310500	-9.951100	26.916225	9.747265E-5	20.796439
2084.519629	-2.984500	3.310100	-9.878500	26.908899	9.595454E-5	20.774373
2085.516610	-3.003700	3.309200	-9.938900	26.892035	9.714262E-5	20.766425
2086.519832	-2.990800	3.309000	-9.895300	26.900815	9.737364E-5	20.768615
2087.523240	-2.970500	3.309500	-9.830200	26.909108	9.371037E-5	20.767945
2088.521453	-2.986500	3.307000	-9.875800	26.986356	9.786868E-5	20.763595
2089.521491	-3.038700	3.306100	-10.045000	26.944157	9.565751E-5	20.777111
2090.520139	-2.994200	3.307700	-9.903100	26.990760	9.479945E-5	20.796948
2091.521400	-3.000800	3.308200	-9.926000	26.978535	9.384238E-5	20.796508
2092.523451	-2.995100	3.306400	-9.901700	26.968015	9.456844E-5	20.773127
2093.518788	-2.982000	3.307200	-9.861100	26.965648	9.453543E-5	20.778333
2094.519580	-3.004900	3.304900	-9.930300	26.978997	9.133420E-5	20.768048
2095.521956	-2.977800	3.306300	-9.844400	27.003019	9.351236E-5	20.770869
2096.521152	-2.987100	3.304600	-9.871000	26.984742	9.209325E-5	20.777620
2097.522947	-2.992500	3.304500	-9.888000	26.981247	9.318233E-5	20.766518
2098.523067	-2.989400	3.304600	-9.878000	26.969669	9.258829E-5	20.768151
2099.520917	-3.010500	3.303000	-9.943100	27.010991	9.321534E-5	20.765135
2100.528669	-3.001400	3.304800	-9.918400	27.047320	9.008011E-5	20.757099
2101.525600	-2.992600	3.304200	-9.886800	27.010194	8.658185E-5	20.762911
2102.524195	-2.995600	3.303200	-9.894500	27.012566	8.981609E-5	20.774306
2103.528428	-2.991000	3.303400	-9.879800	26.993667	9.074016E-5	20.759568
2104.522598	-2.997400	3.301900	-9.895600	26.999398	9.031112E-5	20.753951
2105.524948	-3.011600	3.302600	-9.945500	27.071389	8.902403E-5	20.759494
2106.529214	-3.001200	3.301300	-9.907200	27.082719	8.684587E-5	20.775631
2107.526927	-3.010100	3.301500	-9.935700	27.124256	8.866100E-5	20.761455
2108.529228	-3.011100	3.301400	-9.939300	27.090409	8.753892E-5	20.754914
2109.530133	-2.988700	3.301600	-9.865700	27.057357	8.668086E-5	20.761029
2110.529161	-3.018200	3.299400	-9.957000	27.063268	8.681287E-5	20.766025
2111.528716	-3.007300	3.300200	-9.923000	27.104227	8.526176E-5	20.761225
2112.531514	-2.988800	3.299300	-9.859800	27.130652	8.479972E-5	20.771681
2113.526369	-3.015100	3.299700	-9.948200	27.096805	8.446970E-5	20.767037
2114.534153	-2.999100	3.300100	-9.896100	27.079264	8.361163E-5	20.764569
2115.532958	-3.004500	3.299400	-9.912400	27.000006	8.562478E-5	20.775900
2116.529692	-3.013300	3.299600	-9.942000	27.009484	8.206052E-5	20.768836
2117.530575	-3.017800	3.297200	-9.949000	27.027003	8.569079E-5	20.749469
2118.538239	-2.985800	3.297900	-9.845700	27.084148	8.585580E-5	20.767111
2119.530285	-2.979600	3.298200	-9.826200	27.123085	8.288558E-5	20.764070
2120.531014	-3.008600	3.296900	-9.917600	27.116426	8.262156E-5	20.758796
2121.535657	-3.019700	3.295700	-9.950500	27.114093	8.311660E-5	20.745069
2122.528682	-3.012600	3.294500	-9.923700	27.109583	8.288558E-5	20.735791
2123.528782	-3.014200	3.296700	-9.936200	27.080848	8.268757E-5	20.753360
2124.534337	-2.999300	3.294800	-9.881300	27.111167	8.097144E-5	20.762990
2125.531730	-2.962700	3.296700	-9.765600	27.119668	8.140047E-5	20.759686
2126.535110	-3.010900	3.294300	-9.918100	27.050616	7.968435E-5	20.776535
2127.536874	-2.994300	3.294100	-9.862600	27.086554	7.866127E-5	20.735390
2128.533446	-2.996700	3.294400	-9.871600	27.081359	8.116946E-5	20.746286
2129.534048	-3.013300	3.292900	-9.920800	27.072848	8.017938E-5	20.739624
2130.536355	-3.039100	3.293600	-10.007000	27.080562	8.031139E-5	20.728889
2131.535573	-3.011500	3.292700	-9.914900	27.072547	7.948633E-5	20.742166
2132.533974	-3.004300	3.292600	-9.890900	27.070466	7.678014E-5	20.745763
2133.534458	-3.016400	3.292600	-9.929800	27.032602	7.862827E-5	20.750833
2134.533474	-3.016800	3.291800	-9.930200	26.993045	7.932132E-5	20.766055
2135.535603	-3.002600	3.291800	-9.883300	27.002344	7.661512E-5	20.744585
2136.536553	-2.994200	3.292000	-9.855500	27.033545	7.687914E-5	20.765532
2137.535133	-3.008700	3.290400	-9.899100	27.071808	7.569106E-5	20.739526
2138.535398	-3.001900	3.289900	-9.875000	27.052852	7.618609E-5	20.734212
2139.541278	-2.983300	3.290000	-9.813700	27.083896	7.668113E-5	20.727974
2140.536082	-2.985900	3.291200	-9.825300	27.154409	7.681314E-5	20.729192
2141.532698	-2.990500	3.290700	-9.839500	27.160586	7.707716E-5	20.727344
2142.535314	-2.987300	3.290300	-9.828200	27.194635	7.473399E-5	20.746418
2143.534170	-2.990900	3.289400	-9.837600	27.208200	7.252282E-5	20.750104
2144.536262	-2.992600	3.287800	-9.838500	27.213215	7.130173E-5	20.726224
2145.535117	-3.009300	3.288800	-9.896400	27.224300	7.483299E-5	20.753023
2146.540133	-3.007600	3.287700	-9.885000	27.201527	7.529503E-5	20.733909
2147.534158	-3.014300	3.287600	-9.909100	27.182345	7.219280E-5	20.754919
2148.535774	-2.981600	3.287300	-9.800200	27.221375	7.225880E-5	20.716413
2149.536233	-2.994300	3.286900	-9.840800	27.236979	7.140074E-5	20.741594
2150.534796	-3.014800	3.286900	-9.907800	27.270424	7.308386E-5	20.739672
2151.536662	-2.981600	3.287500	-9.801700	27.299950	7.136774E-5	20.721008
2152.534518	-2.998500	3.286100	-9.853300	27.268839	7.100471E-5	20.718163
2153.534707	-3.003600	3.285800	-9.868300	27.226390	7.169776E-5	20.729519
2154.536719	-3.014200	3.285300	-9.900900	27.185207	7.014665E-5	20.732193
2155.533950	-3.016600	3.284700	-9.907500	27.148095	7.024566E-5	20.734222
2156.534604	-3.001900	3.283700	-9.856500	27.142769	7.041067E-5	20.744986
2157.535581	-3.000700	3.283200	-9.851000	27.169665	6.843052E-5	20.728414
2158.538645	-3.000900	3.284400	-9.855000	27.125919	6.796849E-5	20.751273
2159.538725	-2.983200	3.286000	-9.802100	27.092406	6.998164E-5	20.727999
2160.536601	-2.998000	3.283200	-9.841300	27.092640	6.856253E-5	20.721121
2161.536913	-2.999700	3.281600	-9.842500	27.119775	7.080670E-5	20.723756
2162.547085	-2.990700	3.281100	-9.811600	27.094307	6.876055E-5	20.725169
2163.540564	-2.996700	3.280700	-9.829600	27.114011	6.730844E-5	20.734080
2164.536953	-2.997600	3.280300	-9.832200	27.146565	6.885956E-5	20.726518
2165.536784	-2.985600	3.281300	-9.796200	27.207825	6.968462E-5	20.713216
2166.537586	-2.981700	3.280200	-9.779700	27.182695	6.661539E-5	20.733933
2167.535110	-2.987600	3.280000	-9.798500	27.186140	6.796849E-5	20.708474
2168.542159	-2.956300	3.281500	-9.699600	27.168265	6.707742E-5	20.731749
2169.541435	-3.006600	3.279100	-9.857900	27.209002	6.661539E-5	20.736686
2170.541349	-2.997500	3.279400	-9.828700	27.166608	6.628537E-5	20.736246
2171.539534	-2.995200	3.277400	-9.815800	27.109807	6.664839E-5	20.703772
2172.540872	-3.008800	3.276500	-9.856900	27.131892	6.833152E-5	20.721717
2173.541107	-2.994600	3.276800	-9.812600	27.154886	6.730844E-5	20.723507
2174.538498	-2.985900	3.277500	-9.785400	27.186423	6.410721E-5	20.752857
2175.545412	-2.987000	3.276100	-9.785300	27.171750	6.734144E-5	20.745212
2176.539166	-3.008100	3.276300	-9.854800	27.236936	6.559232E-5	20.728747
2177.541814	-3.002500	3.275200	-9.833200	27.298906	6.334815E-5	20.719484
2178.541513	-3.025300	3.275200	-9.907800	27.281334	6.463525E-5	20.724094
2179.541191	-2.983900	3.275400	-9.771700	27.203034	6.394220E-5	20.717880
2180.541342	-3.019200	3.275500	-9.888900	27.197076	6.291912E-5	20.709042
2181.539738	-2.998300	3.274400	-9.816900	27.182802	6.341416E-5	20.740206
2182.542755	-3.006300	3.274200	-9.841700	27.240071	6.209406E-5	20.705346
2183.539726	-3.003400	3.274600	-9.832900	27.313995	6.064195E-5	20.728498
2184.539915	-3.043600	3.273300	-9.961600	27.328014	6.225907E-5	20.718418
2185.554624	-3.010000	3.273500	-9.852500	27.267937	6.186304E-5	20.716781
2186.539634	-3.008000	3.272400	-9.843000	27.282997	6.123600E-5	20.729560
2187.540701	-2.994300	3.272900	-9.799400	27.298022	6.156602E-5	20.723811
2188.543777	-3.005900	3.271600	-9.833500	27.353171	6.245709E-5	20.710059
2189.544451	-3.012100	3.270900	-9.850900	27.374211	6.212706E-5	20.723640
2190.541028	-2.998200	3.273600	-9.814000	27.355202	6.156602E-5	20.712577
2191.545733	-3.016900	3.269600	-9.863000	27.392039	6.067496E-5	20.717392
2192.548536	-3.022500	3.269900	-9.883100	27.395266	5.866181E-5	20.710206
2193.545630	-3.010400	3.269800	-9.843000	27.374770	5.773774E-5	20.718986
2194.544691	-2.982700	3.271100	-9.755500	27.382457	6.070796E-5	20.712020
2195.548623	-3.016500	3.267400	-9.855200	27.406568	6.083997E-5	20.708774
2196.545895	-2.992000	3.270000	-9.783100	27.445337	5.879382E-5	20.718854
2197.546209	-2.988000	3.269400	-9.767900	27.420431	5.645065E-5	20.723670
2198.552930	-3.011200	3.266700	-9.835700	27.362253	5.697869E-5	20.712084
2199.543177	-3.000200	3.266600	-9.798800	27.356743	5.694568E-5	20.714127
2200.551636	-2.989100	3.268300	-9.768200	27.397506	5.480053E-5	20.705347
2201.544430	-2.981800	3.266600	-9.739400	27.410718	5.697869E-5	20.710104
2202.553277	-3.006700	3.266800	-9.821900	27.446319	5.697869E-5	20.708462
2203.553736	-3.032900	3.265400	-9.902700	27.470005	5.542757E-5	20.702419
2204.551163	-3.032000	3.265900	-9.901400	27.452519	5.608762E-5	20.700948
2205.547506	-3.006100	3.265100	-9.814600	27.445945	5.522956E-5	20.711879
2206.547473	-3.012200	3.264500	-9.832400	27.421801	5.579060E-5	20.698020
2207.551777	-2.992200	3.264700	-9.768100	27.442709	5.311740E-5	20.726642
2208.547853	-3.025600	3.263800	-9.873900	27.478479	5.522956E-5	20.711419
2209.552058	-2.992800	3.263500	-9.766100	27.502286	5.397547E-5	20.720674
2210.547885	-2.994100	3.262800	-9.767900	27.502009	5.285338E-5	20.706644
2211.549106	-3.000200	3.263500	-9.790800	27.495727	5.417348E-5	20.711229
2212.559326	-3.010800	3.262400	-9.821800	27.514156	5.298539E-5	20.713649
2213.554594	-3.013100	3.260700	-9.824100	27.556487	5.146728E-5	20.690331
2214.554319	-2.994800	3.262100	-9.768300	27.568837	5.466852E-5	20.699438
2215.553622	-3.007200	3.260800	-9.804600	27.577538	5.371145E-5	20.716255
2216.557047	-2.999400	3.261000	-9.780200	27.502996	5.239135E-5	20.701472
2217.550007	-2.979100	3.260100	-9.710600	27.517873	5.060922E-5	20.714544
2218.554552	-2.987600	3.259700	-9.737500	27.510503	5.202832E-5	20.714241
2219.551549	-2.984800	3.260900	-9.731400	27.498299	5.060922E-5	20.714765
2220.551762	-2.975400	3.260100	-9.699000	27.380195	5.110425E-5	20.713538
2221.560098	-2.997000	3.257300	-9.761500	27.334101	5.166530E-5	20.710790
2222.556088	-2.966200	3.260200	-9.669300	27.336025	5.031220E-5	20.705139
2223.555245	-2.986000	3.258700	-9.728500	27.324631	4.981716E-5	20.717385
2224.553868	-2.988100	3.258400	-9.735900	27.303346	4.849706E-5	20.707828
2225.553954	-3.016500	3.256900	-9.822400	27.322362	4.971815E-5	20.710835
2226.555086	-3.006000	3.257700	-9.791200	27.315875	4.777101E-5	20.710474
2227.556525	-2.978800	3.258300	-9.704200	27.353437	4.968515E-5	20.750158
2228.571780	-2.991200	3.257200	-9.742200	27.370746	4.862907E-5	20.716360
2229.555231	-2.987300	3.257800	-9.731500	27.375556	4.869508E-5	20.731631
2230.555485	-2.999300	3.255400	-9.762900	27.421916	4.869508E-5	20.723267
2231.559569	-3.003400	3.254200	-9.773100	27.422971	4.836505E-5	20.709155
2232.557168	-2.995200	3.253600	-9.744100	27.450535	4.664893E-5	20.732145
2233.559796	-3.002600	3.253800	-9.769600	27.402777	4.661593E-5	20.723928
2234.559558	-3.014300	3.253700	-9.806200	27.353725	4.569186E-5	20.713462
2235.554878	-3.012400	3.252200	-9.796000	27.332091	4.833205E-5	20.709243
2236.555121	-2.999100	3.252500	-9.753500	27.312863	4.876108E-5	20.718350
2237.558816	-3.011800	3.253200	-9.797500	27.287230	4.575786E-5	20.722437
2238.555119	-2.987800	3.251000	-9.712100	27.288026	4.674794E-5	20.731774
2239.563123	-3.013700	3.251300	-9.798000	27.316265	4.618689E-5	20.712289
2240.556090	-2.983400	3.250400	-9.696600	27.383726	4.433876E-5	20.726099
2241.558571	-3.005300	3.248700	-9.762500	27.407608	4.466878E-5	20.732107
2242.560311	-3.008000	3.250200	-9.775400	27.467610	4.400873E-5	20.728935
2243.565910	-2.987100	3.250200	-9.708000	27.465652	4.433876E-5	20.730284
2244.558218	-2.984600	3.250200	-9.699800	27.485908	4.262263E-5	20.706565
2245.558651	-3.008100	3.249400	-9.774100	27.517207	4.532883E-5	20.717667
2246.571933	-3.027500	3.248000	-9.832700	27.537471	4.443777E-5	20.733315
2247.559550	-2.993900	3.248200	-9.724300	27.482901	4.318367E-5	20.724878
2248.565389	-3.014600	3.245900	-9.784200	27.507845	4.588987E-5	20.725318
2249.560242	-3.012600	3.246500	-9.779400	27.524567	4.539484E-5	20.734083
2250.561571	-2.995500	3.247000	-9.724900	27.573472	4.529583E-5	20.719276
2251.561220	-2.981300	3.246700	-9.678600	27.595440	4.097251E-5	20.736166
2252.559465	-2.988800	3.245600	-9.699500	27.593385	4.308467E-5	20.746901
2253.561636	-3.005600	3.245100	-9.752800	27.546698	4.242462E-5	20.732167
2254.562256	-3.016600	3.245200	-9.788400	27.494193	4.051048E-5	20.726281
2255.560282	-2.987100	3.244300	-9.691000	27.460250	4.153355E-5	20.740023
2256.564720	-2.970500	3.244400	-9.636200	27.483888	4.288665E-5	20.737251
2257.563868	-3.028600	3.242700	-9.819800	27.494378	4.354670E-5	20.743538
2258.559869	-2.994600	3.243900	-9.713300	27.463866	4.209459E-5	20.706674
2259.561635	-3.008200	3.242600	-9.753200	27.440835	4.199559E-5	20.732344
2260.562255	-2.981900	3.243100	-9.670200	27.474550	4.229261E-5	20.754410
2261.560560	-2.975900	3.241700	-9.646400	27.486250	4.143455E-5	20.738205
2262.560899	-2.993500	3.240300	-9.698900	27.575319	4.004844E-5	20.726825
2263.562557	-3.006600	3.241200	-9.744000	27.555478	4.183057E-5	20.731992
2264.559999	-3.010200	3.241800	-9.757100	27.525502	4.130254E-5	20.730756
2265.561193	-3.018000	3.241000	-9.780600	27.512924	4.041147E-5	20.746076
2266.563514	-3.010800	3.239300	-9.752600	27.466908	3.892636E-5	20.746248
2267.561647	-2.995700	3.239300	-9.703600	27.452332	4.110452E-5	20.738695
2268.570214	-3.018400	3.239200	-9.775100	27.457166	4.011445E-5	20.731704
2269.565229	-3.005500	3.239800	-9.737000	27.442693	3.895936E-5	20.754602
2270.564082	-3.032100	3.238300	-9.817700	27.428952	3.806830E-5	20.731768
2271.562088	-3.014300	3.237100	-9.756300	27.519828	4.212760E-5	20.738798
2272.565525	-2.997400	3.237500	-9.703400	27.593286	3.988343E-5	20.737791
2273.560712	-3.010700	3.239000	-9.751500	27.653822	3.681421E-5	20.750814
2274.565021	-3.019000	3.237000	-9.771700	27.639773	3.793629E-5	20.735255
2275.565175	-3.016000	3.235700	-9.757900	27.583196	3.740825E-5	20.753718
2276.563715	-2.996200	3.235300	-9.692900	27.534191	3.688021E-5	20.740446
2277.567750	-3.005800	3.235400	-9.724400	27.546833	3.569212E-5	20.762650
2278.567188	-3.005700	3.233100	-9.717100	27.572800	3.631917E-5	20.749422
2279.566768	-3.000500	3.235600	-9.708100	27.566203	3.635217E-5	20.751319
2280.563631	-3.021500	3.232900	-9.767600	27.546507	3.552711E-5	20.742881
2281.566290	-3.027100	3.232900	-9.785800	27.521497	3.631917E-5	20.740002
2282.568463	-3.016200	3.233700	-9.751400	27.463927	3.678120E-5	20.743722
2283.567131	-3.016500	3.233500	-9.753100	27.472134	3.615416E-5	20.741073
2284.569918	-3.005800	3.232500	-9.715300	27.534838	3.602215E-5	20.746788
2285.566493	-2.990000	3.231200	-9.660000	27.609213	3.450404E-5	20.721099
2286.568089	-3.015100	3.232300	-9.745000	27.582896	3.496607E-5	20.748675
2287.570558	-3.015000	3.232000	-9.743100	27.623073	3.315094E-5	20.763971
2288.568996	-2.989900	3.231300	-9.660800	27.646090	3.542810E-5	20.748724
2289.568981	-3.004700	3.228700	-9.699900	27.710115	3.572513E-5	20.744872
2290.574023	-3.023500	3.231400	-9.769300	27.762294	3.529610E-5	20.744276
2291.567418	-2.993800	3.229300	-9.667100	27.784618	3.407501E-5	20.752043
2292.574864	-2.965900	3.228700	-9.575400	27.722837	3.483406E-5	20.752933
2293.572119	-3.006800	3.229300	-9.709500	27.735826	3.506508E-5	20.762211
2294.569877	-3.038500	3.226500	-9.803200	27.735419	3.443803E-5	20.763698
2295.577281	-2.981900	3.228100	-9.625100	27.738376	3.496607E-5	20.756717
2296.574064	-2.997300	3.229800	-9.680000	27.728384	3.150082E-5	20.757093
2297.570453	-2.970100	3.228200	-9.587900	27.787800	3.268890E-5	20.761410
2298.573413	-2.999100	3.225100	-9.671600	27.790812	3.348096E-5	20.760174
2299.573537	-3.007000	3.225200	-9.697000	27.746979	3.107178E-5	20.749727
2300.571067	-3.014000	3.224000	-9.716100	27.748529	3.173183E-5	20.748916
2301.574251	-3.005700	3.226200	-9.696400	27.697341	3.357997E-5	20.736284
2302.574139	-2.984100	3.224000	-9.619500	27.693906	3.014772E-5	20.742786
2303.574607	-3.004200	3.222900	-9.681400	27.681101	3.159982E-5	20.772101
2304.583899	-3.008700	3.222300	-9.693900	27.724052	3.163283E-5	20.773597
2305.573920	-2.979600	3.223500	-9.604600	27.711233	3.001571E-5	20.749791
2306.571490	-3.002000	3.222000	-9.671500	27.706162	3.120379E-5	20.759861
2307.575985	-3.004600	3.221300	-9.678000	27.621874	3.140181E-5	20.781257
2308.575720	-2.997100	3.221700	-9.655300	27.628812	3.103878E-5	20.766426
2309.573093	-3.012300	3.220200	-9.699300	27.597060	2.721050E-5	20.767194
2310.576849	-2.981900	3.220900	-9.603400	27.664144	2.942166E-5	20.765469
2311.578452	-2.999600	3.220900	-9.660800	27.657838	2.961968E-5	20.757701
2312.573787	-2.986700	3.220600	-9.618100	27.693431	3.011471E-5	20.780715
2313.574722	-2.993800	3.219900	-9.638600	27.739510	3.153382E-5	20.750271
2314.577387	-3.025400	3.217400	-9.732600	27.800678	3.097278E-5	20.762991
2315.575997	-3.007900	3.218700	-9.680000	27.839913	2.955367E-5	20.756484
2316.576929	-3.005900	3.217700	-9.671400	27.845834	3.037873E-5	20.758650
2317.578914	-3.016100	3.216400	-9.699900	27.777713	2.859660E-5	20.782080
2318.578105	-3.025600	3.216700	-9.731700	27.759867	2.800256E-5	20.764594
2319.576510	-3.022600	3.215000	-9.717200	27.768062	2.763953E-5	20.762883
2320.579062	-2.999000	3.215800	-9.642700	27.730767	2.777154E-5	20.765181
2321.578976	-3.015000	3.213900	-9.688600	27.756949	2.595641E-5	20.773037
2322.577319	-3.026100	3.215400	-9.727700	27.744567	2.721050E-5	20.780492
2323.580469	-2.972000	3.215300	-9.554400	27.748036	2.684747E-5	20.773076
2324.579623	-3.001700	3.213400	-9.644700	27.739433	2.780454E-5	20.776273
2325.578047	-2.986500	3.214200	-9.598600	27.723486	2.648445E-5	20.787252
2326.582656	-3.009600	3.214400	-9.673400	27.679738	2.539537E-5	20.767411
2327.581670	-3.009400	3.211700	-9.665000	27.711877	2.615442E-5	20.763241
2328.581990	-3.009800	3.211100	-9.663600	27.743014	2.556038E-5	20.774186
2329.581611	-2.983600	3.212600	-9.584200	27.708277	2.569239E-5	20.761516
2330.580122	-3.018100	3.211000	-9.690500	27.747254	2.598941E-5	20.778928
2331.583410	-3.012000	3.209700	-9.667500	27.849362	2.694648E-5	20.776900
2332.586267	-2.992100	3.211600	-9.608700	27.833077	2.757353E-5	20.778053
2333.586527	-3.008300	3.210100	-9.656000	27.804036	2.410827E-5	20.770164
2334.582587	-3.002900	3.210100	-9.639200	27.766733	2.433929E-5	20.767710
2335.584461	-2.979100	3.211100	-9.564300	27.796619	2.414128E-5	20.788304
2336.583387	-3.012300	3.209000	-9.665500	27.775330	2.598941E-5	20.775413
2337.581882	-3.034600	3.207900	-9.732900	27.750495	2.338222E-5	20.779344
2338.581146	-2.994000	3.207000	-9.600900	27.767627	2.259016E-5	20.779989
2339.582263	-2.998700	3.207700	-9.617700	27.790111	2.486733E-5	20.786496
2340.584411	-2.992200	3.207300	-9.596000	27.782062	2.156709E-5	20.773654
2341.582185	-3.006800	3.205700	-9.637800	27.734596	2.262316E-5	20.783734
2342.583202	-2.998900	3.205800	-9.612400	27.821435	2.262316E-5	20.792889
2343.582044	-2.990100	3.206400	-9.587100	27.810371	2.437229E-5	20.804040
2344.582883	-3.008300	3.205500	-9.642400	27.788902	2.110505E-5	20.786701
2345.584594	-3.013200	3.204100	-9.653600	27.873526	2.338222E-5	20.780831
2346.583155	-3.013200	3.202800	-9.648900	27.963684	2.292019E-5	20.779114
2347.582019	-2.990600	3.203500	-9.579400	27.927329	2.001597E-5	20.790886
2348.586557	-3.003300	3.202700	-9.618000	27.933559	2.169910E-5	20.778665
2349.586066	-3.008100	3.203200	-9.634800	27.939820	2.222714E-5	20.803932
2350.588011	-3.013800	3.200800	-9.645800	27.956089	2.341522E-5	20.786643
2351.589552	-2.987100	3.200800	-9.560400	28.001239	2.255716E-5	20.783724
2352.587555	-3.025300	3.201000	-9.683300	27.944555	2.140207E-5	20.786413
2353.588746	-3.011800	3.200400	-9.638100	27.859587	2.031299E-5	20.782449
2354.588506	-3.003700	3.200900	-9.614000	27.903595	1.942193E-5	20.804930
2355.588193	-3.012800	3.198000	-9.633500	27.876775	2.259016E-5	20.786946
2356.588526	-2.977800	3.198400	-9.523600	27.849490	2.169910E-5	20.795520
2357.589685	-3.000400	3.198400	-9.595800	27.860301	2.061002E-5	20.771313
2358.589866	-2.997400	3.197300	-9.582200	27.867489	1.961994E-5	20.785661
2359.591151	-2.998300	3.197600	-9.586300	27.873735	2.064302E-5	20.797637
2360.592742	-2.992400	3.196200	-9.562200	27.890078	2.044500E-5	20.791326
2361.590334	-2.992800	3.196000	-9.564300	27.892799	1.912491E-5	20.809711
2362.591821	-2.997400	3.196200	-9.579300	27.914965	2.209513E-5	20.787924
2363.593235	-2.991000	3.194600	-9.554400	27.933133	2.014798E-5	20.812849
2364.594344	-2.997100	3.193300	-9.570200	27.989313	2.120406E-5	20.791161
2365.596983	-2.979800	3.194400	-9.518000	27.960505	2.140207E-5	20.799622
2366.594007	-2.989000	3.193200	-9.543900	27.930486	1.869588E-5	20.815875
2367.593916	-3.009700	3.192900	-9.609100	27.906223	1.909190E-5	20.812317
2368.600446	-3.020800	3.191700	-9.640900	27.913931	1.975195E-5	20.796367
2369.598735	-3.006600	3.190500	-9.591400	27.934635	1.961994E-5	20.797291
2370.593613	-2.999400	3.192400	-9.574100	27.975603	1.915791E-5	20.811500
2371.598439	-3.039700	3.189700	-9.693800	27.913037	1.915791E-5	20.799261
2372.597177	-3.004200	3.190800	-9.584900	27.891984	1.810183E-5	20.796089
2373.593807	-3.011600	3.189300	-9.604300	27.920575	1.866287E-5	20.814908
2374.599196	-3.013100	3.189800	-9.610600	27.949481	1.823384E-5	20.804648
2375.596392	-3.004400	3.187500	-9.574600	27.991528	2.094004E-5	20.799080
2376.595000	-2.977100	3.188400	-9.490800	27.966984	2.014798E-5	20.812782
2377.601182	-2.983100	3.186900	-9.506200	28.027280	1.872888E-5	20.802350
2378.599006	-2.986700	3.186100	-9.514800	28.038876	1.853086E-5	20.804066
2379.595938	-3.010100	3.186000	-9.589000	27.963735	1.760680E-5	20.798132
2380.602084	-3.026200	3.184900	-9.636800	27.985331	2.077503E-5	20.819395
2381.599606	-3.016900	3.184700	-9.606900	28.085134	1.697975E-5	20.825027
2382.596657	-2.993600	3.183300	-9.528900	28.078996	1.648471E-5	20.828805
2383.598841	-2.993200	3.183200	-9.527400	28.085979	1.546164E-5	20.795532
2384.601866	-3.011100	3.182500	-9.581900	28.036968	1.575866E-5	20.802145
2385.596688	-2.996200	3.183100	-9.536400	27.992932	1.490060E-5	20.823253
2386.597839	-3.027800	3.180200	-9.628200	27.985672	1.404253E-5	20.819264
2387.599197	-2.996000	3.182200	-9.532400	28.011531	1.909190E-5	20.818266
2388.597525	-3.004900	3.180500	-9.556500	28.005927	1.701275E-5	20.796030
2389.603111	-3.034700	3.180000	-9.649100	27.975333	1.552764E-5	20.807909
2390.601451	-3.017700	3.178200	-9.589800	27.961395	1.572566E-5	20.796251
2391.600673	-3.020200	3.176800	-9.592800	27.973439	1.457057E-5	20.823072
2392.601367	-3.017400	3.178300	-9.589500	27.995360	1.605568E-5	20.818584
2393.602658	-2.993100	3.178100	-9.511100	28.038420	1.542864E-5	20.799814
2394.599679	-3.030000	3.176100	-9.622500	27.982414	1.447156E-5	20.812665
2395.601005	-2.981200	3.177000	-9.469800	28.012619	1.387752E-5	20.838327
2396.604411	-3.001400	3.174500	-9.526000	28.081488	1.602268E-5	20.821356
2397.601690	-2.982300	3.176100	-9.471300	28.116333	1.602268E-5	20.826088
2398.600230	-3.013300	3.173900	-9.563400	28.164627	1.513161E-5	20.826342
2399.606666	-2.990300	3.174000	-9.490000	28.119582	1.437256E-5	20.825091
2400.601788	-2.978000	3.173900	-9.451500	28.047215	1.341549E-5	20.824314
2401.602462	-3.003300	3.172300	-9.526600	28.088447	1.321747E-5	20.798490
2402.605605	-2.970000	3.173400	-9.423600	28.090598	1.268943E-5	20.842380
2403.602503	-3.035400	3.170000	-9.620300	28.042146	1.202939E-5	20.818737
2404.602035	-3.014700	3.170600	-9.558100	28.029175	1.209539E-5	20.814690
2405.604685	-2.986600	3.169800	-9.465600	28.020405	1.183137E-5	20.830043
2406.602215	-3.019600	3.168500	-9.567000	28.021371	1.226040E-5	20.822956
2407.602652	-2.995600	3.169400	-9.493100	28.005550	1.150135E-5	20.820306
2408.602042	-2.997100	3.167700	-9.493100	28.040179	1.400953E-5	20.820077
2409.601002	-3.010900	3.165900	-9.531100	28.056243	1.160035E-5	20.810169
2410.601824	-2.982700	3.167000	-9.444500	28.144177	1.202939E-5	20.819505
2411.603869	-2.972600	3.166300	-9.411400	28.152597	1.031326E-5	20.835093
2412.600637	-2.974200	3.165200	-9.411800	28.142065	1.163336E-5	20.845353
2413.601282	-2.988800	3.164300	-9.455400	28.104157	9.917230E-6	20.810037
2414.605641	-2.980400	3.164100	-9.429600	28.062081	1.044527E-5	20.808459
2415.605067	-2.992100	3.163800	-9.465200	28.104172	8.696140E-6	20.848932
2416.603064	-3.008300	3.161600	-9.510500	28.094654	1.117132E-5	20.830817
2417.604393	-2.990500	3.161900	-9.453900	28.142843	1.008224E-5	20.837602
2418.605118	-3.010300	3.161300	-9.515500	28.113762	9.026164E-6	20.815913
2419.604826	-2.995900	3.160300	-9.467000	28.143207	9.785220E-6	20.831331
2420.607611	-2.992500	3.160000	-9.455600	28.118715	8.102096E-6	20.824218
2421.605631	-2.990700	3.159700	-9.449000	28.173205	8.267109E-6	20.850149
2422.604770	-3.003600	3.157800	-9.484500	28.199278	1.057728E-5	20.842734
2423.603623	-2.988200	3.157300	-9.433700	28.221982	1.057728E-5	20.836194
2424.608742	-2.989100	3.157700	-9.437800	28.220958	8.927157E-6	20.827103
2425.604228	-2.988900	3.155900	-9.432000	28.212936	9.521201E-6	20.837519
2426.606098	-3.005100	3.154500	-9.478400	28.236125	7.607060E-6	20.806813
2427.605115	-3.005200	3.153500	-9.475600	28.161421	8.267109E-6	20.822640
2428.602741	-2.988500	3.153800	-9.424300	28.187243	8.432121E-6	20.815445
2429.603679	-3.016100	3.152300	-9.507200	28.129156	7.376043E-6	20.813392
2430.609136	-3.008800	3.151700	-9.481700	28.121328	9.488198E-6	20.818314
2431.604315	-3.003100	3.151200	-9.461700	28.166656	7.508053E-6	20.829807
2432.603579	-3.000100	3.149000	-9.447000	28.184587	8.366116E-6	20.809927
2433.607818	-3.000400	3.150200	-9.450700	28.126175	6.187956E-6	20.818452
2434.605621	-2.987200	3.150400	-9.409500	28.110656	5.692919E-6	20.807097
2435.605695	-3.008900	3.148600	-9.472800	28.152429	5.956939E-6	20.819752
2436.608074	-3.003500	3.147400	-9.452400	28.083216	5.593912E-6	20.807449
2437.604031	-2.994400	3.147000	-9.422700	28.120383	6.286963E-6	20.825897
2438.604855	-3.008800	3.145800	-9.464600	28.133580	6.715994E-6	20.805518
2439.608230	-3.009000	3.145300	-9.463300	28.122316	5.692919E-6	20.812670
2440.607478	-3.004200	3.144300	-9.445400	28.180752	7.277036E-6	20.816971
2441.606870	-3.017600	3.143100	-9.483400	28.225737	5.461902E-6	20.832389
2442.608176	-2.973400	3.142600	-9.343100	28.277638	4.042798E-6	20.832961
2443.608054	-3.018700	3.141000	-9.481000	28.324381	5.362895E-6	20.807953
2444.609424	-2.988700	3.141900	-9.388800	28.291116	4.834856E-6	20.826616
2445.610343	-2.988900	3.140600	-9.385900	28.284368	1.468608E-6	20.809391
2446.609035	-3.005000	3.138700	-9.431000	28.278100	6.418973E-6	20.802606
2447.609984	-2.994800	3.138500	-9.398000	28.311526	2.722700E-6	20.823933
2448.610789	-3.008000	3.138200	-9.438700	28.307710	2.062652E-6	20.801600
2449.609083	-3.003200	3.138700	-9.425000	28.385604	2.062652E-6	20.821235
2450.611112	-2.996200	3.136100	-9.395700	28.382526	5.296890E-6	20.821456
2451.615701	-2.976800	3.135900	-9.333100	28.292340	3.349747E-6	20.799400
2452.611973	-3.002400	3.135700	-9.413800	28.313027	4.636841E-6	20.797944
2453.610828	-3.018400	3.133200	-9.455900	28.266187	4.108802E-6	20.785870
2454.612427	-2.989400	3.133500	-9.366300	28.205400	4.603839E-6	20.793897
2455.610164	-2.978500	3.131900	-9.327700	28.220000	7.013016E-6	20.802432
2456.611800	-2.983700	3.130700	-9.339800	28.214664	1.963645E-6	20.794689
2457.612468	-3.000900	3.130700	-9.393700	28.223564	6.352968E-6	20.788476
2458.610423	-2.986500	3.128600	-9.343000	28.200055	2.458681E-6	20.815542
2459.611065	-2.970200	3.130000	-9.295200	28.239859	2.260666E-6	20.791131
2460.615504	-2.983100	3.128300	-9.331200	28.162295	4.768851E-6	20.790804
2461.611118	-2.988700	3.126800	-9.344200	28.144859	1.798632E-6	20.789846
2462.614014	-3.020200	3.124100	-9.434900	28.187418	2.656696E-6	20.809458
2463.614140	-3.013300	3.125600	-9.417500	28.227921	3.547761E-6	20.796656
2464.610416	-2.985600	3.125500	-9.330000	28.287454	3.052725E-6	20.795903
2465.611774	-3.035300	3.121600	-9.474400	28.250363	3.514759E-6	20.790801
2466.614094	-3.024900	3.122200	-9.442700	28.263622	1.369601E-6	20.794193
2467.612165	-3.010700	3.121300	-9.396000	28.300816	1.996647E-6	20.779485
2468.617169	-2.990100	3.119500	-9.327100	28.349539	2.326671E-6	20.790137
2469.613445	-2.991700	3.119600	-9.331400	28.299054	2.425679E-6	20.775340
2470.612297	-2.983100	3.119200	-9.304500	28.297778	7.425547E-7	20.784961
2471.613835	-2.980900	3.117900	-9.292700	28.277723	3.795279E-7	20.813606
2472.615970	-2.995100	3.117400	-9.336100	28.260647	1.501611E-6	20.774603
2473.613652	-2.967600	3.117300	-9.250100	28.303712	4.785352E-7	20.776711
2474.621398	-3.006000	3.115400	-9.364000	28.304353	-1.435606E-6	20.802486
2475.617109	-2.992200	3.114800	-9.319000	28.317165	2.475182E-7	20.799739
2476.612106	-3.001300	3.113800	-9.344300	28.404776	3.465255E-7	20.790281
2477.617786	-3.007700	3.111500	-9.357200	28.468513	-1.815134E-7	20.783814
2478.617309	-3.028900	3.110000	-9.419300	28.529290	-1.485109E-7	20.782905
2479.613271	-2.977900	3.111300	-9.264200	28.585374	2.689698E-6	20.771583
2480.616448	-3.003000	3.109600	-9.337700	28.528120	5.445401E-7	20.785521
2481.617105	-3.008000	3.109300	-9.352100	28.502030	-1.237591E-6	20.789592
2482.614365	-2.984900	3.108600	-9.278600	28.533251	-1.930642E-6	20.793532
2483.615995	-3.002800	3.106300	-9.326500	28.525985	-6.765498E-7	20.766774
2484.617906	-2.991300	3.105300	-9.288200	28.524247	-1.072579E-6	20.777353
2485.614561	-2.950900	3.106300	-9.165400	28.460068	-6.435474E-7	20.778154
2486.613729	-3.013900	3.103900	-9.352700	28.413030	7.425547E-7	20.767298
2487.621871	-3.023900	3.102600	-9.381100	28.424200	2.145158E-7	20.789452
2488.617529	-3.016400	3.099900	-9.348900	28.334115	-1.815134E-7	20.795943
2489.617032	-2.990900	3.100500	-9.272200	28.262005	-1.303596E-6	20.785453
2490.618820	-3.013000	3.099300	-9.336900	28.247503	-1.699625E-6	20.790293
2491.614812	-2.992500	3.096900	-9.266500	28.252189	-1.567615E-6	20.761345
2492.617662	-3.024000	3.096700	-9.363300	28.271269	2.326671E-6	20.767753
2493.620820	-3.023100	3.095600	-9.357100	28.366482	-8.250608E-8	20.791550
2494.616586	-3.009500	3.095600	-9.315300	28.362666	-5.445401E-7	20.766371
2495.618064	-2.993600	3.094200	-9.261100	28.358981	-1.369601E-6	20.756970
2496.615536	-3.013300	3.094900	-9.324900	28.395361	-1.039577E-6	20.762782
2497.617309	-3.020100	3.093500	-9.341300	28.401304	-9.735717E-7	20.752644
2498.616842	-2.989000	3.091100	-9.238300	28.459910	-3.135231E-7	20.773728
2499.617087	-3.011600	3.090400	-9.305700	28.508601	-1.501611E-6	20.764915
2500.629366	-3.027600	3.088300	-9.348900	28.551941	-1.105581E-6	20.752136
2501.619522	-3.001500	3.089000	-9.271100	28.558329	-1.996647E-6	20.769950
2502.620207	-3.019400	3.086100	-9.317900	28.580894	-1.138584E-6	20.764226
2503.619591	-3.024800	3.086300	-9.334500	28.598192	-2.755703E-6	20.771691
2504.620145	-3.026200	3.085500	-9.336200	28.627997	-2.590691E-6	20.768992
2505.619230	-2.997900	3.083100	-9.242400	28.640708	-1.765630E-6	20.768518
2506.620513	-3.018000	3.082800	-9.303000	28.588994	-2.788705E-6	20.750099
2507.624773	-2.970000	3.083000	-9.155700	28.550428	-4.240812E-6	20.748716
2508.621931	-2.982800	3.081100	-9.189500	28.577556	-3.019722E-6	20.774141
2509.622447	-2.968600	3.081500	-9.146700	28.637142	-3.052725E-6	20.762556
2510.620565	-2.999100	3.077900	-9.230500	28.660632	-2.062652E-6	20.772939
2511.620642	-2.987600	3.077100	-9.192100	28.632750	-2.128657E-6	20.767142
2512.622186	-2.998400	3.076600	-9.224200	28.641938	-4.240812E-6	20.764542
2513.622485	-3.017200	3.075700	-9.279400	28.605582	-3.778778E-6	20.753054
2514.622174	-3.005300	3.074700	-9.239800	28.579533	-4.768851E-6	20.763330
2515.621670	-2.967800	3.073400	-9.120400	28.504698	-2.986720E-6	20.757190
2516.621990	-3.005000	3.071800	-9.229700	28.574743	-4.504832E-6	20.780318
2517.621326	-3.014800	3.070500	-9.255700	28.601123	-5.164880E-6	20.764211
2518.622357	-2.991000	3.069600	-9.180000	28.532224	-4.438827E-6	20.755040
2519.623000	-3.010900	3.069000	-9.238600	28.557387	-3.745776E-6	20.763786
2520.619694	-2.962600	3.067300	-9.086200	28.559058	-4.636841E-6	20.751718
2521.622495	-2.991600	3.066400	-9.171900	28.545259	-3.514759E-6	20.762003
2522.622699	-2.991800	3.065500	-9.170700	28.561388	-5.692919E-6	20.762599
2523.623080	-3.009600	3.065200	-9.224700	28.601876	-5.395897E-6	20.771608
2524.628013	-3.005200	3.062400	-9.202500	28.676817	-4.174807E-6	20.765533
2525.630509	-3.020600	3.061700	-9.246700	28.716181	-4.504832E-6	20.752550
2526.622449	-2.971600	3.060700	-9.094400	28.714486	-5.395897E-6	20.757007
2527.625430	-3.021300	3.058300	-9.239300	28.720287	-3.118730E-6	20.770437
2528.623838	-2.997200	3.057700	-9.163500	28.671168	-3.184735E-6	20.759369
2529.622288	-2.996100	3.056100	-9.155700	28.668562	-4.570837E-6	20.763857
2530.624774	-3.016300	3.054800	-9.212400	28.571329	-7.277036E-6	20.751749
2531.625423	-3.004300	3.055100	-9.177900	28.512250	-5.758924E-6	20.752467
2532.623399	-3.023600	3.053300	-9.230800	28.540150	-4.801854E-6	20.741684
2533.630169	-2.977400	3.052600	-9.087800	28.604203	-5.230885E-6	20.743131
2534.624794	-2.965400	3.051600	-9.048600	28.676344	-5.725922E-6	20.750831
2535.625903	-3.008100	3.049100	-9.170700	28.705734	-5.329893E-6	20.745820
2536.630207	-2.998400	3.049100	-9.141700	28.755704	-5.032871E-6	20.762489
2537.627206	-3.012600	3.045900	-9.174700	28.714702	-6.682992E-6	20.734464
2538.625551	-3.003700	3.044100	-9.143300	28.607238	-5.461902E-6	20.749981
2539.632406	-3.002600	3.043900	-9.138500	28.577942	-5.098876E-6	20.751770
2540.629415	-3.022800	3.043900	-9.200000	28.529603	-5.560910E-6	20.744814
2541.629785	-3.000100	3.041700	-9.124400	28.510397	-4.834856E-6	20.740644
2542.631547	-3.018400	3.039000	-9.171300	28.590881	-7.838077E-6	20.738723
2543.628823	-2.995000	3.040100	-9.104800	28.645192	-5.692919E-6	20.749800
2544.630110	-3.028200	3.037700	-9.198200	28.693655	-3.910788E-6	20.739818
2545.633348	-3.027500	3.036800	-9.192500	28.734974	-6.286963E-6	20.741608
2546.627821	-2.972900	3.037300	-9.028900	28.697403	-6.947012E-6	20.734584
2547.632825	-3.011700	3.033300	-9.134500	28.722565	-7.178029E-6	20.741436
2548.636821	-2.991800	3.032200	-9.071200	28.768071	-7.244034E-6	20.733694
2549.631689	-3.008200	3.030600	-9.114500	28.804112	-7.112024E-6	20.747714
2550.632747	-2.976300	3.029800	-9.016300	28.836167	-8.135099E-6	20.753927
2551.631381	-3.000500	3.029500	-9.088700	28.830941	-8.036092E-6	20.748662
2552.631040	-2.995100	3.028300	-9.068500	28.802870	-6.616987E-6	20.738402
2553.635087	-2.999200	3.027400	-9.079100	28.798731	-7.079021E-6	20.718584
2554.634591	-3.016400	3.025100	-9.124100	28.804200	-6.517980E-6	20.738319
2555.635298	-3.013700	3.024100	-9.112000	28.679205	-5.890934E-6	20.755610
2556.632977	-2.995100	3.023500	-9.054300	28.717554	-8.267109E-6	20.733070
2557.635347	-3.011800	3.022800	-9.103200	28.795038	-6.220958E-6	20.737625
2558.633491	-2.994100	3.019700	-9.039500	28.791807	-5.956939E-6	20.734370
2559.632969	-2.993000	3.020000	-9.038100	28.739062	-5.428900E-6	20.742406
2560.634095	-3.031000	3.016600	-9.142200	28.700356	-8.168102E-6	20.753680
2561.643675	-3.004600	3.017400	-9.065500	28.615138	-8.399119E-6	20.749403
2562.634585	-2.992700	3.014200	-9.019900	28.677726	-7.145026E-6	20.736102
2563.638125	-3.005300	3.013000	-9.054200	28.712586	-7.640063E-6	20.743239
2564.634933	-2.992900	3.011300	-9.010800	28.733356	-7.574058E-6	20.735236
2565.636034	-2.989700	3.010500	-9.000000	28.769301	-8.333114E-6	20.724975
2566.637902	-2.987000	3.011000	-8.992400	28.759188	-7.706068E-6	20.738971
2567.635872	-2.978900	3.007500	-8.958400	28.706312	-8.069094E-6	20.736918
2568.635370	-2.973000	3.006600	-8.937000	28.681590	-1.047827E-5	20.742364
2569.639469	-2.966000	3.006500	-8.916100	28.693617	-9.719216E-6	20.732192
2570.640075	-3.001500	3.004500	-9.017000	28.692311	-6.121951E-6	20.737515
2571.635582	-3.016900	3.003200	-9.058800	28.694655	-7.574058E-6	20.721858
2572.641261	-3.008100	3.000800	-9.024800	28.684429	-8.663138E-6	20.725309
2573.637433	-3.008700	2.999900	-9.024800	28.756452	-5.758924E-6	20.742853
2574.638094	-3.020100	2.997300	-9.051300	28.843304	-8.036092E-6	20.740253
2575.642605	-3.000100	2.996200	-8.987800	28.792721	-5.659917E-6	20.715375
2576.639644	-2.978000	2.996000	-8.920400	28.760956	-9.554204E-6	20.729846
2577.640846	-2.995100	2.994400	-8.967400	28.771758	-9.290184E-6	20.724131
2578.646883	-2.963200	2.994100	-8.871400	28.776189	-8.795148E-6	20.722904
2579.639932	-2.989700	2.990800	-8.940800	28.822576	-6.616987E-6	20.740235
2580.640843	-2.982500	2.990200	-8.917400	28.855053	-7.871080E-6	20.712732
2581.650411	-3.032400	2.987100	-9.057000	28.797629	-6.649990E-6	20.729803
2582.639856	-3.001500	2.987300	-8.965500	28.824410	-6.022944E-6	20.721219
2583.644542	-3.015000	2.984900	-8.999300	28.855451	-8.696141E-6	20.724514
2584.642653	-2.983000	2.984500	-8.901300	28.906453	-7.310038E-6	20.718046
2585.643979	-3.017700	2.982600	-8.999200	28.926910	-6.980014E-6	20.708783
2586.643299	-3.006800	2.981600	-8.964700	28.935746	-6.848004E-6	20.711521
2587.644520	-2.990400	2.979600	-8.909300	28.849988	-7.178029E-6	20.725175
2588.646905	-3.008600	2.978500	-8.959900	28.814921	-7.475051E-6	20.727307
2589.644581	-3.004400	2.977500	-8.944600	28.782427	-7.574058E-6	20.711169
2590.646265	-3.006600	2.976800	-8.949200	28.794210	-7.442048E-6	20.724936
2591.639543	-2.999500	2.974300	-8.919800	28.760067	-8.300111E-6	20.734166
2592.645426	-3.037400	2.971900	-9.026000	28.784064	-7.640063E-6	20.733683
2593.648146	-3.026100	2.969700	-8.985400	28.744159	-7.970087E-6	20.714348
2594.642781	-3.031500	2.967000	-8.993900	28.727350	-9.389192E-6	20.723970
2595.644221	-3.017200	2.966500	-8.949000	28.750374	-7.805075E-6	20.714918
2596.647983	-3.005800	2.967100	-8.916800	28.852904	-9.422194E-6	20.726690
2597.644973	-3.011400	2.965900	-8.929700	28.957536	-9.026165E-6	20.720672
2598.646196	-3.039300	2.964200	-9.007600	28.906916	-9.950233E-6	20.709029
2599.647269	-3.022200	2.960900	-8.947700	28.907484	-7.343041E-6	20.725249
2600.644956	-3.009100	2.960200	-8.906800	28.935510	-8.102097E-6	20.718397
2601.646723	-3.011900	2.957000	-8.905100	28.953370	-9.290184E-6	20.714579
2602.648577	-3.000500	2.957600	-8.873600	29.002947	-9.521201E-6	20.701938
2603.645391	-3.003500	2.955700	-8.876200	28.962392	-7.805075E-6	20.733152
2604.646538	-2.995600	2.953700	-8.847000	28.940515	-7.442048E-6	20.700678
2605.646986	-2.972100	2.952700	-8.774200	28.898245	-8.168102E-6	20.702664
2606.644600	-2.977200	2.950500	-8.783300	28.906683	-8.729143E-6	20.727762
2607.646079	-3.006800	2.950300	-8.869700	28.950851	-9.488199E-6	20.722947
2608.646009	-2.997700	2.947600	-8.834600	28.991559	-8.630136E-6	20.713225
2609.645584	-3.021400	2.945300	-8.898000	28.945477	-1.074229E-5	20.725594
2610.645937	-3.008000	2.944900	-8.857400	28.991526	-1.103931E-5	20.726943
2611.649307	-3.003400	2.943800	-8.840500	29.034172	-8.201104E-6	20.741462
2612.646869	-2.990200	2.941700	-8.794200	28.997538	-8.828150E-6	20.721146
2613.648560	-3.031600	2.939100	-8.909000	29.006073	-7.211031E-6	20.722633
2614.647872	-2.986600	2.939300	-8.777600	29.039664	-6.848004E-6	20.737039
2615.646144	-3.011800	2.936600	-8.843200	29.098129	-9.356189E-6	20.736204
2616.646750	-3.004700	2.934800	-8.817600	29.139635	-7.277036E-6	20.714015
2617.649687	-2.975200	2.934900	-8.731200	29.132171	-7.838077E-6	20.719296
2618.646894	-2.997900	2.931600	-8.788100	29.188611	-9.686214E-6	20.726384
2619.645508	-2.991200	2.930200	-8.763400	29.176620	-8.729143E-6	20.715722
2620.647980	-3.007900	2.929000	-8.809200	29.194346	-8.003089E-6	20.708454
2621.647166	-3.003100	2.927400	-8.790500	29.098257	-9.191177E-6	20.726375
2622.647385	-2.970400	2.925900	-8.690200	29.041584	-9.917231E-6	20.720006
2623.648419	-2.984000	2.924200	-8.724500	29.084010	-9.224179E-6	20.715337
2624.646954	-2.982300	2.922800	-8.715700	29.029251	-8.729143E-6	20.737927
2625.649404	-3.012900	2.920600	-8.799000	28.956419	-9.587206E-6	20.716228
2626.652656	-3.000500	2.918900	-8.757600	28.985281	-8.960160E-6	20.733928
2627.650574	-2.994600	2.918400	-8.738900	28.946884	-7.442048E-6	20.729382
2628.649209	-3.027700	2.914700	-8.824200	28.978416	-8.927158E-6	20.703302
2629.651227	-3.026900	2.912200	-8.813000	28.969256	-7.244034E-6	20.708298
2630.654809	-2.986800	2.912400	-8.697900	29.043433	-1.090730E-5	20.719972
2631.650437	-3.031100	2.909600	-8.818100	29.096958	-1.024725E-5	20.708469
2632.652578	-2.987800	2.908100	-8.688300	29.184180	-7.805075E-6	20.704847
2633.653874	-3.017200	2.906300	-8.768000	29.203918	-1.084130E-5	20.710039
2634.652113	-2.980800	2.905300	-8.659500	29.146479	-9.323187E-6	20.716170
2635.651215	-3.015100	2.902600	-8.750700	29.131965	-1.123733E-5	20.716243
2636.651994	-3.017800	2.901100	-8.753400	29.182541	-9.983235E-6	20.731172
2637.651450	-3.009600	2.897700	-8.719600	29.224539	-1.120433E-5	20.711853
2638.653454	-2.964500	2.897600	-8.588900	29.167857	-1.150135E-5	20.716375
2639.652621	-3.019400	2.895300	-8.741500	29.128890	-8.927158E-6	20.725947
2640.652215	-2.996500	2.892700	-8.667200	29.112347	-9.455196E-6	20.735357
2641.656212	-2.988700	2.892800	-8.645200	29.120493	-8.300111E-6	20.706105
2642.654656	-3.035000	2.890100	-8.769600	29.185233	-1.018125E-5	20.714919
2643.652862	-2.991700	2.888100	-8.639500	29.249175	-9.488199E-6	20.704912
2644.655343	-3.040700	2.884500	-8.769500	29.194408	-9.455196E-6	20.712784
2645.656024	-2.999700	2.883800	-8.649900	29.104518	-1.074229E-5	20.727942
2646.652864	-2.998600	2.883000	-8.643500	29.085127	-9.422194E-6	20.733534
2647.658401	-3.012600	2.880900	-8.678800	29.089882	-8.861153E-6	20.725996
2648.655406	-2.985200	2.878500	-8.591700	29.068421	-9.092170E-6	20.720493
2649.654135	-3.003800	2.876600	-8.640400	29.100502	-9.752218E-6	20.721998
2650.662914	-3.009700	2.875200	-8.652800	29.090522	-1.090730E-5	20.707674
2651.656438	-2.979300	2.873400	-8.559600	29.080437	-1.070929E-5	20.722644
2652.655064	-3.043200	2.870600	-8.735500	29.031204	-8.267109E-6	20.710969
2653.662272	-3.021000	2.867800	-8.662400	29.021759	-1.024725E-5	20.720894
2654.657666	-3.005600	2.868100	-8.619800	29.084453	-1.110532E-5	20.730010
2655.657094	-3.005000	2.865700	-8.610400	29.191755	-1.103931E-5	20.710584
2656.663031	-3.015300	2.862600	-8.630800	29.212360	-1.107232E-5	20.738937
2657.659853	-3.012300	2.861000	-8.617500	29.284502	-9.455196E-6	20.735774
2658.661196	-3.000200	2.859900	-8.579400	29.348307	-9.125172E-6	20.727058
2659.663604	-2.986800	2.858600	-8.536600	29.302128	-1.047827E-5	20.725088
2660.662099	-2.989800	2.855500	-8.536900	29.202965	-7.970087E-6	20.736582
2661.662514	-3.011900	2.852300	-8.590000	29.200743	-8.498126E-6	20.711107
2662.668695	-2.994100	2.851500	-8.537100	29.162727	-8.729143E-6	20.724008
2663.663363	-2.984800	2.849500	-8.504000	29.251574	-8.960160E-6	20.720132
2664.665667	-2.990800	2.848700	-8.519200	29.231196	-1.130333E-5	20.729469
2665.662482	-3.005500	2.844400	-8.547800	29.273168	-9.290184E-6	20.733361
2666.661637	-2.977700	2.842500	-8.462500	29.328700	-8.960160E-6	20.712986
2667.664194	-2.990300	2.841600	-8.496700	29.290324	-7.607060E-6	20.725994
2668.664089	-2.974600	2.840800	-8.448700	29.233743	-8.531128E-6	20.751477
2669.663788	-2.973600	2.838500	-8.439700	29.213405	-8.960160E-6	20.728610
2670.664679	-2.980100	2.834300	-8.445500	29.162864	-1.014825E-5	20.716085
2671.666537	-2.995800	2.832100	-8.483700	29.099753	-8.894155E-6	20.733572
2672.665881	-2.978800	2.829700	-8.428200	29.090001	-9.686214E-6	20.703356
2673.665086	-2.989100	2.828500	-8.453900	29.145120	-9.554204E-6	20.737087
2674.667125	-2.995300	2.826100	-8.464200	29.233686	-8.993162E-6	20.731030
2675.663883	-2.994400	2.823900	-8.455100	29.271374	-9.290184E-6	20.723966
2676.667735	-2.984600	2.821900	-8.421000	29.292116	-1.028026E-5	20.728748
2677.665673	-2.998600	2.819100	-8.452500	29.283428	-8.003089E-6	20.711457
2678.668299	-3.029600	2.814600	-8.526000	29.220324	-5.890934E-6	20.731315
2679.664854	-3.023500	2.812000	-8.501600	29.255020	-1.047827E-5	20.732615
2680.667617	-2.991300	2.810500	-8.406200	29.351671	-8.399119E-6	20.739458
2681.667295	-2.992400	2.808900	-8.403900	29.445937	-9.884228E-6	20.727784
2682.667994	-3.012000	2.805400	-8.448100	29.458556	-9.257182E-6	20.719640
2683.667844	-2.997200	2.803800	-8.402700	29.424459	-1.202939E-5	20.727946
2684.669165	-2.991700	2.800700	-8.378100	29.459245	-1.120433E-5	20.723654
2685.669219	-2.997200	2.798000	-8.384400	29.476252	-1.037926E-5	20.722779
2686.668406	-3.000200	2.795300	-8.385000	29.451224	-8.993162E-6	20.741174
2687.672972	-3.032500	2.792500	-8.466900	29.489967	-8.300111E-6	20.739923
2688.672354	-2.991400	2.791000	-8.347500	29.457664	-8.795148E-6	20.735812
2689.669206	-3.015000	2.786500	-8.400000	29.495287	-1.103931E-5	20.717310
2690.673786	-2.990800	2.785400	-8.329700	29.508085	-9.389192E-6	20.739694
2691.675554	-2.991400	2.782200	-8.321200	29.578892	-1.057728E-5	20.738525
2692.674296	-3.008900	2.777600	-8.356700	29.597366	-6.715995E-6	20.746243
2693.673447	-2.997400	2.775800	-8.319200	29.608175	-1.084130E-5	20.738174
2694.676463	-3.009500	2.772400	-8.342400	29.610672	-8.135099E-6	20.737372
2695.673785	-3.020900	2.769100	-8.364300	29.549972	-1.018125E-5	20.751099
2696.673724	-3.012800	2.764500	-8.327600	29.553896	-8.333114E-6	20.746520
2697.671686	-3.011500	2.763100	-8.319500	29.556622	-1.031326E-5	20.749741
2698.674933	-3.032400	2.759600	-8.367300	29.520306	-9.092170E-6	20.742530
2699.675494	-3.007200	2.757600	-8.291300	29.533127	-8.729143E-6	20.757826
2700.673208	-3.015500	2.754700	-8.305800	29.586051	-8.630136E-6	20.737682
2701.674539	-2.995300	2.751000	-8.238200	29.560115	-9.653211E-6	20.733347
2702.673420	-3.017400	2.746500	-8.286400	29.538357	-8.597133E-6	20.743657
2703.672990	-3.008700	2.743900	-8.253800	29.475382	-9.653211E-6	20.758888
2704.675777	-3.011800	2.741300	-8.255800	29.448342	-9.125172E-6	20.737321
2705.673807	-2.997000	2.736900	-8.202000	29.392595	-9.950233E-6	20.736609
2706.675470	-2.996200	2.733600	-8.188200	29.457765	-9.785221E-6	20.747768
2707.676205	-3.032500	2.730700	-8.279700	29.506232	-8.564131E-6	20.755845
2708.676767	-3.004200	2.727200	-8.192600	29.462679	-1.057728E-5	20.750351
2709.672448	-2.997900	2.722700	-8.161700	29.542223	-1.014825E-5	20.740442
2710.678150	-2.998900	2.720100	-8.157000	29.605843	-9.323187E-6	20.749574
2711.673203	-2.976300	2.718500	-8.089900	29.614082	-1.041227E-5	20.749819
2712.674455	-3.008300	2.713300	-8.160600	29.671161	-7.739070E-6	20.737188
2713.671693	-3.018000	2.708400	-8.171600	29.690744	-1.064328E-5	20.734171
2714.673501	-2.994600	2.705600	-8.101000	29.665387	-9.785221E-6	20.764558
2715.673439	-2.993900	2.702400	-8.089800	29.688830	-9.356189E-6	20.746940
2716.674070	-3.004900	2.698200	-8.107600	29.738478	-8.597133E-6	20.736304
2717.678424	-2.972500	2.692900	-8.004000	29.740335	-8.366116E-6	20.731537
2718.673168	-2.999400	2.689300	-8.065800	29.618922	-9.356189E-6	20.761811
2719.680946	-3.009700	2.686000	-8.083000	29.563242	-8.894155E-6	20.769217
2720.678638	-2.977300	2.681800	-7.983500	29.645130	-9.521201E-6	20.747455
2721.678307	-2.997600	2.679100	-8.030400	29.668070	-8.102097E-6	20.740709
2722.677639	-2.989400	2.673200	-7.990200	29.707697	-7.409046E-6	20.743677
2723.678321	-2.988100	2.668200	-7.972400	29.699556	-8.069094E-6	20.753962
2724.677674	-3.030000	2.662800	-8.066800	29.689234	-1.097331E-5	20.754460
2725.678187	-3.018300	2.658800	-8.024200	29.683533	-1.001624E-5	20.761041
2726.675269	-3.009000	2.655000	-7.987700	29.727587	-7.310038E-6	20.745238
2727.675557	-3.017600	2.649900	-7.994800	29.679161	-6.947012E-6	20.769436
2728.678638	-2.982800	2.647400	-7.896000	29.675335	-6.451975E-6	20.757043
2729.677392	-2.998600	2.640500	-7.917400	29.768695	-8.003089E-6	20.741640
2730.679070	-3.000300	2.635100	-7.905400	29.801596	-8.300111E-6	20.749209
2731.676878	-2.991600	2.630700	-7.869300	29.867187	-9.653211E-6	20.768405
2732.682223	-2.986400	2.626800	-7.844400	29.802910	-6.154953E-6	20.740576
2733.682680	-3.001700	2.621500	-7.868000	29.813741	-8.069094E-6	20.744859
2734.679641	-3.007700	2.615000	-7.864300	29.873048	-7.574058E-6	20.761513
2735.678997	-2.971300	2.612300	-7.761400	29.884713	-6.881007E-6	20.761422
2736.678917	-3.006000	2.604600	-7.827800	29.780344	-6.815002E-6	20.763817
2737.678942	-3.008800	2.599900	-7.821900	29.727348	-8.663138E-6	20.744049
2738.682467	-3.057300	2.593400	-7.927000	29.708018	-7.904082E-6	20.771976
2739.680715	-3.000400	2.589600	-7.769100	29.731402	-8.531128E-6	20.767577
2740.679753	-3.011200	2.583700	-7.779200	29.761224	-1.001624E-5	20.760661
2741.681074	-3.010100	2.577600	-7.758200	29.804934	-6.583985E-6	20.767275
2742.679173	-3.015200	2.571000	-7.750900	29.829654	-8.201104E-6	20.759957
2743.679613	-2.980800	2.566400	-7.649300	29.786691	-8.498126E-6	20.762157
2744.686389	-3.017000	2.558400	-7.718100	29.859441	-9.389192E-6	20.773397
2745.685398	-3.033100	2.551700	-7.738600	29.891173	-8.135099E-6	20.772678
2746.680949	-2.974800	2.547700	-7.578000	29.901963	-8.531128E-6	20.767437
2747.686619	-3.024500	2.541500	-7.685700	29.899831	-7.838077E-6	20.768132
2748.683929	-3.016300	2.534500	-7.643900	29.843647	-1.031326E-5	20.773593
2749.684906	-2.996000	2.529000	-7.575900	29.770215	-6.815002E-6	20.779683
2750.684848	-3.019000	2.522900	-7.615600	29.796234	-9.092170E-6	20.755182
2751.682529	-2.990600	2.517000	-7.526500	29.790330	-8.696141E-6	20.782895
2752.685478	-3.014700	2.509600	-7.565100	29.847084	-8.960160E-6	20.746712
2753.685145	-2.996300	2.506700	-7.510300	29.868715	-9.488199E-6	20.773265
2754.681269	-3.007500	2.497900	-7.511700	29.949145	-7.178029E-6	20.773290
