LabVIEW Measurement	
Writer_Version	2
Reader_Version	2
Separator	Tab
Decimal_Separator	.
Multi_Headings	No
X_Columns	One
Time_Pref	Absolute
Operator	admin
Description	Clolumns are: time, Current, Voltage, Power, Battery Temp, and Chamber Temp
Date	2024/08/16
Time	13:07:17.8513970375061035156
***End_of_Header***	
	
Channels	6						
Samples	1	1	1	1	1	1	
Date	2024/08/28	2024/08/28	2024/08/28	2024/08/28	2024/08/28	2024/08/28	
Time	20:40:38.0969214439392089844	20:40:38.1026129722595214844	20:40:38.1084742546081542969	20:40:38.08168792724609375	20:40:38.08168792724609375	20:40:38.08168792724609375	
X_Dimension	Time	Time	Time	Time	Time	Time	
X0	0.0000000000000000E+0	0.0000000000000000E+0	0.0000000000000000E+0	0.0000000000000000E+0	0.0000000000000000E+0	0.0000000000000000E+0	
Delta_X	1.000000	1.000000	1.000000	1.000000	1.000000	1.000000	
***End_of_Header***							
X_Value	Untitled	Untitled 1	Untitled 2	Untitled 3	Untitled 4	Untitled 5	Comment
0.000000	0.016218	4.089100	0.066320	20.736273	0.000455	20.651866
1.000787	-2.999400	3.927600	-11.779000	20.741751	0.000455	20.665407
2.004518	-3.013300	3.923600	-11.822000	20.740982	0.000453	20.672225
3.003655	-2.989300	3.918900	-11.715000	20.728302	0.000452	20.654802
4.001529	-2.988800	3.914600	-11.699000	20.749437	0.000450	20.656495
5.002438	-2.985100	3.912800	-11.678000	20.757842	0.000452	20.678653
6.002199	-3.003200	3.909900	-11.742000	20.769271	0.000452	20.673960
7.003272	-2.998000	3.907300	-11.712000	20.770244	0.000451	20.660706
8.009640	-3.024200	3.904100	-11.806000	20.771961	0.000449	20.668115
9.003609	-3.006100	3.903500	-11.733000	20.774546	0.000449	20.673070
10.007087	-2.991100	3.902800	-11.673000	20.790895	0.000447	20.660495
11.005397	-2.977700	3.901000	-11.615000	20.782975	0.000448	20.646883
12.006706	-3.003000	3.899100	-11.708000	20.796259	0.000447	20.658746
13.005940	-2.991900	3.899400	-11.665000	20.791355	0.000447	20.657636
14.006798	-3.011600	3.897900	-11.738000	20.803936	0.000445	20.667847
15.009271	-2.998300	3.896600	-11.682000	20.791011	0.000447	20.667724
16.006441	-2.985000	3.897400	-11.633000	20.832876	0.000445	20.656009
17.009124	-2.998100	3.896200	-11.681000	20.822765	0.000445	20.671977
18.003895	-3.009000	3.893100	-11.714000	20.838812	0.000444	20.673326
19.007883	-2.999700	3.893400	-11.678000	20.845572	0.000445	20.644522
20.014588	-3.004200	3.892100	-11.691000	20.846521	0.000443	20.654955
21.004006	-2.996800	3.891400	-11.661000	20.877658	0.000445	20.677088
22.006674	-3.020700	3.890000	-11.749000	20.877511	0.000442	20.671724
23.011207	-3.001200	3.889500	-11.673000	20.887910	0.000444	20.663157
24.008494	-2.994100	3.889400	-11.644000	20.880650	0.000441	20.665380
25.010153	-3.006700	3.887700	-11.688000	20.875755	0.000442	20.660484
26.007571	-2.994000	3.887800	-11.639000	20.893869	0.000443	20.682870
27.018064	-2.995900	3.887800	-11.646000	20.913578	0.000442	20.665120
28.010040	-3.017300	3.887000	-11.727000	20.905543	0.000441	20.678422
29.010248	-2.998300	3.887000	-11.653000	20.935812	0.000440	20.676452
30.012727	-2.998900	3.885700	-11.652000	20.948661	0.000438	20.655636
31.010211	-3.030700	3.885900	-11.776000	20.941118	0.000441	20.685553
32.008445	-3.012500	3.885300	-11.703000	20.955685	0.000440	20.676413
33.009119	-3.022300	3.884100	-11.738000	20.935544	0.000439	20.660536
34.008755	-3.005900	3.884900	-11.676000	20.948320	0.000440	20.681376
35.011410	-2.988200	3.885300	-11.609000	20.983280	0.000441	20.678882
36.012574	-3.001000	3.882500	-11.651000	20.989116	0.000439	20.668597
37.009948	-2.971300	3.883200	-11.537000	20.987090	0.000437	20.667993
38.008447	-3.005400	3.881900	-11.666000	20.989541	0.000439	20.677558
39.012092	-3.003400	3.881400	-11.657000	21.010115	0.000437	20.651192
40.012574	-2.994100	3.879900	-11.616000	21.031171	0.000438	20.660873
41.014553	-3.030500	3.880300	-11.758000	21.032217	0.000438	20.691320
42.012566	-3.001800	3.881400	-11.650000	21.047608	0.000438	20.693912
43.012111	-3.041800	3.880700	-11.803000	21.061545	0.000437	20.686040
44.013028	-3.003800	3.879200	-11.651000	21.058585	0.000437	20.684502
45.012342	-3.003000	3.878000	-11.645000	21.043310	0.000438	20.685345
46.014867	-3.019600	3.879900	-11.714000	21.076697	0.000437	20.705939
47.012766	-2.991100	3.879100	-11.602000	21.075457	0.000438	20.681937
48.012902	-2.986300	3.878500	-11.582000	21.074410	0.000438	20.695116
49.017655	-3.017400	3.878900	-11.703000	21.099541	0.000435	20.683743
50.016147	-2.993800	3.879700	-11.614000	21.109415	0.000438	20.670384
51.015038	-3.025400	3.877500	-11.731000	21.103270	0.000438	20.676092
52.013727	-3.008800	3.877900	-11.667000	21.112930	0.000438	20.689075
53.013938	-3.007200	3.877300	-11.659000	21.098702	0.000435	20.685274
54.013109	-3.005800	3.877600	-11.655000	21.120402	0.000438	20.695601
55.012564	-3.019700	3.877900	-11.709000	21.136729	0.000437	20.700079
56.015055	-3.011600	3.877800	-11.677000	21.127323	0.000437	20.678814
57.017478	-2.982000	3.877500	-11.562000	21.132235	0.000435	20.682306
58.014191	-2.995400	3.876800	-11.611000	21.160170	0.000436	20.694129
59.023802	-3.015600	3.876900	-11.690000	21.176138	0.000438	20.677385
60.023150	-2.989700	3.876200	-11.588000	21.190432	0.000437	20.679355
61.018026	-3.010100	3.876700	-11.668000	21.181598	0.000438	20.707030
62.018754	-2.994000	3.876300	-11.605000	21.209416	0.000435	20.702615
63.016201	-2.992500	3.875200	-11.596000	21.214149	0.000436	20.693124
64.018327	-2.963500	3.875500	-11.484000	21.220588	0.000437	20.684392
65.019082	-2.982700	3.875700	-11.559000	21.219714	0.000438	20.687311
66.018062	-3.000700	3.874300	-11.624000	21.223948	0.000435	20.697237
67.023187	-3.006400	3.874600	-11.647000	21.243879	0.000437	20.689201
68.020256	-2.987100	3.875600	-11.575000	21.256227	0.000435	20.702977
69.020377	-3.010500	3.873400	-11.660000	21.265060	0.000435	20.682414
70.021037	-3.001100	3.873600	-11.624000	21.251487	0.000435	20.698235
71.020276	-2.997600	3.873600	-11.610000	21.280546	0.000438	20.698856
72.020931	-2.976800	3.874900	-11.534000	21.287729	0.000436	20.693240
73.024899	-3.001700	3.872500	-11.623000	21.273331	0.000438	20.697803
74.022664	-2.999400	3.872400	-11.614000	21.299708	0.000435	20.693844
75.022081	-3.005300	3.872400	-11.637000	21.302292	0.000437	20.692636
76.024683	-3.024000	3.872100	-11.708000	21.298230	0.000437	20.704694
77.023515	-3.002500	3.872900	-11.627000	21.327411	0.000436	20.695007
78.023957	-3.011900	3.873300	-11.665000	21.321699	0.000438	20.703043
79.022126	-3.017000	3.872300	-11.682000	21.320547	0.000437	20.691933
80.022698	-3.030300	3.872700	-11.735000	21.340526	0.000437	20.706707
81.021348	-3.018300	3.872300	-11.687000	21.335369	0.000438	20.709134
82.026098	-3.037900	3.871400	-11.760000	21.366526	0.000438	20.703321
83.023748	-2.989100	3.873100	-11.576000	21.386953	0.000437	20.699102
84.023899	-2.981700	3.871700	-11.543000	21.373561	0.000439	20.694237
85.024588	-2.978100	3.871900	-11.530000	21.409072	0.000440	20.688515
86.024212	-2.986500	3.871800	-11.562000	21.409922	0.000439	20.674191
87.025623	-3.016800	3.869900	-11.674000	21.387992	0.000439	20.699193
88.023802	-3.004500	3.869900	-11.626000	21.397519	0.000439	20.718684
89.025413	-3.004800	3.870000	-11.628000	21.426199	0.000440	20.702334
90.024478	-3.001200	3.871400	-11.617000	21.410585	0.000439	20.705203
91.024379	-3.012400	3.869600	-11.656000	21.446829	0.000438	20.700216
92.025635	-3.007400	3.871100	-11.642000	21.445351	0.000439	20.703953
93.024717	-3.017900	3.869500	-11.677000	21.471569	0.000439	20.697943
94.027575	-3.029300	3.868900	-11.719000	21.466160	0.000438	20.701066
95.024750	-3.011500	3.868600	-11.649000	21.473963	0.000440	20.723574
96.025516	-2.997200	3.870100	-11.598000	21.468726	0.000440	20.719281
97.027189	-2.995000	3.870400	-11.591000	21.485378	0.000440	20.703226
98.025439	-2.999100	3.869000	-11.602000	21.506808	0.000440	20.708547
99.032127	-3.023800	3.868200	-11.696000	21.506702	0.000440	20.728832
100.026856	-3.000800	3.868100	-11.607000	21.530845	0.000440	20.720272
101.024735	-2.984400	3.868400	-11.544000	21.514660	0.000442	20.706921
102.026817	-2.999500	3.868100	-11.602000	21.528556	0.000441	20.704230
103.027538	-3.009000	3.868600	-11.639000	21.533116	0.000439	20.719699
104.027258	-3.006400	3.868900	-11.631000	21.543410	0.000441	20.720518
105.030110	-3.001800	3.867900	-11.610000	21.554913	0.000441	20.725389
106.027013	-3.025600	3.867800	-11.701000	21.555355	0.000441	20.699752
107.027571	-3.000100	3.867400	-11.602000	21.559096	0.000444	20.719144
108.031306	-3.027400	3.867000	-11.706000	21.570672	0.000443	20.720771
109.026164	-3.011900	3.867500	-11.647000	21.571188	0.000441	20.716071
110.030999	-3.012800	3.867200	-11.650000	21.600109	0.000441	20.716562
111.027111	-3.005500	3.866800	-11.620000	21.608669	0.000441	20.733190
112.030350	-2.989600	3.867200	-11.560000	21.600983	0.000445	20.716489
113.030011	-2.993000	3.866200	-11.571000	21.635417	0.000445	20.705428
114.030294	-3.014200	3.866400	-11.653000	21.624053	0.000440	20.722505
115.040017	-2.997900	3.867500	-11.594000	21.639460	0.000442	20.710897
116.030888	-2.981300	3.868000	-11.531000	21.634592	0.000446	20.715983
117.033169	-2.986900	3.865800	-11.545000	21.659255	0.000444	20.720749
118.032776	-3.003300	3.866400	-11.611000	21.668559	0.000444	20.717258
119.033524	-3.005200	3.866500	-11.619000	21.667228	0.000444	20.723039
120.034305	-2.985700	3.866300	-11.542000	21.677824	0.000445	20.734591
121.043269	-2.997500	3.865700	-11.587000	21.689374	0.000445	20.712484
122.037131	-3.023000	3.865700	-11.684000	21.696635	0.000445	20.718329
123.036307	-3.004300	3.865800	-11.613000	21.692357	0.000444	20.710728
124.040826	-2.987300	3.865600	-11.548000	21.713930	0.000443	20.722361
125.036549	-3.003300	3.865300	-11.607000	21.705247	0.000444	20.722206
126.040429	-2.997100	3.864900	-11.582000	21.714673	0.000445	20.742547
127.038650	-2.999000	3.864800	-11.590000	21.737618	0.000446	20.734216
128.039342	-3.024900	3.864100	-11.687000	21.728037	0.000447	20.746439
129.039276	-3.006600	3.864900	-11.619000	21.745918	0.000445	20.723081
130.039140	-3.003800	3.863800	-11.604000	21.762026	0.000447	20.727823
131.041873	-3.019400	3.864400	-11.667000	21.765261	0.000446	20.738648
132.041208	-3.010700	3.863300	-11.630000	21.771592	0.000446	20.738346
133.038951	-3.001100	3.864200	-11.596000	21.769770	0.000446	20.736049
134.038923	-3.009400	3.862300	-11.622000	21.791889	0.000447	20.739221
135.041034	-3.005400	3.862700	-11.608000	21.806354	0.000447	20.738051
136.040193	-2.998000	3.863100	-11.581000	21.807646	0.000447	20.736024
137.042537	-2.987200	3.863800	-11.541000	21.812692	0.000448	20.744395
138.043102	-2.994700	3.863100	-11.567000	21.840284	0.000448	20.735027
139.043015	-2.998700	3.861800	-11.580000	21.830466	0.000446	20.748434
140.049247	-3.008100	3.861200	-11.615000	21.838291	0.000449	20.731609
141.042380	-2.986300	3.862500	-11.533000	21.826170	0.000449	20.744134
142.044199	-2.997200	3.862500	-11.576000	21.862696	0.000451	20.751770
143.042852	-3.003100	3.863600	-11.602000	21.859085	0.000450	20.755743
144.042709	-3.005100	3.862100	-11.605000	21.866623	0.000449	20.738631
145.043587	-2.984200	3.861800	-11.524000	21.881725	0.000449	20.753748
146.042317	-2.981000	3.862800	-11.514000	21.897333	0.000450	20.750404
147.044578	-3.013800	3.861400	-11.637000	21.919197	0.000450	20.730563
148.047179	-3.000900	3.861900	-11.588000	21.887238	0.000452	20.742670
149.043364	-2.990300	3.860400	-11.543000	21.911421	0.000452	20.747910
150.043111	-2.989800	3.861300	-11.544000	21.921172	0.000451	20.731118
151.044652	-2.973300	3.861800	-11.481000	21.930246	0.000452	20.731191
152.043604	-2.980100	3.860500	-11.503000	21.921327	0.000452	20.746446
153.048601	-3.006600	3.861000	-11.608000	21.933636	0.000453	20.743120
154.048420	-3.006700	3.861400	-11.609000	21.927829	0.000456	20.736358
155.043954	-2.998000	3.860700	-11.574000	21.948572	0.000453	20.759968
156.044863	-2.991400	3.860800	-11.548000	21.938046	0.000452	20.740896
157.046617	-3.004100	3.860400	-11.596000	21.950720	0.000454	20.752635
158.048053	-2.989900	3.860700	-11.542000	21.947372	0.000455	20.765406
159.045940	-3.017500	3.858000	-11.641000	21.984073	0.000456	20.745245
160.045577	-2.987400	3.859900	-11.530000	21.985112	0.000454	20.733007
161.045464	-3.020900	3.857500	-11.651000	21.994290	0.000456	20.755473
162.046935	-2.997600	3.859500	-11.568000	22.014258	0.000456	20.758391
163.045873	-3.012600	3.858100	-11.622000	22.030460	0.000456	20.748058
164.046235	-2.995300	3.858500	-11.557000	22.027569	0.000456	20.739474
165.046216	-3.004100	3.859300	-11.592000	22.046336	0.000457	20.736923
166.046692	-3.005500	3.858800	-11.597000	22.048532	0.000457	20.762357
167.049266	-3.001400	3.857400	-11.577000	22.054682	0.000457	20.759505
168.050121	-2.987600	3.858900	-11.528000	22.052535	0.000457	20.750242
169.052770	-2.993600	3.857400	-11.547000	22.047528	0.000457	20.752817
170.046481	-3.001500	3.858000	-11.579000	22.098484	0.000458	20.756888
171.047337	-2.987700	3.856400	-11.521000	22.084040	0.000460	20.767084
172.048265	-3.009400	3.856700	-11.606000	22.089846	0.000458	20.767207
173.047191	-3.000600	3.857900	-11.575000	22.097147	0.000459	20.766930
174.054028	-3.010500	3.856400	-11.609000	22.120256	0.000461	20.784375
175.053615	-2.995600	3.856000	-11.550000	22.106307	0.000459	20.767091
176.055379	-2.993800	3.856600	-11.545000	22.144483	0.000459	20.773543
177.047362	-3.013800	3.856200	-11.621000	22.148395	0.000462	20.783149
178.048829	-3.000600	3.856200	-11.570000	22.156797	0.000459	20.769276
179.046159	-3.003400	3.855500	-11.579000	22.151047	0.000463	20.755458
180.047920	-2.976700	3.856100	-11.477000	22.155597	0.000463	20.769971
181.048239	-2.999900	3.855800	-11.566000	22.140621	0.000459	20.774892
182.047222	-2.991500	3.854100	-11.527000	22.172074	0.000463	20.785520
183.049351	-2.988500	3.855900	-11.523000	22.170629	0.000461	20.797349
184.046866	-3.007900	3.855900	-11.598000	22.207789	0.000461	20.772440
185.050335	-2.982500	3.855900	-11.499000	22.177799	0.000462	20.785562
186.047683	-3.019300	3.853800	-11.634000	22.185882	0.000461	20.780852
187.046846	-3.005100	3.854200	-11.582000	22.202955	0.000462	20.771868
188.048990	-2.991900	3.854100	-11.530000	22.193140	0.000465	20.781481
189.048891	-2.987300	3.855300	-11.516000	22.228952	0.000464	20.806432
190.048813	-2.998200	3.853300	-11.551000	22.232120	0.000464	20.770249
191.051873	-2.976900	3.854900	-11.475000	22.239272	0.000465	20.781678
192.049268	-2.974000	3.853800	-11.460000	22.236308	0.000463	20.789141
193.048943	-2.994100	3.854500	-11.539000	22.250669	0.000463	20.789296
194.054821	-3.008900	3.852300	-11.590000	22.231173	0.000465	20.799646
195.049770	-2.994100	3.853300	-11.536000	22.247330	0.000464	20.777417
196.053988	-2.970400	3.853200	-11.444000	22.260916	0.000465	20.772528
197.051890	-3.006900	3.851400	-11.580000	22.262663	0.000465	20.779493
198.051966	-2.991400	3.853700	-11.527000	22.289181	0.000467	20.779019
199.052362	-2.977000	3.851600	-11.466000	22.272902	0.000468	20.784056
200.052237	-3.015100	3.852600	-11.615000	22.271095	0.000468	20.780825
201.051896	-2.980100	3.852400	-11.480000	22.275129	0.000469	20.793398
202.055951	-2.985500	3.852100	-11.500000	22.294194	0.000467	20.782142
203.055524	-2.998500	3.851400	-11.547000	22.299711	0.000469	20.787192
204.054539	-3.010100	3.850800	-11.590000	22.287269	0.000469	20.786588
205.058876	-2.987700	3.852100	-11.508000	22.322914	0.000469	20.792408
206.055217	-2.999400	3.850400	-11.548000	22.323616	0.000469	20.801171
207.060703	-3.019000	3.849500	-11.620000	22.321045	0.000471	20.792433
208.057405	-3.024600	3.850000	-11.644000	22.351823	0.000470	20.791959
209.054791	-2.999400	3.850700	-11.549000	22.367204	0.000472	20.812101
210.055015	-2.972200	3.852200	-11.448000	22.385351	0.000470	20.797083
211.058198	-3.004500	3.849900	-11.567000	22.380363	0.000471	20.788295
212.063206	-2.994000	3.848900	-11.523000	22.378371	0.000474	20.808586
213.056942	-2.975800	3.851500	-11.460000	22.379480	0.000472	20.818704
214.059687	-3.001700	3.849400	-11.554000	22.371423	0.000470	20.786455
215.056154	-3.021800	3.849100	-11.630000	22.392306	0.000470	20.801677
216.057513	-3.016200	3.847600	-11.605000	22.406714	0.000473	20.799510
217.056391	-2.997500	3.848200	-11.534000	22.414087	0.000474	20.786978
218.080511	-2.980800	3.849500	-11.474000	22.422788	0.000473	20.794744
219.059616	-3.020000	3.848500	-11.622000	22.405017	0.000474	20.812983
220.059105	-3.008100	3.848300	-11.576000	22.425784	0.000474	20.806752
221.065752	-2.989800	3.847600	-11.502000	22.456935	0.000476	20.803335
222.060330	-2.988800	3.847800	-11.499000	22.455156	0.000477	20.811986
223.062282	-3.016500	3.846800	-11.602000	22.448486	0.000475	20.805780
224.066088	-3.000800	3.847400	-11.543000	22.463882	0.000475	20.808870
225.061380	-2.983900	3.848300	-11.482000	22.474151	0.000476	20.810619
226.065145	-3.000700	3.846700	-11.542000	22.484167	0.000477	20.820650
227.062010	-3.014000	3.845800	-11.590000	22.502566	0.000479	20.802092
228.061509	-2.992900	3.846900	-11.512000	22.522117	0.000477	20.815982
229.064928	-3.007200	3.845600	-11.564000	22.525642	0.000479	20.788218
230.064185	-3.028100	3.844300	-11.640000	22.512231	0.000479	20.816039
231.062991	-3.010000	3.847100	-11.578000	22.522450	0.000478	20.820109
232.066627	-3.007600	3.846700	-11.568000	22.548678	0.000478	20.807497
233.069586	-3.013200	3.845000	-11.585000	22.554896	0.000480	20.817043
234.068308	-3.006500	3.845200	-11.559000	22.526164	0.000480	20.818613
235.070740	-3.002200	3.846600	-11.547000	22.561598	0.000480	20.833712
236.066740	-2.992900	3.846600	-11.512000	22.550962	0.000480	20.809310
237.069547	-3.002500	3.845000	-11.543000	22.548987	0.000481	20.813496
238.069254	-3.013700	3.844100	-11.584000	22.532098	0.000483	20.817444
239.066345	-2.996100	3.845100	-11.519000	22.548293	0.000480	20.820861
240.067142	-2.994600	3.843900	-11.511000	22.542464	0.000483	20.819291
241.074743	-2.993900	3.844100	-11.508000	22.552929	0.000481	20.818866
242.067403	-2.982200	3.843800	-11.462000	22.594793	0.000481	20.834717
243.068827	-2.992700	3.844000	-11.503000	22.591995	0.000482	20.833336
244.074676	-2.998500	3.842600	-11.521000	22.603037	0.000484	20.830646
245.068630	-2.979300	3.843700	-11.450000	22.615697	0.000484	20.829101
246.066939	-3.001300	3.843700	-11.534000	22.598808	0.000484	20.810290
247.069414	-3.001500	3.843000	-11.534000	22.607649	0.000483	20.829575
248.071578	-3.011800	3.842500	-11.572000	22.619238	0.000485	20.817476
249.067629	-3.001200	3.842700	-11.533000	22.621115	0.000483	20.819829
250.076605	-2.993700	3.841900	-11.500000	22.627409	0.000483	20.813331
251.069791	-3.000300	3.842600	-11.528000	22.626690	0.000484	20.823517
252.070026	-2.996700	3.842200	-11.513000	22.644539	0.000482	20.823376
253.072248	-3.000500	3.840200	-11.522000	22.654277	0.000484	20.801836
254.070050	-3.004200	3.842200	-11.541000	22.661581	0.000484	20.807729
255.070805	-3.001500	3.840300	-11.525000	22.672518	0.000486	20.803511
256.075010	-3.003700	3.840700	-11.536000	22.665662	0.000485	20.798541
257.071503	-3.011000	3.841100	-11.565000	22.659817	0.000487	20.818291
258.077995	-2.983700	3.841500	-11.460000	22.716572	0.000485	20.800224
259.075159	-2.983100	3.840100	-11.454000	22.717666	0.000484	20.796578
260.074876	-3.003700	3.839500	-11.531000	22.718368	0.000486	20.804393
261.076177	-2.995100	3.839200	-11.498000	22.727516	0.000489	20.795539
262.071840	-2.989500	3.840900	-11.481000	22.731597	0.000490	20.821438
263.071620	-3.016400	3.840200	-11.583000	22.725451	0.000488	20.793470
264.072890	-3.013100	3.839400	-11.568000	22.731401	0.000489	20.813181
265.075543	-2.997500	3.839400	-11.508000	22.719574	0.000489	20.811765
266.084910	-3.006800	3.839400	-11.544000	22.738526	0.000488	20.809412
267.073763	-2.998500	3.838900	-11.511000	22.736240	0.000489	20.803803
268.071784	-3.014700	3.836700	-11.565000	22.757989	0.000490	20.815632
269.078403	-3.017500	3.837900	-11.579000	22.745307	0.000490	20.792971
270.073439	-3.017200	3.836900	-11.576000	22.771446	0.000490	20.805879
271.072083	-3.001100	3.837000	-11.514000	22.779615	0.000493	20.810269
272.073114	-2.988900	3.837700	-11.470000	22.786901	0.000492	20.778687
273.071998	-2.990200	3.837600	-11.475000	22.817211	0.000492	20.790084
274.088171	-3.006500	3.836100	-11.532000	22.816247	0.000493	20.789593
275.079706	-2.983100	3.837200	-11.446000	22.822530	0.000492	20.785930
276.074327	-2.973100	3.838200	-11.411000	22.793332	0.000494	20.790819
277.081254	-3.004400	3.836700	-11.526000	22.792311	0.000492	20.788848
278.073499	-3.009700	3.835800	-11.543000	22.809228	0.000491	20.784458
279.084148	-3.000300	3.835800	-11.508000	22.791943	0.000495	20.778997
280.079547	-3.012300	3.835600	-11.553000	22.823827	0.000492	20.799083
281.078896	-3.039800	3.834900	-11.656000	22.832004	0.000493	20.775980
282.077977	-3.007200	3.834400	-11.530000	22.848324	0.000496	20.769570
283.078461	-2.988900	3.835000	-11.462000	22.865159	0.000493	20.805402
284.079465	-3.000600	3.835900	-11.509000	22.841021	0.000494	20.770788
285.078724	-2.973100	3.835800	-11.404000	22.863887	0.000496	20.777100
286.080641	-2.976100	3.834300	-11.411000	22.868472	0.000496	20.777901
287.081596	-2.999600	3.833800	-11.499000	22.836116	0.000498	20.775832
288.082484	-3.018600	3.832600	-11.568000	22.858060	0.000495	20.778849
289.087983	-2.995400	3.834900	-11.486000	22.851311	0.000495	20.766872
290.080063	-3.012300	3.834600	-11.550000	22.879505	0.000499	20.770462
291.077672	-3.005600	3.832800	-11.518000	22.905641	0.000496	20.776731
292.090088	-2.996800	3.833000	-11.487000	22.920965	0.000499	20.752254
293.084530	-2.999600	3.832400	-11.495000	22.919170	0.000497	20.774164
294.078473	-2.994200	3.832800	-11.474000	22.910423	0.000500	20.781522
295.087437	-2.995700	3.833400	-11.483000	22.908530	0.000500	20.779151
296.085700	-2.998800	3.832800	-11.493000	22.921757	0.000500	20.779601
297.078598	-3.021400	3.831200	-11.575000	22.918395	0.000500	20.775758
298.080140	-2.999400	3.832700	-11.495000	22.933091	0.000501	20.766774
299.084311	-3.016600	3.831100	-11.555000	22.924898	0.000501	20.794602
300.082889	-3.007000	3.831900	-11.522000	22.924695	0.000500	20.764526
301.085384	-3.000800	3.830200	-11.493000	22.940190	0.000499	20.775783
302.084665	-2.985000	3.830400	-11.433000	22.932912	0.000503	20.731980
303.087244	-3.007200	3.830300	-11.518000	22.950177	0.000500	20.792902
304.086112	-2.997800	3.830500	-11.481000	22.942956	0.000501	20.763381
305.082920	-3.013600	3.830000	-11.541000	22.933385	0.000501	20.773707
306.084644	-3.004500	3.830600	-11.508000	22.953932	0.000500	20.770585
307.081643	-3.008700	3.830100	-11.523000	22.998824	0.000500	20.760561
308.085103	-3.017000	3.829000	-11.551000	23.008257	0.000501	20.776176
309.085564	-2.991200	3.828800	-11.451000	23.032627	0.000502	20.770722
310.086186	-2.976200	3.829100	-11.395000	23.021115	0.000502	20.740220
311.083965	-2.982500	3.829000	-11.420000	23.044874	0.000503	20.752173
312.085411	-3.006100	3.828500	-11.508000	23.050626	0.000504	20.757937
313.086683	-3.002600	3.829300	-11.496000	23.058082	0.000504	20.780581
314.086298	-2.995400	3.827800	-11.465000	23.068616	0.000503	20.754625
315.086644	-3.017400	3.827300	-11.547000	23.058678	0.000505	20.769324
316.085997	-3.017500	3.827700	-11.549000	23.036959	0.000504	20.761786
317.086619	-2.986200	3.827300	-11.428000	23.025349	0.000507	20.757740
318.090007	-2.996600	3.827600	-11.469000	23.022664	0.000505	20.760266
319.087270	-2.990100	3.826500	-11.441000	23.029886	0.000506	20.739999
320.092308	-3.004500	3.826300	-11.496000	23.036136	0.000507	20.738675
321.092140	-3.009700	3.827000	-11.517000	23.010581	0.000506	20.774238
322.088207	-3.002100	3.827300	-11.489000	23.058825	0.000508	20.754772
323.088984	-3.024500	3.825300	-11.568000	23.064161	0.000507	20.757273
324.088885	-2.998300	3.825100	-11.467000	23.076562	0.000508	20.741724
325.091741	-2.996500	3.825900	-11.463000	23.114933	0.000509	20.758362
326.092747	-2.982700	3.825600	-11.409000	23.068836	0.000508	20.743940
327.094858	-2.997400	3.824500	-11.463000	23.081017	0.000509	20.757568
328.090643	-3.010000	3.825200	-11.512000	23.121835	0.000507	20.753423
329.092655	-2.993500	3.824400	-11.447000	23.109409	0.000508	20.763732
330.090374	-3.010600	3.825100	-11.514000	23.108259	0.000510	20.733181
331.101978	-2.964100	3.825700	-11.338000	23.096012	0.000510	20.739876
332.091612	-2.998900	3.825400	-11.471000	23.106766	0.000510	20.738798
333.089656	-3.013900	3.823500	-11.522000	23.109181	0.000510	20.745011
334.090624	-3.028400	3.823200	-11.577000	23.124274	0.000513	20.753023
335.090208	-3.013000	3.823600	-11.519000	23.141088	0.000510	20.756121
336.102263	-3.025500	3.822600	-11.565000	23.153530	0.000510	20.746778
337.092570	-2.990300	3.822400	-11.429000	23.141235	0.000510	20.748682
338.094961	-2.990200	3.823600	-11.431000	23.160880	0.000511	20.759833
339.089914	-2.984400	3.822600	-11.407000	23.195821	0.000512	20.736051
340.094403	-2.994900	3.823000	-11.449000	23.229463	0.000511	20.731833
341.091317	-2.992100	3.821600	-11.434000	23.248967	0.000513	20.752802
342.090818	-2.985100	3.821900	-11.408000	23.229642	0.000510	20.738650
343.096027	-2.982700	3.822100	-11.399000	23.226053	0.000512	20.736950
344.091256	-2.996200	3.820800	-11.447000	23.203588	0.000515	20.749050
345.107638	-2.995000	3.821300	-11.444000	23.213180	0.000511	20.741594
346.092355	-3.020900	3.820200	-11.539000	23.209542	0.000515	20.752647
347.096542	-2.980800	3.821400	-11.389000	23.229194	0.000515	20.727295
348.093416	-3.009300	3.819400	-11.493000	23.245052	0.000514	20.722324
349.093976	-3.004700	3.819600	-11.476000	23.272168	0.000515	20.731481
350.096498	-2.990900	3.819400	-11.423000	23.278497	0.000515	20.758214
351.099055	-3.007800	3.819500	-11.488000	23.271148	0.000514	20.731882
352.095883	-2.974500	3.821500	-11.366000	23.275511	0.000515	20.747635
353.098536	-3.014300	3.818900	-11.511000	23.252966	0.000514	20.748748
354.096914	-3.020300	3.819500	-11.535000	23.244881	0.000517	20.736852
355.097087	-2.993400	3.819100	-11.431000	23.248364	0.000514	20.737498
356.101489	-3.013900	3.817500	-11.505000	23.244800	0.000517	20.750522
357.098124	-3.023600	3.817500	-11.541000	23.287756	0.000515	20.730034
358.100098	-2.992200	3.817700	-11.423000	23.290595	0.000515	20.737621
359.100313	-2.988500	3.819000	-11.412000	23.283800	0.000518	20.720853
360.099789	-3.008700	3.817600	-11.485000	23.290798	0.000516	20.732135
361.097101	-3.004100	3.817800	-11.469000	23.289249	0.000515	20.726789
362.100678	-2.986500	3.818500	-11.403000	23.289200	0.000517	20.728636
363.098619	-3.008000	3.817100	-11.480000	23.279608	0.000517	20.716177
364.097683	-3.005300	3.816700	-11.470000	23.297765	0.000517	20.729634
365.097831	-3.012500	3.816000	-11.494000	23.318214	0.000518	20.715988
366.099142	-2.992600	3.815400	-11.417000	23.304536	0.000518	20.734523
367.099776	-2.996000	3.814900	-11.428000	23.301084	0.000519	20.741495
368.098514	-2.986600	3.816000	-11.396000	23.314755	0.000515	20.725324
369.100670	-3.017100	3.813600	-11.505000	23.350132	0.000517	20.745134
370.101165	-3.021400	3.813500	-11.521000	23.356331	0.000518	20.736174
371.106896	-3.019100	3.814100	-11.515000	23.326338	0.000517	20.724604
372.101153	-3.012400	3.813300	-11.487000	23.341624	0.000519	20.730916
373.101475	-3.002800	3.813500	-11.450000	23.354870	0.000517	20.708629
374.104651	-3.006900	3.813400	-11.465000	23.308507	0.000517	20.715742
375.101395	-3.003500	3.813000	-11.451000	23.322259	0.000518	20.718619
376.102366	-3.004200	3.812500	-11.453000	23.349102	0.000520	20.736515
377.103244	-2.996700	3.812400	-11.423000	23.389608	0.000518	20.725904
378.109063	-3.011500	3.813300	-11.483000	23.380799	0.000521	20.725609
379.106251	-3.011100	3.812200	-11.478000	23.378041	0.000523	20.729957
380.107086	-2.998800	3.811800	-11.430000	23.380578	0.000520	20.704049
381.109138	-3.019600	3.811300	-11.508000	23.395324	0.000520	20.685162
382.104531	-2.990800	3.811000	-11.397000	23.374141	0.000521	20.730790
383.104853	-2.991100	3.812200	-11.401000	23.380235	0.000522	20.708921
384.104899	-2.997400	3.810800	-11.422000	23.374884	0.000521	20.715887
385.109928	-3.002800	3.811000	-11.443000	23.413855	0.000520	20.715592
386.104215	-3.003200	3.811800	-11.447000	23.415624	0.000521	20.731117
387.106758	-3.012300	3.810200	-11.476000	23.436046	0.000522	20.718869
388.107669	-2.998300	3.810400	-11.424000	23.427532	0.000521	20.722663
389.106440	-2.983900	3.810900	-11.371000	23.431961	0.000521	20.716670
390.111848	-2.992200	3.809300	-11.398000	23.460074	0.000521	20.714977
391.109031	-3.002600	3.810300	-11.439000	23.449275	0.000523	20.700833
392.106514	-2.986200	3.810200	-11.377000	23.489851	0.000523	20.710685
393.108754	-3.021500	3.808600	-11.506000	23.504742	0.000520	20.686730
394.108739	-2.986600	3.808600	-11.374000	23.499507	0.000524	20.732694
395.107865	-2.980200	3.809400	-11.351000	23.490902	0.000523	20.711739
396.111949	-2.998400	3.807800	-11.417000	23.490551	0.000521	20.717078
397.113058	-2.955700	3.810300	-11.262000	23.477135	0.000521	20.710267
398.110875	-3.003100	3.808800	-11.438000	23.486245	0.000523	20.700432
399.111384	-3.004800	3.807800	-11.441000	23.462047	0.000524	20.694194
400.110280	-3.017700	3.806800	-11.487000	23.483554	0.000524	20.689673
401.113006	-3.024900	3.806100	-11.513000	23.509651	0.000525	20.706825
402.110372	-3.012500	3.806000	-11.464000	23.504049	0.000525	20.708796
403.110271	-3.010200	3.807400	-11.460000	23.522749	0.000524	20.707152
404.109706	-2.983200	3.806200	-11.354000	23.524308	0.000526	20.700179
405.110824	-3.007100	3.806600	-11.446000	23.539991	0.000524	20.702150
406.111223	-2.980200	3.807200	-11.345000	23.557818	0.000526	20.694415
407.114793	-2.994100	3.806300	-11.395000	23.538873	0.000525	20.711461
408.112496	-2.990400	3.805800	-11.380000	23.556283	0.000526	20.706628
409.112170	-3.015000	3.804200	-11.469000	23.567555	0.000527	20.697064
410.112015	-2.994000	3.804500	-11.389000	23.585080	0.000526	20.684759
411.110738	-2.987300	3.805000	-11.366000	23.549206	0.000526	20.713284
412.115972	-3.014200	3.803400	-11.463000	23.571013	0.000525	20.714756
413.113067	-2.978500	3.805400	-11.334000	23.554531	0.000526	20.711985
414.114654	-3.005700	3.804500	-11.434000	23.563298	0.000524	20.696589
415.121816	-3.006200	3.803600	-11.433000	23.562106	0.000526	20.698715
416.114479	-2.997400	3.802600	-11.397000	23.583146	0.000527	20.717436
417.115635	-3.005500	3.803000	-11.429000	23.586702	0.000529	20.701560
418.112359	-2.963800	3.804100	-11.274000	23.577642	0.000528	20.683467
419.114320	-2.971300	3.803300	-11.300000	23.578735	0.000526	20.696417
420.114417	-3.017100	3.802100	-11.470000	23.595191	0.000527	20.718132
421.114535	-2.996500	3.801900	-11.390000	23.596015	0.000528	20.689083
422.115670	-3.003900	3.801600	-11.419000	23.596144	0.000528	20.685894
423.118495	-3.005400	3.801100	-11.423000	23.571998	0.000528	20.708631
424.117346	-2.988400	3.800600	-11.356000	23.563981	0.000527	20.702491
425.115139	-2.981800	3.802100	-11.336000	23.594733	0.000530	20.705343
426.118169	-2.993700	3.801300	-11.379000	23.610390	0.000529	20.696383
427.116797	-2.992900	3.799200	-11.369000	23.638597	0.000527	20.695262
428.118542	-2.981000	3.800400	-11.328000	23.635009	0.000529	20.689769
429.115718	-2.988000	3.800700	-11.355000	23.623241	0.000531	20.697412
430.116861	-3.013900	3.799400	-11.449000	23.623273	0.000527	20.685115
431.116697	-3.011200	3.799500	-11.440000	23.645397	0.000527	20.689277
432.122920	-3.008300	3.798900	-11.427000	23.673351	0.000529	20.700233
433.117903	-3.009100	3.799800	-11.433000	23.667781	0.000528	20.700812
434.117238	-2.995700	3.798900	-11.379000	23.701864	0.000529	20.688515
435.115155	-3.028300	3.797700	-11.500000	23.683665	0.000530	20.675483
436.117371	-3.005100	3.797100	-11.411000	23.682523	0.000529	20.705635
437.121387	-2.998800	3.798000	-11.389000	23.705329	0.000530	20.678238
438.116458	-3.009300	3.797100	-11.426000	23.721139	0.000529	20.677493
439.119587	-2.998600	3.797700	-11.388000	23.701700	0.000531	20.685031
440.125444	-2.998200	3.797800	-11.385000	23.697461	0.000531	20.694532
441.116156	-3.024500	3.796300	-11.481000	23.720821	0.000531	20.684761
442.116820	-2.976100	3.798000	-11.302000	23.716866	0.000529	20.679373
443.118313	-3.004500	3.794900	-11.400000	23.729032	0.000530	20.683036
444.119015	-2.996800	3.795100	-11.371000	23.744296	0.000528	20.677476
445.117954	-2.998600	3.795000	-11.378000	23.746716	0.000531	20.673264
446.124709	-3.009400	3.794500	-11.418000	23.748160	0.000531	20.694154
447.119454	-3.025500	3.794100	-11.478000	23.742142	0.000531	20.662512
448.120507	-3.019000	3.793700	-11.452000	23.728549	0.000531	20.667851
449.120335	-2.994300	3.794000	-11.359000	23.718373	0.000532	20.695109
450.123250	-3.002700	3.794500	-11.393000	23.741700	0.000532	20.680564
451.121652	-3.003700	3.793600	-11.394000	23.741105	0.000531	20.690399
452.123027	-2.989100	3.795600	-11.344000	23.747032	0.000532	20.679746
453.127974	-2.991400	3.793400	-11.347000	23.773368	0.000532	20.660156
454.118368	-3.008100	3.792300	-11.407000	23.794453	0.000531	20.667547
455.121629	-2.981800	3.793900	-11.311000	23.799956	0.000533	20.680178
456.122025	-3.016700	3.791200	-11.435000	23.779019	0.000531	20.653967
457.119355	-3.013400	3.791700	-11.425000	23.764023	0.000532	20.691092
458.121186	-2.999200	3.791300	-11.370000	23.793588	0.000531	20.684225
459.123729	-3.029600	3.790400	-11.482000	23.798030	0.000533	20.664969
460.126559	-3.005400	3.792600	-11.398000	23.747478	0.000531	20.665492
461.123830	-2.987600	3.791300	-11.326000	23.737914	0.000532	20.674397
462.120206	-3.008400	3.791000	-11.404000	23.743947	0.000534	20.669065
463.121867	-3.013300	3.792000	-11.426000	23.749304	0.000533	20.685342
464.127395	-2.985900	3.791700	-11.320000	23.757515	0.000533	20.669392
465.122284	-3.008600	3.790100	-11.402000	23.763491	0.000531	20.660684
466.123656	-2.984400	3.790200	-11.311000	23.780768	0.000532	20.657617
467.122177	-2.996800	3.790100	-11.357000	23.795950	0.000534	20.683274
468.120350	-3.001200	3.788800	-11.370000	23.795190	0.000533	20.676821
469.123038	-3.013700	3.789200	-11.418000	23.838696	0.000535	20.663544
470.123506	-2.999800	3.788900	-11.365000	23.860301	0.000534	20.656283
471.122882	-3.007500	3.788100	-11.392000	23.885542	0.000534	20.666421
472.130755	-2.998800	3.788500	-11.360000	23.881458	0.000536	20.661851
473.127839	-2.982300	3.789500	-11.301000	23.837064	0.000534	20.673288
474.131722	-2.982400	3.788100	-11.296000	23.841754	0.000536	20.671826
475.126496	-2.990700	3.788000	-11.327000	23.832230	0.000535	20.672234
476.127452	-3.011300	3.786800	-11.402000	23.811332	0.000535	20.689214
477.134030	-2.996200	3.787300	-11.347000	23.808243	0.000536	20.678529
478.128542	-2.995200	3.786500	-11.341000	23.850851	0.000534	20.674784
479.131440	-3.027500	3.785000	-11.458000	23.866211	0.000535	20.672642
480.129948	-3.004700	3.785900	-11.374000	23.904537	0.000536	20.661760
481.134068	-2.981500	3.786700	-11.290000	23.918992	0.000536	20.667721
482.133335	-3.000300	3.785400	-11.356000	23.896474	0.000535	20.675961
483.134840	-2.979300	3.785900	-11.278000	23.848536	0.000534	20.681947
484.132840	-3.012900	3.785400	-11.404000	23.878089	0.000535	20.683605
485.132132	-3.004800	3.785400	-11.374000	23.864824	0.000534	20.656077
486.133030	-3.012000	3.784300	-11.398000	23.835401	0.000534	20.664033
487.136060	-2.974300	3.784700	-11.256000	23.828192	0.000538	20.682411
488.135862	-3.001600	3.784300	-11.358000	23.847825	0.000537	20.666534
489.138253	-2.977400	3.785700	-11.271000	23.836207	0.000536	20.662470
490.133564	-3.007600	3.784000	-11.380000	23.889315	0.000536	20.678266
491.135055	-3.009100	3.782600	-11.381000	23.855587	0.000537	20.650133
492.135360	-3.003800	3.782700	-11.360000	23.861147	0.000535	20.672305
493.137203	-2.991700	3.783400	-11.318000	23.857910	0.000534	20.661946
494.135581	-3.010000	3.783700	-11.388000	23.883192	0.000536	20.673549
495.136160	-3.007900	3.782100	-11.375000	23.899000	0.000536	20.675175
496.138306	-3.013500	3.782600	-11.398000	23.940708	0.000537	20.694715
497.134691	-3.000700	3.781600	-11.346000	23.933248	0.000534	20.671585
498.137960	-3.007700	3.780600	-11.370000	23.939672	0.000535	20.673286
499.136596	-3.005100	3.782200	-11.365000	23.948232	0.000537	20.682345
500.146501	-3.019200	3.782000	-11.418000	23.981085	0.000537	20.669295
501.136266	-3.017800	3.781400	-11.411000	23.991455	0.000536	20.657408
502.136939	-2.963600	3.780400	-11.203000	24.041474	0.000535	20.677701
503.137764	-2.995400	3.779500	-11.320000	24.031227	0.000538	20.678330
504.148361	-3.003300	3.779400	-11.350000	24.001318	0.000539	20.687217
505.137387	-3.003100	3.778700	-11.347000	23.991340	0.000535	20.670096
506.140939	-3.007800	3.779100	-11.365000	24.027673	0.000535	20.687094
507.143847	-2.999900	3.780000	-11.339000	24.044147	0.000536	20.678485
508.138583	-3.014400	3.778900	-11.390000	24.037535	0.000536	20.684182
509.142603	-2.992200	3.777900	-11.304000	23.987891	0.000538	20.661421
510.142794	-3.006000	3.777000	-11.353000	23.978581	0.000538	20.673897
511.139775	-2.997000	3.778100	-11.322000	23.993263	0.000537	20.684354
512.147446	-3.004500	3.776700	-11.346000	24.048010	0.000536	20.688050
513.141090	-2.984100	3.778500	-11.275000	24.038358	0.000535	20.693543
514.144496	-3.013800	3.775300	-11.376000	24.029326	0.000537	20.675000
515.156387	-3.002600	3.776400	-11.338000	24.007682	0.000537	20.672261
516.142382	-3.021500	3.775400	-11.406000	24.005392	0.000537	20.671386
517.143523	-2.993500	3.775900	-11.302000	24.011391	0.000538	20.696371
518.158528	-2.993900	3.776300	-11.305000	24.028584	0.000537	20.681369
519.145009	-3.008500	3.775600	-11.357000	24.055557	0.000538	20.682816
520.145486	-2.974100	3.777100	-11.231000	24.044666	0.000536	20.696077
521.148398	-2.989200	3.776300	-11.287000	24.036082	0.000537	20.676086
522.148283	-3.013000	3.774300	-11.371000	24.019625	0.000535	20.676177
523.149043	-2.998700	3.774500	-11.318000	24.076122	0.000537	20.698226
524.144578	-3.006800	3.775900	-11.352000	24.113611	0.000536	20.685563
525.151434	-3.014300	3.774300	-11.376000	24.124190	0.000535	20.681475
526.145144	-2.984700	3.774600	-11.265000	24.080654	0.000536	20.679536
527.147073	-2.995300	3.774200	-11.305000	24.114889	0.000534	20.676887
528.146831	-3.002800	3.773900	-11.332000	24.082293	0.000534	20.703941
529.149984	-2.989300	3.774600	-11.283000	24.093044	0.000534	20.680109
530.150651	-2.979900	3.773300	-11.243000	24.065599	0.000535	20.684826
531.150418	-3.031700	3.771800	-11.434000	24.071769	0.000537	20.664934
532.150327	-3.014700	3.772700	-11.373000	24.083719	0.000536	20.680239
533.152396	-3.005000	3.772000	-11.334000	24.051170	0.000536	20.674148
534.152452	-2.985000	3.772500	-11.260000	24.044380	0.000536	20.682037
535.153187	-3.007400	3.771500	-11.342000	24.044779	0.000535	20.670109
536.152360	-3.011900	3.770600	-11.355000	24.056052	0.000536	20.695642
537.149780	-2.996900	3.772000	-11.302000	24.083057	0.000537	20.696172
538.153787	-2.975200	3.771400	-11.220000	24.088542	0.000536	20.693612
539.154948	-3.002000	3.770600	-11.318000	24.099205	0.000537	20.676804
540.149250	-3.009700	3.769300	-11.344000	24.107673	0.000538	20.690040
541.152680	-2.992600	3.770200	-11.281000	24.130194	0.000537	20.689868
542.154279	-2.983400	3.769500	-11.245000	24.139135	0.000537	20.706423
543.158039	-2.984500	3.770200	-11.251000	24.155730	0.000535	20.696040
544.152440	-2.975200	3.769900	-11.216000	24.156675	0.000535	20.702204
545.150239	-2.992500	3.767500	-11.273000	24.160212	0.000537	20.690578
546.158498	-3.000400	3.769100	-11.307000	24.213361	0.000537	20.682246
547.152597	-2.994200	3.769800	-11.286000	24.161271	0.000536	20.692113
548.153739	-3.005100	3.768500	-11.325000	24.154008	0.000537	20.682457
549.159048	-3.005200	3.767000	-11.320000	24.180229	0.000535	20.690266
550.151812	-3.021400	3.767100	-11.382000	24.185559	0.000538	20.692767
551.152672	-3.006300	3.767300	-11.325000	24.173944	0.000537	20.699135
552.158668	-2.995700	3.766900	-11.283000	24.205519	0.000538	20.707573
553.153282	-2.986500	3.767400	-11.250000	24.233066	0.000537	20.702961
554.154134	-2.979600	3.767100	-11.223000	24.245038	0.000537	20.712600
555.154603	-3.004000	3.766900	-11.315000	24.264020	0.000538	20.713622
556.153301	-2.982000	3.766000	-11.229000	24.278103	0.000536	20.698823
557.166924	-2.983700	3.767000	-11.238000	24.271247	0.000536	20.710914
558.161152	-2.988100	3.765500	-11.251000	24.295795	0.000537	20.703769
559.154089	-2.981500	3.764800	-11.224000	24.285974	0.000537	20.695814
560.154574	-3.001200	3.766200	-11.301000	24.246691	0.000536	20.713310
561.166295	-3.018900	3.763000	-11.360000	24.226796	0.000537	20.706155
562.159038	-3.023800	3.764400	-11.381000	24.217097	0.000537	20.709229
563.158076	-3.001800	3.763500	-11.296000	24.247977	0.000536	20.696106
564.156096	-3.006900	3.764500	-11.318000	24.277081	0.000536	20.692109
565.158053	-2.991200	3.764300	-11.259000	24.300944	0.000538	20.703244
566.167992	-3.016400	3.763500	-11.352000	24.258181	0.000538	20.702074
567.158501	-2.995800	3.763500	-11.273000	24.265345	0.000538	20.711632
568.164719	-2.995900	3.763500	-11.274000	24.269077	0.000538	20.719644
569.160683	-3.026000	3.761000	-11.380000	24.256844	0.000537	20.723494
570.161026	-3.001700	3.762100	-11.291000	24.225246	0.000537	20.699858
571.162262	-3.007400	3.761200	-11.311000	24.225750	0.000538	20.711271
572.161326	-3.011200	3.760900	-11.324000	24.232890	0.000538	20.710371
573.164888	-3.002300	3.761100	-11.291000	24.228261	0.000537	20.713315
574.160450	-3.008200	3.760300	-11.311000	24.246028	0.000537	20.700789
575.159027	-2.987700	3.759800	-11.232000	24.227617	0.000537	20.708875
576.168828	-2.995000	3.760400	-11.261000	24.264716	0.000537	20.695352
577.160288	-3.010000	3.760500	-11.318000	24.262947	0.000537	20.721555
578.159264	-2.975800	3.760800	-11.191000	24.228227	0.000537	20.715651
579.188915	-3.011400	3.758100	-11.316000	24.292359	0.000537	20.725929
580.159851	-2.999500	3.758700	-11.273000	24.311389	0.000537	20.734587
581.163053	-3.004000	3.758100	-11.289000	24.319523	0.000536	20.710976
582.159329	-3.007600	3.759500	-11.306000	24.273232	0.000536	20.725708
583.160716	-3.004000	3.757700	-11.286000	24.303581	0.000536	20.702097
584.163694	-3.017300	3.756900	-11.335000	24.322716	0.000535	20.719870
585.159879	-2.998000	3.757500	-11.263000	24.333612	0.000537	20.712782
586.160992	-3.004300	3.757400	-11.287000	24.302384	0.000537	20.719863
587.161810	-3.009700	3.757400	-11.308000	24.281691	0.000537	20.726607
588.165190	-3.001500	3.757700	-11.277000	24.297664	0.000534	20.728879
589.162497	-2.993200	3.757300	-11.246000	24.304632	0.000536	20.720696
590.163853	-3.001500	3.757500	-11.278000	24.303711	0.000538	20.714556
591.163825	-2.995300	3.756600	-11.252000	24.326848	0.000536	20.718799
592.165201	-2.979800	3.756300	-11.193000	24.365280	0.000535	20.714204
593.167170	-2.997300	3.755800	-11.256000	24.374359	0.000537	20.725683
594.165614	-2.994900	3.756800	-11.249000	24.368124	0.000537	20.728911
595.165423	-2.994800	3.755400	-11.245000	24.349959	0.000535	20.721121
596.164879	-3.000500	3.754400	-11.264000	24.317314	0.000535	20.744798
597.171047	-3.000100	3.756700	-11.269000	24.281120	0.000535	20.713706
598.167767	-3.018000	3.754600	-11.330000	24.255399	0.000536	20.724889
599.164540	-3.008500	3.756000	-11.299000	24.287860	0.000534	20.726631
600.168688	-3.008800	3.753700	-11.293000	24.281439	0.000533	20.761443
601.164814	-3.010200	3.754700	-11.302000	24.318112	0.000536	20.717622
602.167518	-3.021100	3.753900	-11.340000	24.326466	0.000536	20.729322
603.180192	-2.989100	3.754900	-11.222000	24.315129	0.000535	20.741184
604.168282	-3.004700	3.754500	-11.280000	24.345975	0.000535	20.736565
605.168176	-2.995200	3.752900	-11.239000	24.344606	0.000535	20.731872
606.165998	-2.990500	3.752900	-11.222000	24.370602	0.000534	20.721440
607.178608	-3.012800	3.752000	-11.303000	24.369135	0.000533	20.749367
608.167968	-3.005600	3.752400	-11.278000	24.360204	0.000535	20.742304
609.175021	-2.992100	3.751600	-11.225000	24.348208	0.000536	20.736434
610.175220	-3.024200	3.751400	-11.344000	24.379761	0.000535	20.746751
611.168907	-3.015900	3.751400	-11.313000	24.365452	0.000535	20.732395
612.169982	-2.990600	3.750600	-11.215000	24.363463	0.000534	20.737513
613.171727	-3.025700	3.750400	-11.347000	24.331721	0.000533	20.751665
614.172176	-3.003000	3.750200	-11.261000	24.358582	0.000533	20.757748
615.171576	-2.984200	3.750100	-11.191000	24.338209	0.000533	20.740628
616.173249	-2.998000	3.750000	-11.241000	24.358558	0.000534	20.734963
617.174691	-2.987100	3.751000	-11.204000	24.316148	0.000537	20.733196
618.171150	-3.002800	3.749000	-11.257000	24.385849	0.000534	20.718243
619.175414	-2.989000	3.750400	-11.209000	24.379810	0.000534	20.756283
620.176561	-3.009800	3.749400	-11.284000	24.382450	0.000532	20.770312
621.179293	-2.994500	3.749900	-11.229000	24.386525	0.000534	20.771081
622.175995	-3.007800	3.748500	-11.273000	24.401748	0.000535	20.737513
623.172872	-3.029200	3.748000	-11.353000	24.428817	0.000533	20.749972
624.173841	-3.002900	3.747100	-11.251000	24.387845	0.000533	20.761499
625.176970	-2.994900	3.748300	-11.225000	24.386574	0.000533	20.767811
626.176075	-2.984300	3.748800	-11.187000	24.421304	0.000534	20.745279
627.177146	-2.988800	3.748200	-11.201000	24.440780	0.000532	20.751068
628.182758	-3.011400	3.746600	-11.282000	24.458421	0.000533	20.744584
629.203800	-2.969900	3.748500	-11.131000	24.492277	0.000532	20.753421
630.181696	-2.999100	3.746900	-11.236000	24.503514	0.000532	20.763747
631.175475	-2.984900	3.746900	-11.183000	24.489182	0.000533	20.765963
632.181385	-2.988000	3.745900	-11.192000	24.485377	0.000533	20.753610
633.177338	-2.998000	3.746100	-11.230000	24.486973	0.000533	20.758531
634.179911	-2.993600	3.745300	-11.211000	24.487316	0.000533	20.757453
635.179341	-2.999300	3.745800	-11.233000	24.440038	0.000532	20.757436
636.185803	-3.010300	3.744900	-11.272000	24.444553	0.000533	20.760069
637.179030	-3.015600	3.743800	-11.289000	24.443143	0.000531	20.753913
638.178030	-2.986200	3.744900	-11.182000	24.446851	0.000532	20.773280
639.178581	-2.992400	3.744200	-11.203000	24.454429	0.000530	20.764762
640.178290	-2.994100	3.744300	-11.210000	24.444585	0.000533	20.779068
641.179647	-2.996700	3.744300	-11.220000	24.458463	0.000531	20.751738
642.178794	-3.012300	3.743900	-11.276000	24.469308	0.000532	20.766413
643.182420	-2.989700	3.742800	-11.189000	24.469756	0.000533	20.774449
644.180432	-2.995700	3.744100	-11.215000	24.496474	0.000533	20.771383
645.180015	-2.981500	3.743400	-11.160000	24.515395	0.000530	20.764762
646.181784	-2.998900	3.742400	-11.222000	24.519281	0.000529	20.777670
647.183429	-2.997800	3.741900	-11.216000	24.548427	0.000532	20.758074
648.181520	-2.985000	3.743400	-11.173000	24.561887	0.000531	20.770157
649.180346	-2.998400	3.742400	-11.220000	24.536980	0.000529	20.758917
650.189430	-2.996900	3.741900	-11.213000	24.533532	0.000531	20.774425
651.180963	-3.012800	3.741400	-11.271000	24.516365	0.000529	20.782805
652.180501	-3.004800	3.741200	-11.240000	24.491187	0.000530	20.785519
653.185329	-2.994400	3.741600	-11.203000	24.482688	0.000529	20.763715
654.187403	-2.994400	3.742000	-11.204000	24.479698	0.000530	20.797226
655.182877	-3.001700	3.739500	-11.223000	24.464200	0.000528	20.768875
656.204586	-3.015200	3.740100	-11.276000	24.495896	0.000530	20.753733
657.194336	-2.990200	3.742300	-11.189000	24.531732	0.000530	20.788266
658.187703	-3.016900	3.739000	-11.278000	24.542585	0.000529	20.781136
659.194362	-3.006200	3.739000	-11.239000	24.521262	0.000527	20.782028
660.188222	-3.001500	3.740800	-11.228000	24.512307	0.000529	20.811924
661.185656	-3.012100	3.739100	-11.262000	24.539920	0.000529	20.780360
662.200830	-2.974200	3.738500	-11.118000	24.526044	0.000529	20.783507
663.191001	-3.010400	3.738300	-11.253000	24.522011	0.000529	20.766184
664.195599	-2.995700	3.738700	-11.199000	24.575657	0.000527	20.791086
665.184742	-3.004600	3.738800	-11.233000	24.579217	0.000528	20.777115
666.185413	-3.014600	3.737300	-11.265000	24.593093	0.000527	20.792934
667.189024	-3.018200	3.736300	-11.275000	24.596450	0.000529	20.806259
668.184762	-2.990500	3.737400	-11.176000	24.628713	0.000530	20.782208
669.185582	-2.985400	3.738400	-11.160000	24.594038	0.000528	20.791037
670.186853	-3.001500	3.736500	-11.214000	24.573466	0.000527	20.787939
671.186646	-3.007100	3.737700	-11.239000	24.567844	0.000529	20.796523
672.186010	-2.993000	3.735800	-11.180000	24.572912	0.000527	20.812040
673.190963	-3.018400	3.734700	-11.271000	24.572944	0.000527	20.780778
674.188820	-2.997500	3.737500	-11.203000	24.593068	0.000527	20.790064
675.189539	-2.997900	3.735800	-11.199000	24.599383	0.000526	20.779331
676.187680	-3.000800	3.734100	-11.204000	24.640063	0.000526	20.794071
677.191104	-2.985400	3.734300	-11.148000	24.640421	0.000526	20.799646
678.187873	-3.022900	3.733600	-11.285000	24.637088	0.000525	20.800569
679.190618	-3.014700	3.735100	-11.259000	24.615376	0.000527	20.793008
680.193188	-3.007500	3.733900	-11.228000	24.587927	0.000528	20.813828
681.192145	-3.020800	3.732900	-11.275000	24.553691	0.000526	20.810298
682.188742	-3.036400	3.732400	-11.332000	24.540312	0.000526	20.824849
683.201125	-2.982300	3.734100	-11.135000	24.557903	0.000525	20.828748
684.192983	-2.977500	3.733200	-11.115000	24.523030	0.000524	20.819838
685.192349	-2.995300	3.732500	-11.179000	24.576886	0.000527	20.798010
686.198829	-3.011100	3.733200	-11.240000	24.576007	0.000526	20.814671
687.195762	-3.015100	3.731700	-11.250000	24.598225	0.000526	20.804247
688.191308	-3.003800	3.732000	-11.209000	24.586386	0.000526	20.816076
689.197220	-2.984200	3.733700	-11.141000	24.582533	0.000525	20.829279
690.193227	-3.008400	3.732400	-11.228000	24.588627	0.000524	20.810264
691.198560	-3.010700	3.730600	-11.231000	24.597329	0.000527	20.806193
692.193500	-2.990700	3.732100	-11.161000	24.605223	0.000524	20.812691
693.198895	-3.013700	3.731300	-11.244000	24.609573	0.000525	20.823695
694.196972	-2.984500	3.730700	-11.133000	24.627555	0.000524	20.828935
695.193586	-2.997700	3.731200	-11.185000	24.625885	0.000525	20.811138
696.193799	-2.988100	3.731300	-11.148000	24.647034	0.000524	20.801540
697.197527	-2.994100	3.731200	-11.171000	24.643344	0.000525	20.806372
698.203488	-2.966400	3.731600	-11.069000	24.670863	0.000524	20.823555
699.205884	-3.019600	3.728900	-11.258000	24.652085	0.000524	20.811824
700.195371	-3.009400	3.729300	-11.222000	24.644199	0.000523	20.824773
701.197759	-2.987600	3.730900	-11.146000	24.660395	0.000525	20.827748
702.200011	-3.006900	3.730600	-11.216000	24.648900	0.000523	20.827119
703.200003	-2.983700	3.730900	-11.131000	24.664420	0.000521	20.828942
704.197464	-3.017300	3.727500	-11.245000	24.650391	0.000523	20.826245
705.198717	-3.002200	3.727800	-11.190000	24.680387	0.000523	20.815094
706.199632	-2.983500	3.729300	-11.125000	24.683891	0.000522	20.836153
707.202832	-3.014600	3.727300	-11.235000	24.656061	0.000522	20.830512
708.199274	-2.984200	3.728300	-11.125000	24.628409	0.000523	20.831689
709.198565	-2.999400	3.728200	-11.182000	24.634349	0.000522	20.837649
710.199986	-2.992000	3.727800	-11.152000	24.653054	0.000522	20.831763
711.203816	-2.992600	3.727000	-11.152000	24.670668	0.000523	20.835212
712.200341	-3.004500	3.726700	-11.196000	24.666807	0.000522	20.827544
713.204330	-2.993800	3.726400	-11.155000	24.675466	0.000521	20.835760
714.204395	-3.001800	3.726200	-11.184000	24.671336	0.000521	20.813124
715.202789	-2.983000	3.727100	-11.117000	24.646366	0.000521	20.810827
716.207899	-2.987700	3.726900	-11.134000	24.656240	0.000523	20.819786
717.201723	-2.984700	3.725000	-11.117000	24.656663	0.000518	20.823530
718.210171	-2.992000	3.726100	-11.148000	24.700786	0.000520	20.834615
719.202010	-3.001700	3.725400	-11.181000	24.729437	0.000519	20.820219
720.206515	-2.997900	3.724800	-11.166000	24.740843	0.000520	20.813647
721.203738	-3.009100	3.725000	-11.208000	24.729283	0.000520	20.828598
722.204002	-3.004000	3.724200	-11.186000	24.735100	0.000519	20.805039
723.205955	-3.013600	3.723300	-11.220000	24.692648	0.000518	20.809854
724.206917	-3.007700	3.723000	-11.197000	24.722766	0.000519	20.813050
725.206643	-2.979500	3.725000	-11.098000	24.696159	0.000519	20.813377
726.203779	-2.993200	3.723500	-11.144000	24.697927	0.000517	20.821314
727.206564	-2.974700	3.723300	-11.074000	24.683678	0.000521	20.816499
728.203830	-2.985900	3.722900	-11.114000	24.674382	0.000518	20.811438
729.205847	-3.009600	3.722700	-11.203000	24.682008	0.000519	20.800125
730.205271	-3.005000	3.722000	-11.184000	24.664581	0.000520	20.812510
731.207276	-2.996500	3.722800	-11.154000	24.667864	0.000518	20.814382
732.206847	-2.993900	3.720900	-11.139000	24.665673	0.000519	20.793691
733.203393	-3.006200	3.722500	-11.190000	24.678683	0.000518	20.813858
734.206901	-3.029500	3.720300	-11.269000	24.648547	0.000519	20.806852
735.204182	-2.998800	3.723000	-11.164000	24.625687	0.000519	20.800508
736.206001	-2.976200	3.721100	-11.074000	24.642429	0.000519	20.818256
737.210193	-2.985300	3.721700	-11.110000	24.678096	0.000519	20.791458
738.207375	-3.003000	3.720700	-11.173000	24.721518	0.000517	20.795202
739.208163	-2.989200	3.720600	-11.121000	24.756783	0.000518	20.801668
740.207293	-2.991100	3.720800	-11.128000	24.776155	0.000517	20.816841
741.207605	-3.018500	3.719000	-11.225000	24.766559	0.000517	20.784451
742.206825	-2.998500	3.721100	-11.157000	24.750722	0.000516	20.806491
743.210018	-3.009000	3.719100	-11.189000	24.702331	0.000517	20.790173
744.207865	-2.995700	3.719800	-11.143000	24.720213	0.000516	20.785832
745.218286	-2.987900	3.719500	-11.112000	24.709174	0.000516	20.788031
746.212244	-3.001300	3.719200	-11.162000	24.679861	0.000514	20.794178
747.215175	-2.989800	3.717800	-11.115000	24.670754	0.000515	20.778400
748.212151	-2.980300	3.719400	-11.084000	24.662777	0.000519	20.777509
749.216866	-2.989400	3.718000	-11.114000	24.691234	0.000517	20.797529
750.212252	-2.980600	3.717600	-11.080000	24.713620	0.000514	20.806717
751.212872	-2.991800	3.716700	-11.119000	24.728390	0.000515	20.792141
752.208940	-2.979600	3.716900	-11.073000	24.724748	0.000515	20.791805
753.207058	-3.021200	3.716400	-11.227000	24.741334	0.000514	20.780474
754.207802	-2.997400	3.716900	-11.141000	24.780973	0.000515	20.783270
755.209858	-3.032600	3.715400	-11.267000	24.725945	0.000515	20.778307
756.207810	-3.008900	3.715900	-11.179000	24.700014	0.000513	20.776942
757.209354	-2.983900	3.716400	-11.088000	24.692950	0.000514	20.769854
758.212723	-3.011000	3.715100	-11.186000	24.698197	0.000513	20.798826
759.214197	-2.998700	3.716200	-11.143000	24.706367	0.000513	20.783791
760.227033	-3.030300	3.714300	-11.255000	24.746049	0.000512	20.762446
761.212831	-2.978700	3.715600	-11.066000	24.747100	0.000513	20.773458
762.219583	-2.990200	3.715000	-11.107000	24.771750	0.000512	20.781600
763.215080	-2.998600	3.714700	-11.138000	24.779162	0.000512	20.788565
764.225817	-2.980100	3.715300	-11.071000	24.786404	0.000512	20.778762
765.211510	-2.989400	3.713600	-11.100000	24.746772	0.000512	20.780716
766.216751	-3.002100	3.713800	-11.148000	24.756141	0.000512	20.785376
767.213770	-2.988300	3.714700	-11.100000	24.767985	0.000510	20.777347
768.213587	-3.003400	3.713000	-11.151000	24.751049	0.000510	20.768412
769.217990	-3.008900	3.712900	-11.170000	24.790997	0.000511	20.762034
770.213246	-2.982400	3.714300	-11.076000	24.767307	0.000512	20.774771
771.215521	-3.011800	3.711900	-11.178000	24.726470	0.000510	20.760816
772.216283	-2.983300	3.712400	-11.074000	24.763698	0.000511	20.766882
773.216161	-3.007400	3.711100	-11.160000	24.794906	0.000510	20.753630
774.211802	-2.987600	3.712900	-11.093000	24.765425	0.000511	20.753915
775.213544	-3.012800	3.710900	-11.179000	24.783802	0.000510	20.770936
776.212996	-3.008100	3.712000	-11.166000	24.819017	0.000509	20.769292
777.216804	-3.027500	3.710900	-11.234000	24.788926	0.000512	20.762801
778.217015	-3.016000	3.710700	-11.191000	24.801942	0.000509	20.763062
779.215550	-2.997600	3.711500	-11.124000	24.803360	0.000509	20.748837
780.217598	-2.981100	3.712400	-11.066000	24.842444	0.000509	20.766251
781.219864	-2.968200	3.713000	-11.019000	24.818591	0.000508	20.755114
782.218343	-3.002500	3.710000	-11.139000	24.818266	0.000509	20.759055
783.221931	-2.990500	3.711200	-11.098000	24.829507	0.000507	20.759431
784.215280	-3.013700	3.710100	-11.181000	24.834256	0.000508	20.755662
785.216948	-3.002500	3.709900	-11.138000	24.834817	0.000506	20.763338
786.215980	-2.994900	3.708600	-11.107000	24.832038	0.000506	20.754859
787.215314	-2.994600	3.707800	-11.103000	24.814729	0.000508	20.745548
788.218245	-3.006500	3.708200	-11.148000	24.823835	0.000509	20.767016
789.217924	-3.003400	3.709500	-11.140000	24.792856	0.000506	20.753469
790.224846	-3.005000	3.708100	-11.142000	24.790648	0.000505	20.757417
791.217037	-3.023900	3.707600	-11.210000	24.757607	0.000504	20.769304
792.217067	-2.998300	3.709200	-11.121000	24.763879	0.000506	20.756631
793.218675	-3.006000	3.707800	-11.144000	24.759749	0.000504	20.742055
794.217728	-2.999000	3.708500	-11.121000	24.728026	0.000504	20.753369
795.218199	-3.008400	3.707100	-11.152000	24.726609	0.000504	20.753843
796.223851	-3.009300	3.707000	-11.154000	24.750958	0.000503	20.746510
797.221029	-2.996700	3.707000	-11.108000	24.730152	0.000503	20.750286
798.220941	-2.993300	3.707600	-11.098000	24.729736	0.000504	20.750343
799.229113	-2.985800	3.708000	-11.071000	24.730558	0.000505	20.764919
800.222703	-3.018300	3.705500	-11.183000	24.709671	0.000503	20.752018
801.219638	-3.023800	3.704400	-11.200000	24.768805	0.000503	20.737393
802.225312	-2.987000	3.706600	-11.070000	24.772414	0.000502	20.741962
803.221519	-2.996800	3.705800	-11.104000	24.821225	0.000502	20.763447
804.232068	-3.000300	3.705100	-11.115000	24.791891	0.000501	20.747758
805.222215	-2.987600	3.706300	-11.072000	24.813071	0.000501	20.755264
806.222457	-3.011500	3.703800	-11.153000	24.834770	0.000502	20.721563
807.223275	-3.017600	3.704400	-11.177000	24.807409	0.000503	20.738675
808.221508	-3.019100	3.704700	-11.184000	24.791614	0.000503	20.747006
809.223927	-2.974300	3.704000	-11.016000	24.811938	0.000502	20.734685
810.223703	-2.980600	3.703800	-11.039000	24.857709	0.000502	20.759286
811.227488	-3.003400	3.704000	-11.123000	24.875466	0.000503	20.732536
812.230470	-2.993000	3.703800	-11.084000	24.844407	0.000500	20.751151
813.224057	-3.010000	3.702600	-11.143000	24.799793	0.000499	20.739093
814.225320	-3.002300	3.702800	-11.115000	24.793039	0.000499	20.720934
815.223683	-2.998600	3.702500	-11.102000	24.784111	0.000499	20.744692
816.224555	-2.972600	3.703200	-11.007000	24.796648	0.000499	20.741626
817.227035	-2.989900	3.702200	-11.069000	24.819228	0.000497	20.725880
818.233587	-3.016400	3.700600	-11.161000	24.848138	0.000502	20.719806
819.229570	-3.001400	3.701300	-11.108000	24.877184	0.000499	20.731890
820.230058	-3.009900	3.701600	-11.141000	24.870822	0.000501	20.737359
821.229992	-3.007000	3.702000	-11.131000	24.846525	0.000500	20.713920
822.235750	-3.003500	3.701000	-11.114000	24.841727	0.000499	20.739452
823.232793	-2.993700	3.700700	-11.078000	24.861951	0.000501	20.730826
824.233579	-2.963200	3.701400	-10.966000	24.865300	0.000501	20.741774
825.231960	-3.008300	3.700200	-11.130000	24.877583	0.000498	20.740825
826.232199	-2.996900	3.700000	-11.088000	24.864233	0.000496	20.726003
827.230743	-2.999100	3.699900	-11.095000	24.836953	0.000497	20.710478
828.237603	-3.024100	3.699000	-11.184000	24.852316	0.000495	20.725423
829.231621	-3.001600	3.700900	-11.108000	24.906580	0.000496	20.725357
830.234612	-2.996700	3.699000	-11.084000	24.897352	0.000496	20.720362
831.231040	-2.991000	3.699600	-11.064000	24.863785	0.000493	20.738356
832.231401	-3.012800	3.698100	-11.140000	24.794383	0.000496	20.722757
833.240356	-3.002500	3.698800	-11.105000	24.837678	0.000493	20.711205
834.231504	-3.008700	3.697700	-11.124000	24.871197	0.000495	20.739157
835.233845	-2.993100	3.698700	-11.069000	24.857553	0.000493	20.732101
836.235699	-3.010400	3.697200	-11.129000	24.820417	0.000494	20.713797
837.231461	-2.987400	3.697500	-11.045000	24.802520	0.000494	20.721915
838.243976	-2.995500	3.697600	-11.074000	24.813713	0.000493	20.732199
839.233853	-2.989800	3.697000	-11.052000	24.818959	0.000495	20.726558
840.233030	-3.000400	3.697100	-11.092000	24.824237	0.000492	20.718104
841.248925	-3.013600	3.696200	-11.138000	24.825955	0.000493	20.719829
842.234004	-3.018700	3.696400	-11.158000	24.816726	0.000493	20.754665
843.233434	-3.016100	3.695800	-11.146000	24.843656	0.000496	20.720999
844.243084	-3.020200	3.694900	-11.159000	24.825336	0.000493	20.731062
845.243832	-2.985800	3.697200	-11.037000	24.849553	0.000492	20.715063
846.239957	-3.008000	3.695500	-11.115000	24.856339	0.000493	20.718554
847.236254	-2.998500	3.696300	-11.083000	24.870243	0.000492	20.725871
848.235444	-2.998600	3.695100	-11.080000	24.890932	0.000490	20.711073
849.236023	-3.022100	3.693100	-11.160000	24.885466	0.000493	20.706535
850.236217	-2.985400	3.696100	-11.034000	24.905584	0.000491	20.722935
851.236556	-2.988100	3.694100	-11.038000	24.901088	0.000492	20.717473
852.238191	-3.003800	3.693900	-11.095000	24.907971	0.000491	20.709682
853.246570	-2.996900	3.693800	-11.069000	24.891933	0.000491	20.731994
854.237867	-3.016900	3.693900	-11.143000	24.869256	0.000490	20.721087
855.252510	-3.000400	3.693200	-11.080000	24.850538	0.000489	20.734544
856.240153	-2.996300	3.694400	-11.068000	24.847475	0.000492	20.722935
857.244153	-3.001400	3.692500	-11.082000	24.870527	0.000490	20.712405
858.240911	-3.002900	3.693000	-11.089000	24.921312	0.000489	20.724496
859.243518	-3.008000	3.692200	-11.106000	24.988906	0.000489	20.697508
860.240445	-3.001300	3.692500	-11.081000	24.947612	0.000489	20.730505
861.238591	-3.006900	3.691200	-11.098000	24.933587	0.000487	20.712159
862.251427	-3.016300	3.691300	-11.133000	24.894213	0.000487	20.709150
863.242687	-2.992900	3.692200	-11.050000	24.904427	0.000489	20.720825
864.240388	-2.998100	3.691000	-11.065000	24.882541	0.000486	20.708341
865.251235	-2.993900	3.691900	-11.052000	24.925074	0.000487	20.705985
866.240679	-3.027500	3.690300	-11.171000	24.897568	0.000486	20.712044
867.241323	-3.011600	3.690100	-11.113000	24.881709	0.000488	20.704661
868.248515	-2.985300	3.690800	-11.017000	24.853657	0.000487	20.697843
869.241307	-2.993200	3.690900	-11.047000	24.876187	0.000487	20.723776
870.240751	-3.008000	3.690200	-11.099000	24.870770	0.000487	20.730193
871.242834	-2.987500	3.689700	-11.022000	24.847694	0.000486	20.698022
872.247665	-2.992000	3.689700	-11.039000	24.897202	0.000487	20.696027
873.241392	-2.994500	3.689500	-11.047000	24.890441	0.000486	20.730022
874.244089	-3.000600	3.688800	-11.068000	24.942130	0.000486	20.702241
875.241493	-3.010200	3.687600	-11.099000	24.945038	0.000484	20.697573
876.242263	-3.001700	3.687200	-11.066000	24.948841	0.000483	20.706133
877.248682	-3.006100	3.688000	-11.085000	24.927762	0.000484	20.705838
878.243010	-3.009400	3.687100	-11.095000	24.903962	0.000484	20.711823
879.243686	-2.989100	3.687800	-11.023000	24.906878	0.000483	20.695308
880.245583	-3.005300	3.687100	-11.080000	24.907269	0.000484	20.694278
881.244438	-3.009600	3.686800	-11.095000	24.916603	0.000482	20.687998
882.257222	-3.023900	3.685800	-11.145000	24.952229	0.000481	20.684875
883.243750	-3.004500	3.686400	-11.075000	24.965415	0.000481	20.714708
884.249074	-3.007800	3.686700	-11.088000	24.966719	0.000484	20.701791
885.245244	-3.006300	3.686000	-11.080000	24.993383	0.000481	20.688726
886.245112	-3.008500	3.685300	-11.086000	25.002302	0.000479	20.702421
887.247150	-2.987800	3.686800	-11.014000	24.960243	0.000482	20.690549
888.252156	-3.004300	3.684800	-11.068000	24.934489	0.000483	20.670387
889.244752	-3.004500	3.685100	-11.071000	24.967777	0.000481	20.688627
890.248746	-3.030000	3.685400	-11.166000	24.955869	0.000482	20.683787
891.245370	-3.018000	3.685000	-11.120000	25.015813	0.000482	20.685161
892.252358	-2.993500	3.683800	-11.026000	25.039008	0.000480	20.691374
893.252309	-2.987500	3.683800	-11.004000	25.012807	0.000480	20.691153
894.247499	-3.014100	3.683200	-11.100000	25.021009	0.000479	20.691325
895.249767	-3.015600	3.682200	-11.103000	25.056989	0.000482	20.687613
896.246946	-3.001000	3.683700	-11.054000	25.024193	0.000479	20.700212
897.247090	-3.019700	3.683000	-11.121000	24.961920	0.000479	20.686068
898.246097	-3.000300	3.683200	-11.049000	24.933250	0.000479	20.692854
899.245971	-3.002400	3.681900	-11.054000	24.915649	0.000477	20.696050
900.246448	-3.004900	3.682300	-11.064000	24.967694	0.000479	20.696606
901.247651	-3.000400	3.682300	-11.047000	24.970447	0.000478	20.686566
902.248462	-3.006700	3.682200	-11.070000	24.966945	0.000477	20.691112
903.252846	-3.012100	3.680700	-11.085000	24.916520	0.000478	20.697399
904.248327	-2.994000	3.682400	-11.025000	24.931287	0.000479	20.685667
905.248771	-3.012200	3.680800	-11.086000	24.971946	0.000478	20.666731
906.250076	-3.020200	3.679800	-11.112000	24.990190	0.000477	20.693581
907.251401	-2.996700	3.681300	-11.031000	25.004435	0.000477	20.690810
908.258707	-2.970300	3.681900	-10.935000	24.984969	0.000474	20.673640
909.249543	-2.979800	3.680400	-10.966000	24.996241	0.000475	20.696810
910.251003	-2.987700	3.678800	-10.990000	24.981809	0.000477	20.684694
911.252650	-3.013600	3.679400	-11.086000	25.003546	0.000474	20.672847
912.255842	-3.001000	3.680500	-11.044000	25.013719	0.000475	20.693491
913.254915	-3.011300	3.679400	-11.079000	25.041669	0.000476	20.678398
914.249935	-2.997500	3.678900	-11.027000	25.049822	0.000473	20.691798
915.253894	-2.995400	3.678700	-11.018000	25.054716	0.000473	20.687702
916.253131	-2.981200	3.678900	-10.967000	25.060979	0.000473	20.672650
917.252990	-2.995700	3.678300	-11.019000	25.047110	0.000474	20.681014
918.250446	-2.999500	3.678200	-11.032000	25.014948	0.000474	20.678127
919.249343	-2.988500	3.679300	-10.995000	24.994985	0.000473	20.665201
920.255280	-3.018400	3.677300	-11.099000	24.934291	0.000472	20.689631
921.253488	-2.991300	3.678200	-11.001000	24.946386	0.000471	20.678061
922.259507	-3.002200	3.678300	-11.042000	24.960729	0.000471	20.659739
923.260843	-2.999300	3.676600	-11.027000	24.986042	0.000471	20.675666
924.251028	-2.989100	3.676200	-10.988000	24.979079	0.000472	20.678160
925.253715	-2.999400	3.675900	-11.025000	24.959442	0.000472	20.679786
926.261650	-3.017900	3.675700	-11.092000	25.004098	0.000470	20.668659
927.258136	-3.008100	3.676500	-11.059000	24.988086	0.000473	20.656378
928.252347	-3.025600	3.675600	-11.120000	24.998780	0.000471	20.683236
929.252396	-2.987300	3.675000	-10.978000	25.034785	0.000469	20.679548
930.256042	-3.027000	3.674200	-11.121000	25.026381	0.000469	20.692924
931.255873	-2.989300	3.674700	-10.983000	25.049282	0.000470	20.668020
932.255003	-3.004400	3.673400	-11.036000	25.022634	0.000472	20.680153
933.254416	-3.011100	3.673400	-11.060000	24.997850	0.000469	20.653851
934.254121	-3.025700	3.672500	-11.111000	25.006475	0.000468	20.678632
935.260583	-3.008100	3.673100	-11.048000	24.997630	0.000470	20.677814
936.256898	-3.000700	3.673900	-11.024000	25.018740	0.000466	20.685254
937.256776	-2.985100	3.674800	-10.968000	24.945146	0.000468	20.668755
938.260763	-3.004000	3.672800	-11.033000	24.978116	0.000467	20.662492
939.258137	-2.997700	3.672700	-11.008000	25.005888	0.000468	20.663817
940.258591	-3.012400	3.671900	-11.060000	24.977773	0.000467	20.674004
941.260658	-3.018400	3.671300	-11.080000	24.972413	0.000468	20.668623
942.264873	-2.986800	3.672200	-10.967000	25.031852	0.000467	20.655738
943.261187	-2.996600	3.671700	-11.002000	25.047863	0.000465	20.672761
944.260986	-3.019000	3.670500	-11.081000	25.078997	0.000466	20.657545
945.257826	-3.007900	3.671400	-11.043000	25.092451	0.000465	20.669154
946.260561	-3.005500	3.671800	-11.035000	25.089568	0.000468	20.667683
947.263672	-2.994400	3.671200	-10.992000	25.062302	0.000466	20.656432
948.260865	-3.009600	3.670600	-11.046000	25.065755	0.000465	20.648992
949.264663	-2.984700	3.671600	-10.957000	25.024048	0.000465	20.650749
950.268132	-3.000900	3.670200	-11.013000	25.048855	0.000465	20.673757
951.266609	-3.011400	3.670000	-11.051000	25.018526	0.000463	20.670339
952.262061	-3.013600	3.669500	-11.057000	25.031011	0.000462	20.691408
953.262162	-2.996900	3.668700	-10.994000	25.029146	0.000463	20.668671
954.265180	-2.997800	3.668000	-10.995000	25.077929	0.000463	20.672121
955.264987	-3.007200	3.669200	-11.033000	25.072594	0.000464	20.668188
956.265115	-2.998700	3.668000	-10.999000	25.052527	0.000462	20.665588
957.261326	-2.978100	3.669900	-10.929000	25.046615	0.000461	20.678620
958.263071	-3.004700	3.668700	-11.022000	25.057885	0.000461	20.657689
959.262903	-3.015600	3.668400	-11.062000	25.065663	0.000461	20.671662
960.266755	-2.998900	3.667600	-10.998000	25.059498	0.000463	20.655040
961.264042	-3.012200	3.665700	-11.041000	25.064653	0.000462	20.653576
962.268510	-3.001400	3.667100	-11.005000	25.097993	0.000460	20.666658
963.266730	-2.994700	3.667600	-10.983000	25.116838	0.000459	20.673722
964.264264	-3.011700	3.666000	-11.040000	25.124941	0.000460	20.680434
965.267619	-3.011700	3.665900	-11.040000	25.126341	0.000459	20.647223
966.264377	-2.992700	3.665800	-10.969000	25.145462	0.000460	20.670214
967.265255	-2.984200	3.665400	-10.937000	25.146007	0.000458	20.678349
968.268606	-2.983300	3.666100	-10.936000	25.134753	0.000458	20.661359
969.270591	-3.002100	3.664200	-11.000000	25.153873	0.000457	20.677710
970.268479	-2.974500	3.666500	-10.905000	25.104654	0.000458	20.673819
971.266960	-2.987500	3.664500	-10.947000	25.093937	0.000456	20.665904
972.267179	-3.003600	3.663600	-11.002000	25.131780	0.000458	20.680662
973.266916	-3.012800	3.663600	-11.037000	25.115102	0.000459	20.679092
974.266616	-3.021800	3.662900	-11.068000	25.068796	0.000458	20.682868
975.273993	-2.999300	3.662900	-10.985000	25.084163	0.000458	20.656092
976.271282	-2.991300	3.663800	-10.958000	25.093211	0.000458	20.662805
977.266234	-2.983900	3.663300	-10.930000	25.086728	0.000456	20.667677
978.267944	-3.002600	3.662400	-10.995000	25.125655	0.000456	20.685419
979.271027	-3.000200	3.663000	-10.989000	25.102242	0.000455	20.642945
980.268060	-2.992800	3.662900	-10.961000	25.119148	0.000454	20.647114
981.272704	-2.997700	3.661200	-10.975000	25.151396	0.000456	20.676172
982.268270	-2.995800	3.660800	-10.966000	25.123081	0.000454	20.662918
983.269214	-2.992500	3.661300	-10.955000	25.113659	0.000455	20.688550
984.271147	-2.998300	3.661200	-10.977000	25.135476	0.000453	20.675363
985.269151	-2.986300	3.660400	-10.931000	25.103960	0.000453	20.655576
986.270009	-3.003100	3.660900	-10.993000	25.137258	0.000454	20.665771
987.275143	-3.028300	3.659700	-11.082000	25.155410	0.000454	20.665027
988.271040	-3.028500	3.660100	-11.084000	25.128382	0.000456	20.662076
989.271041	-2.998900	3.661100	-10.979000	25.161395	0.000453	20.653965
990.277899	-2.978900	3.660800	-10.905000	25.147625	0.000454	20.688034
991.273823	-3.002700	3.659900	-10.988000	25.179644	0.000453	20.689833
992.278325	-3.008200	3.659300	-11.007000	25.215563	0.000454	20.668518
993.272869	-2.989300	3.658900	-10.937000	25.200498	0.000451	20.669042
994.274038	-3.010000	3.658200	-11.010000	25.122413	0.000450	20.663670
995.274509	-2.991200	3.658600	-10.943000	25.112820	0.000449	20.671110
996.279618	-2.986500	3.658300	-10.924000	25.081873	0.000451	20.686039
997.275151	-2.999600	3.658500	-10.973000	25.108772	0.000451	20.681273
998.278658	-3.005900	3.658100	-10.994000	25.067980	0.000450	20.651700
999.281354	-3.006100	3.657600	-10.995000	25.078388	0.000447	20.672582
1000.274831	-2.988800	3.656700	-10.927000	25.075464	0.000450	20.684821
1001.280287	-2.994700	3.656400	-10.948000	25.094081	0.000449	20.688811
1002.279301	-3.022200	3.656800	-11.050000	25.087623	0.000447	20.679956
1003.278668	-3.005400	3.657100	-10.990000	25.128960	0.000448	20.683995
1004.276384	-2.977100	3.656300	-10.884000	25.148920	0.000447	20.686963
1005.276013	-2.973900	3.655600	-10.870000	25.152136	0.000448	20.691615
1006.275921	-2.979400	3.655400	-10.889000	25.116305	0.000449	20.704484
1007.276464	-3.013500	3.655400	-11.015000	25.136908	0.000447	20.672533
1008.287508	-3.012100	3.655100	-11.009000	25.118862	0.000447	20.679074
1009.284651	-3.002400	3.654500	-10.971000	25.104277	0.000447	20.675337
1010.277474	-3.006100	3.655000	-10.986000	25.119188	0.000447	20.674658
1011.283151	-3.023700	3.655000	-11.051000	25.160630	0.000445	20.663629
1012.278309	-2.972900	3.655000	-10.865000	25.161021	0.000447	20.708596
1013.277282	-2.987300	3.654700	-10.917000	25.154905	0.000443	20.680643
1014.280567	-2.987300	3.653700	-10.914000	25.158667	0.000444	20.679678
1015.277970	-3.007100	3.653100	-10.984000	25.161770	0.000445	20.700813
1016.278179	-2.981700	3.653800	-10.893000	25.165703	0.000447	20.689113
1017.282550	-3.025300	3.651900	-11.047000	25.141688	0.000444	20.673538
1018.283015	-3.000400	3.651400	-10.954000	25.133952	0.000445	20.707027
1019.286351	-2.986600	3.652700	-10.908000	25.111459	0.000444	20.677806
1020.280009	-2.980300	3.652200	-10.885000	25.119538	0.000443	20.681175
1021.279695	-2.995000	3.650900	-10.934000	25.157698	0.000443	20.684396
1022.279922	-2.995300	3.651300	-10.936000	25.164929	0.000444	20.693079
1023.285246	-2.997100	3.651900	-10.944000	25.149970	0.000442	20.706511
1024.282392	-3.010500	3.652800	-10.996000	25.152877	0.000442	20.689040
1025.286251	-3.013200	3.649200	-10.995000	25.157299	0.000442	20.714818
1026.281809	-2.991200	3.650200	-10.917000	25.142396	0.000441	20.696062
1027.282989	-2.989100	3.650800	-10.912000	25.145979	0.000440	20.703453
1028.284375	-2.984900	3.650500	-10.895000	25.197925	0.000438	20.691116
1029.280940	-2.980100	3.649000	-10.873000	25.206181	0.000439	20.684232
1030.287929	-2.999700	3.649500	-10.947000	25.232360	0.000441	20.711939
1031.291388	-3.010200	3.648300	-10.981000	25.217842	0.000439	20.678868
1032.281763	-3.007600	3.648000	-10.972000	25.222866	0.000439	20.686758
1033.283932	-2.999000	3.648700	-10.942000	25.201955	0.000438	20.703698
1034.282622	-3.000500	3.648700	-10.947000	25.195424	0.000438	20.692873
1035.283998	-3.005800	3.646600	-10.960000	25.184390	0.000439	20.693176
1036.284447	-3.000400	3.646000	-10.939000	25.200350	0.000438	20.703984
1037.283984	-3.013600	3.646800	-10.989000	25.182379	0.000436	20.683095
1038.288987	-2.969400	3.647200	-10.828000	25.171540	0.000438	20.691181
1039.287195	-2.976600	3.647100	-10.855000	25.200473	0.000437	20.703158
1040.282355	-2.973900	3.648100	-10.849000	25.219910	0.000437	20.701335
1041.283622	-3.023300	3.644300	-11.016000	25.274896	0.000436	20.692055
1042.284720	-2.977100	3.646900	-10.856000	25.260354	0.000436	20.704008
1043.284297	-2.997700	3.644600	-10.924000	25.276264	0.000436	20.691532
1044.287773	-2.997700	3.645800	-10.928000	25.269457	0.000434	20.709355
1045.285879	-2.985500	3.645300	-10.882000	25.241894	0.000434	20.712502
1046.286483	-3.014800	3.645000	-10.988000	25.224322	0.000436	20.703869
1047.294431	-2.991900	3.644500	-10.903000	25.222734	0.000436	20.733571
1048.288696	-2.996400	3.645400	-10.922000	25.238792	0.000435	20.690894
1049.286047	-3.018100	3.642800	-10.994000	25.249784	0.000434	20.722795
1050.286192	-3.004600	3.642700	-10.943000	25.250428	0.000432	20.699257
1051.286822	-3.007600	3.643600	-10.956000	25.248759	0.000433	20.724610
1052.290609	-3.011600	3.642900	-10.970000	25.279512	0.000434	20.719451
1053.287951	-2.984700	3.643900	-10.875000	25.247895	0.000434	20.718053
1054.295657	-2.999700	3.642500	-10.926000	25.257585	0.000430	20.718299
1055.295883	-2.998300	3.643600	-10.924000	25.278796	0.000430	20.722999
1056.291459	-2.997100	3.641600	-10.914000	25.253595	0.000430	20.697221
1057.295274	-2.999400	3.640500	-10.919000	25.265173	0.000430	20.709796
1058.291687	-2.995000	3.642400	-10.908000	25.239850	0.000429	20.707604
1059.291686	-2.988900	3.641100	-10.882000	25.192540	0.000430	20.707997
1060.293898	-2.984300	3.641600	-10.866000	25.182711	0.000426	20.716147
1061.301670	-3.007600	3.640600	-10.948000	25.167223	0.000429	20.704865
1062.294404	-3.016700	3.640300	-10.981000	25.157361	0.000427	20.719148
1063.293113	-2.978600	3.640200	-10.841000	25.176074	0.000428	20.726081
1064.293899	-3.004100	3.638800	-10.930000	25.190275	0.000431	20.718526
1065.293947	-2.991200	3.638500	-10.882000	25.208516	0.000428	20.726408
1066.298690	-2.997300	3.638800	-10.906000	25.213295	0.000428	20.699436
1067.295233	-2.992400	3.640000	-10.892000	25.184209	0.000427	20.734722
1068.298544	-3.015400	3.639100	-10.971000	25.199021	0.000429	20.706917
1069.298934	-3.020500	3.637900	-10.986000	25.202758	0.000428	20.723472
1070.296413	-3.015400	3.637200	-10.967000	25.215860	0.000426	20.719556
1071.297204	-3.002600	3.637900	-10.923000	25.204599	0.000428	20.716310
1072.297996	-2.986000	3.638400	-10.863000	25.223808	0.000426	20.731803
1073.299391	-3.006500	3.636100	-10.930000	25.248122	0.000426	20.730609
1074.302951	-3.012500	3.635200	-10.949000	25.247145	0.000424	20.717774
1075.299388	-2.995200	3.637600	-10.894000	25.264602	0.000424	20.722973
1076.299043	-3.017800	3.634900	-10.969000	25.292164	0.000426	20.721723
1077.298640	-2.997800	3.636900	-10.902000	25.315500	0.000425	20.738515
1078.300507	-2.992300	3.636500	-10.880000	25.347546	0.000424	20.752201
1079.303653	-2.984300	3.636200	-10.850000	25.348035	0.000424	20.720447
1080.304646	-2.963800	3.636500	-10.778000	25.307643	0.000423	20.726359
1081.299170	-2.992100	3.634000	-10.872000	25.317039	0.000422	20.741957
1082.302322	-2.984200	3.635000	-10.846000	25.341798	0.000424	20.735523
1083.297670	-2.992000	3.633800	-10.871000	25.324220	0.000423	20.743478
1084.314174	-2.990400	3.633500	-10.864000	25.326711	0.000420	20.722271
1085.304736	-2.999300	3.633900	-10.899000	25.341693	0.000419	20.738736
1086.302862	-2.996000	3.634500	-10.887000	25.342662	0.000421	20.746822
1087.298069	-3.007500	3.632300	-10.923000	25.352285	0.000419	20.738941
1088.305358	-2.994500	3.632900	-10.878000	25.303995	0.000421	20.736921
1089.305048	-2.999000	3.632500	-10.893000	25.318610	0.000419	20.743061
1090.301640	-2.997700	3.632400	-10.888000	25.309621	0.000419	20.740199
1091.304536	-2.977600	3.631700	-10.813000	25.304524	0.000417	20.747410
1092.306157	-2.988800	3.631300	-10.852000	25.298556	0.000419	20.724347
1093.304276	-3.002900	3.629600	-10.898000	25.308774	0.000418	20.741246
1094.301618	-2.988700	3.631500	-10.853000	25.340463	0.000418	20.748407
1095.313770	-2.985700	3.630800	-10.840000	25.375708	0.000417	20.759141
1096.303976	-3.011300	3.630000	-10.930000	25.388206	0.000419	20.748456
1097.301445	-2.996700	3.630700	-10.879000	25.392016	0.000419	20.751334
1098.309290	-2.980100	3.630800	-10.820000	25.380984	0.000417	20.738833
1099.301663	-2.985500	3.629000	-10.833000	25.403576	0.000417	20.749666
1100.305594	-2.990400	3.629800	-10.854000	25.340649	0.000417	20.760923
1101.302133	-2.991900	3.628700	-10.856000	25.310035	0.000416	20.752944
1102.303877	-2.970700	3.627700	-10.777000	25.272035	0.000415	20.734230
1103.305440	-3.011400	3.627200	-10.922000	25.299548	0.000416	20.750475
1104.307521	-3.003600	3.627700	-10.895000	25.285079	0.000415	20.756337
1105.308850	-3.012800	3.629000	-10.933000	25.309465	0.000415	20.773235
1106.309194	-3.000800	3.627300	-10.884000	25.292415	0.000412	20.767496
1107.310239	-2.989900	3.627300	-10.844000	25.294312	0.000413	20.758969
1108.313306	-2.992000	3.627700	-10.853000	25.230206	0.000413	20.754350
1109.309963	-2.986500	3.627400	-10.832000	25.255611	0.000413	20.766580
1110.309623	-2.971900	3.628600	-10.783000	25.289044	0.000412	20.771223
1111.311264	-3.026400	3.625400	-10.971000	25.317281	0.000412	20.763538
1112.310659	-3.001800	3.625300	-10.882000	25.331627	0.000412	20.767986
1113.326028	-3.013000	3.626200	-10.925000	25.359667	0.000413	20.743508
1114.306718	-2.990300	3.626100	-10.842000	25.325317	0.000411	20.753114
1115.311053	-3.003600	3.625400	-10.888000	25.310856	0.000410	20.751872
1116.320300	-3.000200	3.623500	-10.871000	25.324226	0.000410	20.751545
1117.306453	-3.021900	3.624000	-10.950000	25.345435	0.000410	20.755771
1118.305757	-2.981000	3.624900	-10.805000	25.361393	0.000411	20.777484
1119.312469	-3.004200	3.622400	-10.882000	25.349693	0.000409	20.775694
1120.310102	-3.011700	3.622600	-10.908000	25.356646	0.000409	20.757071
1121.320798	-3.020900	3.622500	-10.941000	25.340069	0.000409	20.768402
1122.311278	-2.990200	3.621900	-10.829000	25.342553	0.000409	20.772318
1123.317885	-2.996800	3.621500	-10.852000	25.329265	0.000410	20.768933
1124.311604	-2.973000	3.622500	-10.769000	25.298618	0.000407	20.771353
1125.310907	-2.991700	3.622900	-10.837000	25.315619	0.000408	20.777991
1126.315814	-2.988900	3.621500	-10.822000	25.345996	0.000407	20.787629
1127.315135	-3.005300	3.620700	-10.881000	25.294246	0.000408	20.786403
1128.325351	-2.990300	3.620300	-10.825000	25.269615	0.000407	20.760251
1129.319378	-2.990600	3.620300	-10.826000	25.329916	0.000404	20.771483
1130.321311	-3.005100	3.620300	-10.879000	25.321709	0.000407	20.766562
1131.326267	-2.992900	3.619000	-10.830000	25.331015	0.000404	20.791079
1132.314930	-2.995100	3.619100	-10.839000	25.363843	0.000406	20.785634
1133.326960	-2.994000	3.620000	-10.837000	25.362402	0.000405	20.763324
1134.313006	-2.989900	3.620400	-10.824000	25.385019	0.000405	20.777026
1135.320374	-2.996800	3.618400	-10.841000	25.388382	0.000405	20.786566
1136.321656	-3.008900	3.618700	-10.887000	25.339320	0.000403	20.768597
1137.324576	-2.998600	3.617900	-10.848000	25.352037	0.000404	20.779470
1138.318712	-3.001800	3.618100	-10.860000	25.325747	0.000402	20.790531
1139.329720	-3.010700	3.618200	-10.893000	25.337154	0.000404	20.773061
1140.324958	-2.989100	3.617000	-10.810000	25.338050	0.000401	20.792452
1141.314573	-3.001300	3.617500	-10.856000	25.352713	0.000402	20.779675
1142.338377	-2.998900	3.617600	-10.848000	25.336454	0.000403	20.782790
1143.319448	-3.001800	3.616800	-10.855000	25.324534	0.000403	20.799270
1144.325642	-2.991400	3.616300	-10.815000	25.313738	0.000403	20.793172
1145.336851	-3.022000	3.614500	-10.922000	25.320357	0.000399	20.785119
1146.319042	-3.009100	3.614500	-10.876000	25.307110	0.000401	20.787939
1147.316962	-2.997600	3.615500	-10.837000	25.313420	0.000401	20.803284
1148.325208	-3.014700	3.614500	-10.895000	25.305074	0.000400	20.791585
1149.327406	-3.007100	3.613000	-10.863000	25.254469	0.000399	20.807633
1150.320387	-3.015800	3.613600	-10.897000	25.276242	0.000399	20.791087
1151.322632	-3.002700	3.613300	-10.848000	25.253077	0.000401	20.801019
1152.319403	-3.010900	3.612600	-10.876000	25.257604	0.000398	20.801771
1153.330041	-3.024300	3.612000	-10.922000	25.278180	0.000398	20.782127
1154.320010	-2.984200	3.613100	-10.781000	25.287405	0.000397	20.799450
1155.320799	-2.985300	3.612300	-10.783000	25.281836	0.000400	20.801919
1156.327195	-2.997900	3.613900	-10.833000	25.304577	0.000397	20.808156
1157.322764	-2.980200	3.612000	-10.763000	25.337463	0.000396	20.797553
1158.321937	-2.996300	3.612300	-10.823000	25.369452	0.000396	20.791266
1159.322542	-3.001600	3.612000	-10.841000	25.344375	0.000395	20.780312
1160.330142	-2.989400	3.612600	-10.799000	25.350042	0.000396	20.807339
1161.322714	-2.998800	3.610000	-10.825000	25.350498	0.000395	20.775553
1162.324190	-3.001200	3.610400	-10.835000	25.361481	0.000394	20.791798
1163.320479	-3.008600	3.609800	-10.859000	25.373685	0.000395	20.802155
1164.326786	-2.976500	3.610800	-10.747000	25.349553	0.000394	20.816331
1165.322650	-3.023200	3.609700	-10.913000	25.313272	0.000394	20.792230
1166.326192	-3.015200	3.609500	-10.882000	25.366903	0.000393	20.825691
1167.320586	-3.020600	3.608800	-10.900000	25.387908	0.000393	20.799367
1168.328603	-3.004900	3.608500	-10.842000	25.373938	0.000393	20.812366
1169.333019	-2.983600	3.609300	-10.769000	25.428175	0.000393	20.815619
1170.325905	-3.007600	3.607900	-10.850000	25.399298	0.000392	20.813175
1171.335828	-2.986800	3.607900	-10.775000	25.369842	0.000392	20.805883
1172.322836	-2.990800	3.608700	-10.792000	25.355358	0.000392	20.808409
1173.340744	-3.017800	3.607600	-10.886000	25.363890	0.000391	20.807019
1174.331921	-3.007500	3.605900	-10.844000	25.417966	0.000390	20.829075
1175.327373	-2.967100	3.606800	-10.700000	25.443717	0.000391	20.817948
1176.335747	-3.022000	3.605900	-10.896000	25.454520	0.000389	20.812202
1177.322990	-2.999500	3.605900	-10.815000	25.397792	0.000389	20.807869
1178.331272	-2.987700	3.606400	-10.774000	25.419415	0.000389	20.820098
1179.329993	-2.989500	3.605100	-10.775000	25.457662	0.000388	20.801132
1180.327298	-3.004700	3.605600	-10.832000	25.470533	0.000389	20.808367
1181.323601	-2.991300	3.605400	-10.784000	25.503243	0.000387	20.787161
1182.325128	-3.024100	3.603800	-10.897000	25.528959	0.000387	20.792123
1183.325198	-3.018900	3.603600	-10.878000	25.532418	0.000387	20.784218
1184.330048	-3.015800	3.603500	-10.867000	25.519051	0.000388	20.780752
1185.329274	-3.000000	3.603500	-10.809000	25.476053	0.000386	20.785461
1186.331459	-3.007700	3.603500	-10.837000	25.498228	0.000388	20.803462
1187.334471	-3.026600	3.602700	-10.903000	25.495712	0.000387	20.791927
1188.327227	-3.009500	3.603100	-10.842000	25.468229	0.000388	20.792303
1189.334003	-2.974600	3.603100	-10.716000	25.456327	0.000385	20.801688
1190.329085	-2.991900	3.601700	-10.775000	25.456425	0.000387	20.786613
1191.333198	-3.004500	3.602300	-10.822000	25.471290	0.000385	20.793954
1192.327040	-3.008800	3.601300	-10.834000	25.476801	0.000385	20.799791
1193.327362	-2.986900	3.601700	-10.757000	25.452745	0.000386	20.781496
1194.331754	-2.979600	3.600500	-10.727000	25.457288	0.000386	20.791273
1195.351033	-3.001100	3.601400	-10.807000	25.443781	0.000384	20.766805
1196.330660	-3.004700	3.600100	-10.816000	25.466186	0.000383	20.767492
1197.331556	-3.023100	3.599600	-10.882000	25.435372	0.000383	20.782068
1198.328029	-3.021000	3.598900	-10.871000	25.444840	0.000383	20.778773
1199.333691	-3.013000	3.599000	-10.843000	25.419871	0.000384	20.778830
1200.333208	-2.989900	3.599700	-10.762000	25.465673	0.000384	20.785943
1201.335579	-2.998100	3.599600	-10.790000	25.503820	0.000381	20.778732
1202.331987	-3.000200	3.598900	-10.797000	25.489827	0.000383	20.790758
1203.332674	-3.004000	3.597900	-10.806000	25.444001	0.000381	20.764180
1204.336607	-2.983000	3.598200	-10.732000	25.408188	0.000379	20.774211
1205.344052	-3.007200	3.597200	-10.817000	25.450758	0.000380	20.779501
1206.332070	-3.004100	3.596500	-10.802000	25.434924	0.000378	20.758384
1207.343088	-3.051400	3.596800	-10.974000	25.422606	0.000379	20.770197
1208.338711	-3.030900	3.596600	-10.900000	25.430528	0.000378	20.776255
1209.337225	-3.000800	3.595400	-10.788000	25.429762	0.000381	20.785918
1210.334820	-3.006200	3.595800	-10.809000	25.449464	0.000378	20.765873
1211.333467	-3.015800	3.595400	-10.842000	25.427768	0.000380	20.770165
1212.338191	-2.990600	3.595900	-10.753000	25.421165	0.000379	20.759267
1213.338428	-3.014300	3.595500	-10.837000	25.456319	0.000377	20.761851
1214.342010	-3.001600	3.594200	-10.787000	25.440696	0.000378	20.748533
1215.342362	-3.008000	3.595100	-10.813000	25.417656	0.000378	20.754795
1216.343213	-2.996600	3.594800	-10.770000	25.418283	0.000376	20.751631
1217.335639	-2.998600	3.594100	-10.776000	25.402196	0.000376	20.762030
1218.337852	-2.999100	3.594100	-10.779000	25.451752	0.000376	20.756790
1219.335192	-3.005700	3.594000	-10.801000	25.438905	0.000376	20.775659
1220.341179	-3.005500	3.592100	-10.795000	25.390537	0.000374	20.774032
1221.359078	-3.012200	3.593800	-10.824000	25.427279	0.000375	20.769674
1222.338617	-3.015300	3.591700	-10.829000	25.400307	0.000372	20.774359
1223.345228	-3.007900	3.593400	-10.807000	25.433809	0.000372	20.772438
1224.338490	-2.983400	3.592500	-10.715000	25.477102	0.000372	20.775135
1225.346139	-2.991000	3.593100	-10.746000	25.491292	0.000373	20.766625
1226.335981	-3.001000	3.590600	-10.775000	25.469303	0.000370	20.754027
1227.336040	-3.016000	3.590300	-10.827000	25.454634	0.000370	20.759210
1228.338205	-3.014300	3.591700	-10.826000	25.487400	0.000372	20.762717
1229.339048	-2.981500	3.589800	-10.701000	25.525222	0.000371	20.758972
1230.337882	-3.007600	3.590700	-10.799000	25.544670	0.000371	20.755744
1231.340107	-2.997500	3.589900	-10.760000	25.543009	0.000370	20.762136
1232.344970	-3.010300	3.589200	-10.803000	25.487750	0.000370	20.743627
1233.338627	-2.990800	3.588100	-10.730000	25.477957	0.000369	20.758449
1234.343921	-2.995300	3.588700	-10.748000	25.505245	0.000371	20.773524
1235.348259	-2.981700	3.587900	-10.696000	25.494735	0.000370	20.741632
1236.338563	-3.018300	3.587200	-10.826000	25.501426	0.000371	20.745507
1237.375240	-3.001600	3.588000	-10.768000	25.450530	0.000370	20.746554
1238.350026	-3.002900	3.587800	-10.773000	25.451303	0.000368	20.731682
1239.342563	-2.992000	3.588100	-10.735000	25.496265	0.000369	20.755971
1240.342129	-3.021600	3.584400	-10.830000	25.462440	0.000369	20.756143
1241.347456	-2.997900	3.586400	-10.751000	25.445872	0.000369	20.736187
1242.345927	-3.008900	3.584900	-10.785000	25.463636	0.000368	20.734584
1243.343737	-3.011100	3.586000	-10.797000	25.485080	0.000366	20.754222
1244.344122	-2.982300	3.587000	-10.696000	25.424078	0.000364	20.749864
1245.345595	-2.993800	3.585000	-10.732000	25.405150	0.000365	20.759781
1246.342290	-2.987400	3.586200	-10.712000	25.382305	0.000366	20.743479
1247.357445	-3.008300	3.585800	-10.786000	25.366974	0.000365	20.736620
1248.351390	-3.012800	3.584200	-10.798000	25.380245	0.000365	20.726237
1249.358338	-3.005400	3.584300	-10.771000	25.394989	0.000366	20.746258
1250.347034	-2.985100	3.583800	-10.697000	25.446466	0.000366	20.756698
1251.345189	-2.992700	3.582300	-10.719000	25.442884	0.000362	20.731289
1252.351368	-3.003900	3.582800	-10.761000	25.455633	0.000364	20.724176
1253.344063	-2.986800	3.583300	-10.702000	25.486829	0.000365	20.736063
1254.356566	-3.007700	3.582100	-10.773000	25.501710	0.000365	20.751956
1255.350104	-2.994000	3.582100	-10.724000	25.482286	0.000363	20.720595
1256.351102	-3.020300	3.581300	-10.814000	25.452588	0.000363	20.736766
1257.345652	-3.002400	3.581400	-10.752000	25.430175	0.000363	20.742710
1258.348394	-3.006900	3.581300	-10.767000	25.396730	0.000364	20.737575
1259.349812	-3.024500	3.580400	-10.827000	25.438487	0.000361	20.719761
1260.349452	-3.019300	3.580500	-10.809000	25.437347	0.000362	20.731419
1261.352770	-2.987700	3.579200	-10.692000	25.431876	0.000361	20.734460
1262.348111	-3.003800	3.578700	-10.749000	25.438715	0.000360	20.747018
1263.348766	-2.982800	3.581100	-10.680000	25.423434	0.000360	20.734517
1264.352252	-2.981900	3.580300	-10.675000	25.428579	0.000359	20.726881
1265.351573	-3.013000	3.579400	-10.784000	25.466060	0.000359	20.728958
1266.350246	-2.974600	3.579200	-10.646000	25.524714	0.000360	20.723374
1267.349007	-2.991900	3.579600	-10.709000	25.520839	0.000358	20.728491
1268.348335	-3.003100	3.578400	-10.746000	25.494178	0.000359	20.732538
1269.353123	-3.006600	3.577200	-10.754000	25.494504	0.000356	20.728123
1270.349853	-3.014100	3.577400	-10.782000	25.489912	0.000358	20.733944
1271.351410	-2.998500	3.578000	-10.727000	25.466149	0.000355	20.728099
1272.349926	-3.002700	3.577000	-10.740000	25.464269	0.000357	20.724787
1273.348583	-3.016400	3.576500	-10.787000	25.479305	0.000356	20.725188
1274.350068	-3.018100	3.576400	-10.793000	25.445634	0.000356	20.712712
1275.351184	-3.022700	3.575800	-10.808000	25.391437	0.000355	20.740321
1276.350290	-2.990800	3.576200	-10.694000	25.437012	0.000355	20.749575
1277.354024	-3.000200	3.576200	-10.728000	25.431655	0.000354	20.740402
1278.350367	-3.011300	3.574800	-10.765000	25.458390	0.000354	20.718410
1279.351664	-3.006900	3.575000	-10.748000	25.483179	0.000353	20.712008
1280.355228	-2.987500	3.574900	-10.679000	25.475055	0.000355	20.707168
1281.352334	-2.965400	3.574500	-10.599000	25.493477	0.000353	20.700538
1282.362884	-3.004400	3.572500	-10.732000	25.476479	0.000354	20.695321
1283.354442	-3.012400	3.572700	-10.761000	25.476137	0.000351	20.728645
1284.353299	-2.996600	3.573900	-10.709000	25.428194	0.000353	20.734556
1285.354428	-2.977300	3.573800	-10.639000	25.399692	0.000353	20.714469
1286.358567	-2.986500	3.573100	-10.670000	25.437695	0.000350	20.716120
1287.353954	-2.997100	3.573300	-10.708000	25.457152	0.000352	20.729495
1288.358531	-2.985000	3.572100	-10.661000	25.455141	0.000351	20.705189
1289.355135	-3.007000	3.572800	-10.742000	25.429749	0.000350	20.727108
1290.370944	-2.995200	3.572200	-10.699000	25.456199	0.000350	20.732332
1291.357975	-3.021100	3.570900	-10.787000	25.475184	0.000350	20.711092
1292.368883	-3.001300	3.572200	-10.720000	25.452422	0.000350	20.718106
1293.359888	-3.010900	3.568900	-10.745000	25.441887	0.000350	20.704682
1294.359869	-3.010700	3.570100	-10.748000	25.416918	0.000350	20.715171
1295.364455	-3.011300	3.570300	-10.750000	25.424644	0.000348	20.708704
1296.362692	-2.992700	3.570000	-10.682000	25.474297	0.000346	20.716365
1297.355836	-3.020100	3.569200	-10.778000	25.473059	0.000348	20.700422
1298.362756	-3.014300	3.569600	-10.758000	25.465081	0.000347	20.708533
1299.356550	-2.993600	3.568100	-10.680000	25.423928	0.000349	20.703243
1300.369724	-3.011400	3.566800	-10.740000	25.440112	0.000349	20.701003
1301.357715	-3.010000	3.567800	-10.738000	25.458959	0.000349	20.716610
1302.358724	-2.990900	3.567500	-10.669000	25.497359	0.000347	20.713920
1303.366724	-3.017000	3.567000	-10.761000	25.494404	0.000346	20.686295
1304.361429	-2.989900	3.566600	-10.663000	25.463892	0.000344	20.719194
1305.362844	-3.006700	3.565600	-10.720000	25.491172	0.000346	20.711500
1306.371808	-3.015000	3.565300	-10.749000	25.518191	0.000344	20.708287
1307.364033	-3.001700	3.566400	-10.704000	25.510034	0.000343	20.694405
1308.359540	-2.969900	3.566900	-10.593000	25.519038	0.000345	20.715302
1309.363494	-3.001300	3.565400	-10.700000	25.513608	0.000343	20.722652
1310.369006	-2.986700	3.564300	-10.644000	25.522245	0.000344	20.706668
1311.360477	-3.012300	3.564300	-10.736000	25.530239	0.000343	20.708533
1312.365098	-3.002300	3.564300	-10.700000	25.502333	0.000343	20.710380
1313.371248	-2.985000	3.564200	-10.638000	25.454327	0.000342	20.695361
1314.364776	-2.993900	3.563800	-10.669000	25.455808	0.000341	20.700643
1315.369183	-3.003000	3.563300	-10.699000	25.470999	0.000342	20.711157
1316.365870	-3.007700	3.563200	-10.716000	25.473043	0.000341	20.695664
1317.362597	-3.021600	3.562900	-10.764000	25.435464	0.000339	20.693963
1318.362947	-3.007000	3.561400	-10.708000	25.435862	0.000340	20.714280
1319.365085	-3.008800	3.561700	-10.716000	25.423708	0.000340	20.688796
1320.378793	-2.997200	3.561800	-10.674000	25.418041	0.000339	20.727206
1321.365010	-3.004000	3.562000	-10.699000	25.411699	0.000341	20.715147
1322.368941	-3.007300	3.560300	-10.706000	25.435244	0.000337	20.688052
1323.367079	-3.000800	3.561800	-10.687000	25.445233	0.000338	20.721319
1324.368853	-3.016800	3.559700	-10.738000	25.477683	0.000338	20.692263
1325.368150	-3.008000	3.560900	-10.710000	25.505419	0.000338	20.709211
1326.366383	-3.010200	3.560600	-10.717000	25.543923	0.000337	20.680547
1327.365915	-3.015600	3.559000	-10.732000	25.542450	0.000338	20.682860
1328.370460	-2.995700	3.560100	-10.664000	25.559308	0.000337	20.708328
1329.366800	-3.014200	3.558100	-10.723000	25.559650	0.000337	20.699662
1330.371527	-3.014200	3.558000	-10.723000	25.545217	0.000334	20.684692
1331.367078	-3.027100	3.558600	-10.771000	25.553691	0.000336	20.710748
1332.369778	-3.011800	3.557700	-10.714000	25.547757	0.000333	20.671594
1333.370042	-3.016900	3.556600	-10.729000	25.514063	0.000336	20.703193
1334.367547	-2.986100	3.558200	-10.624000	25.481501	0.000333	20.679500
1335.384264	-3.023700	3.557300	-10.755000	25.477927	0.000334	20.698198
1336.377340	-2.984700	3.557100	-10.616000	25.504962	0.000334	20.671291
1337.369942	-2.992600	3.557900	-10.646000	25.525916	0.000333	20.682378
1338.369439	-3.004700	3.555300	-10.682000	25.482901	0.000334	20.686122
1339.382543	-3.022300	3.554300	-10.741000	25.489357	0.000332	20.703512
1340.369732	-3.025500	3.554900	-10.755000	25.487370	0.000333	20.672591
1341.371988	-3.004200	3.555800	-10.682000	25.490781	0.000333	20.688820
1342.369227	-3.003400	3.555500	-10.677000	25.505247	0.000331	20.680587
1343.371042	-2.996200	3.554000	-10.648000	25.526030	0.000332	20.695295
1344.380613	-2.996700	3.554600	-10.651000	25.553528	0.000332	20.673597
1345.379317	-2.986900	3.554600	-10.616000	25.495185	0.000331	20.652936
1346.380776	-3.005800	3.553300	-10.679000	25.451680	0.000329	20.685116
1347.376028	-3.001000	3.552700	-10.661000	25.428999	0.000330	20.684626
1348.374660	-2.989300	3.553200	-10.621000	25.440763	0.000331	20.683637
1349.378839	-3.000700	3.551300	-10.655000	25.517205	0.000329	20.687381
1350.377036	-3.022300	3.551900	-10.734000	25.523816	0.000330	20.665568
1351.378760	-3.012800	3.553100	-10.704000	25.515887	0.000330	20.657604
1352.375773	-3.000200	3.552600	-10.657000	25.561318	0.000329	20.665772
1353.385651	-3.005500	3.550700	-10.671000	25.595311	0.000331	20.668617
1354.374879	-3.027900	3.550300	-10.749000	25.553617	0.000328	20.661357
1355.374498	-3.017800	3.551800	-10.718000	25.589003	0.000328	20.676507
1356.377126	-3.001500	3.551300	-10.659000	25.615466	0.000329	20.699767
1357.380338	-3.003400	3.549900	-10.661000	25.582246	0.000326	20.682524
1358.380039	-2.988700	3.550700	-10.611000	25.589483	0.000328	20.678886
1359.376213	-3.027400	3.549300	-10.744000	25.567122	0.000327	20.668282
1360.375461	-3.009800	3.549100	-10.681000	25.485359	0.000325	20.644490
1361.378830	-3.058900	3.547800	-10.851000	25.518809	0.000327	20.663859
1362.377510	-2.980800	3.548000	-10.575000	25.516798	0.000325	20.664684
1363.388260	-2.981900	3.549000	-10.582000	25.530987	0.000324	20.656173
1364.378138	-2.995400	3.548800	-10.629000	25.560634	0.000326	20.650859
1365.385732	-3.008600	3.546700	-10.669000	25.596019	0.000325	20.664112
1366.378503	-2.979100	3.546900	-10.565000	25.576442	0.000326	20.674324
1367.379915	-3.019500	3.545200	-10.704000	25.533632	0.000324	20.667366
1368.381989	-3.005500	3.546200	-10.657000	25.520258	0.000323	20.676695
1369.390214	-3.011700	3.546000	-10.679000	25.459845	0.000325	20.670555
1370.379115	-3.008000	3.543900	-10.659000	25.483511	0.000322	20.661128
1371.379993	-2.969400	3.545700	-10.527000	25.513981	0.000324	20.660907
1372.379368	-3.025100	3.545100	-10.723000	25.525883	0.000323	20.639191
1373.382354	-3.002400	3.545300	-10.644000	25.514152	0.000321	20.651120
1374.383083	-2.982000	3.544900	-10.569000	25.524678	0.000320	20.658373
1375.392672	-3.009200	3.544400	-10.665000	25.548318	0.000321	20.653663
1376.379901	-2.991800	3.544300	-10.603000	25.585421	0.000321	20.656786
1377.381393	-3.001600	3.544200	-10.638000	25.589450	0.000320	20.658462
1378.379845	-2.989800	3.543000	-10.592000	25.583459	0.000320	20.667619
1379.384621	-2.986300	3.543300	-10.581000	25.566340	0.000319	20.672239
1380.380369	-2.976800	3.543500	-10.547000	25.502047	0.000320	20.675002
1381.386265	-3.008500	3.541300	-10.653000	25.511229	0.000319	20.651504
1382.387872	-2.978500	3.542900	-10.551000	25.491220	0.000320	20.654170
1383.386597	-3.009700	3.542700	-10.661000	25.515227	0.000320	20.649828
1384.389387	-3.014700	3.541900	-10.677000	25.535130	0.000320	20.660809
1385.380131	-3.011500	3.541100	-10.663000	25.575978	0.000319	20.660580
1386.394207	-3.009400	3.540300	-10.653000	25.626804	0.000320	20.659942
1387.382802	-2.993800	3.540500	-10.599000	25.617565	0.000319	20.668682
1388.382370	-2.998900	3.539500	-10.613000	25.579543	0.000318	20.667006
1389.393924	-3.002500	3.539000	-10.625000	25.551859	0.000318	20.683301
1390.381995	-3.021100	3.538800	-10.690000	25.546225	0.000318	20.660097
1391.396158	-3.014900	3.538300	-10.666000	25.542741	0.000315	20.653753
1392.392859	-2.997500	3.538300	-10.605000	25.519215	0.000314	20.659999
1393.386992	-2.992300	3.539600	-10.591000	25.516732	0.000316	20.653712
1394.377732	-3.007200	3.538000	-10.639000	25.540022	0.000315	20.666196
1395.385853	-3.012900	3.536100	-10.653000	25.558883	0.000316	20.639616
1396.378424	-3.001700	3.538700	-10.621000	25.574252	0.000315	20.651733
1397.393784	-2.996100	3.537500	-10.598000	25.611663	0.000313	20.653270
1398.384063	-2.992400	3.537200	-10.583000	25.599185	0.000314	20.652117
1399.382551	-3.012200	3.535800	-10.650000	25.565664	0.000313	20.661127
1400.397491	-3.008000	3.535600	-10.634000	25.554186	0.000315	20.652444
1401.382267	-2.992600	3.536400	-10.582000	25.481157	0.000314	20.653548
1402.391366	-2.985300	3.535200	-10.552000	25.515869	0.000311	20.686988
1403.394349	-2.976600	3.536100	-10.524000	25.504244	0.000312	20.662983
1404.389969	-2.999300	3.535200	-10.602000	25.504196	0.000313	20.660563
1405.394059	-2.968200	3.535700	-10.494000	25.485480	0.000311	20.664528
1406.393300	-3.014900	3.534800	-10.656000	25.483665	0.000311	20.639469
1407.389099	-3.010900	3.532400	-10.635000	25.449644	0.000311	20.660309
1408.399333	-3.017700	3.533200	-10.660000	25.499490	0.000310	20.649673
1409.382633	-3.006500	3.533700	-10.624000	25.519997	0.000311	20.657938
1410.384343	-3.019200	3.532500	-10.665000	25.527005	0.000311	20.645535
1411.390220	-2.991200	3.532500	-10.565000	25.538988	0.000310	20.665158
1412.396534	-3.014600	3.532400	-10.648000	25.518189	0.000309	20.640474
1413.387321	-2.997000	3.532600	-10.587000	25.532183	0.000309	20.654055
1414.400862	-3.008000	3.531700	-10.623000	25.550718	0.000308	20.642322
1415.396108	-3.020100	3.531700	-10.665000	25.614235	0.000307	20.664863
1416.399230	-2.984200	3.531700	-10.538000	25.557157	0.000308	20.667758
1417.398718	-3.012400	3.530400	-10.634000	25.542716	0.000309	20.646614
1418.388011	-3.007800	3.530400	-10.618000	25.535984	0.000310	20.658347
1419.400071	-2.986700	3.531000	-10.545000	25.540307	0.000309	20.659843
1420.392982	-2.994400	3.530000	-10.570000	25.508241	0.000308	20.652297
1421.393588	-3.017100	3.528800	-10.646000	25.529806	0.000306	20.660677
1422.399021	-2.984600	3.528600	-10.531000	25.549733	0.000305	20.671208
1423.406513	-3.013800	3.527900	-10.631000	25.514892	0.000306	20.684109
1424.394192	-3.009900	3.528500	-10.620000	25.506784	0.000306	20.672647
1425.402658	-3.027700	3.527600	-10.680000	25.473562	0.000305	20.674372
1426.412021	-2.993400	3.527800	-10.559000	25.457215	0.000304	20.657955
1427.407914	-3.004600	3.528200	-10.600000	25.467505	0.000306	20.648372
1428.392542	-3.008900	3.528400	-10.616000	25.493621	0.000304	20.656581
1429.394911	-3.005500	3.527000	-10.599000	25.529081	0.000303	20.676547
1430.397508	-2.991000	3.526900	-10.548000	25.563083	0.000305	20.666122
1431.394897	-3.017100	3.524800	-10.634000	25.571476	0.000303	20.674078
1432.403894	-2.998000	3.525300	-10.568000	25.544971	0.000305	20.692506
1433.395646	-3.024300	3.524800	-10.659000	25.555334	0.000304	20.646483
1434.412016	-3.000200	3.523400	-10.570000	25.525410	0.000303	20.672385
1435.395236	-2.995100	3.524300	-10.555000	25.498432	0.000302	20.646712
1436.402336	-3.000800	3.524100	-10.574000	25.529390	0.000304	20.667373
1437.411635	-3.005500	3.523900	-10.590000	25.517481	0.000301	20.661576
1438.401396	-3.005000	3.523600	-10.588000	25.511302	0.000302	20.664855
1439.400405	-3.009300	3.522100	-10.598000	25.525344	0.000301	20.667103
1440.395007	-3.001000	3.522300	-10.569000	25.523977	0.000302	20.679007
1441.401380	-2.994700	3.523000	-10.549000	25.548561	0.000302	20.667185
1442.393027	-2.991000	3.522400	-10.535000	25.507435	0.000299	20.678517
1443.401421	-2.975100	3.522300	-10.478000	25.493710	0.000301	20.701246
1444.402514	-2.983800	3.522700	-10.509000	25.554479	0.000299	20.676922
1445.411912	-3.012200	3.521800	-10.607000	25.610385	0.000298	20.656254
1446.395165	-2.986400	3.521600	-10.516000	25.556058	0.000298	20.651004
1447.407317	-3.020800	3.519600	-10.631000	25.560299	0.000298	20.651945
1448.401597	-3.011900	3.521200	-10.605000	25.597255	0.000299	20.662034
1449.405671	-3.017400	3.519400	-10.619000	25.621381	0.000298	20.664454
1450.410946	-3.021400	3.518600	-10.631000	25.656773	0.000298	20.675818
1451.393909	-2.991800	3.518900	-10.526000	25.658702	0.000297	20.671117
1452.401919	-3.013400	3.519400	-10.604000	25.630978	0.000298	20.681206
1453.390710	-2.995900	3.518700	-10.541000	25.660045	0.000297	20.670095
1454.392583	-2.989800	3.517900	-10.517000	25.676104	0.000297	20.668207
1455.390467	-2.970300	3.518900	-10.450000	25.650212	0.000298	20.680135
1456.395765	-3.007300	3.517700	-10.578000	25.614161	0.000296	20.674747
1457.391795	-2.987300	3.517900	-10.508000	25.588919	0.000297	20.651290
1458.404557	-3.006100	3.516300	-10.570000	25.565337	0.000298	20.671706
1459.404991	-2.994900	3.515700	-10.528000	25.542276	0.000294	20.691222
1460.397878	-2.996100	3.515800	-10.533000	25.504374	0.000295	20.672597
1461.398903	-2.988900	3.517600	-10.512000	25.482589	0.000292	20.684387
1462.398791	-2.991700	3.516300	-10.519000	25.464915	0.000293	20.688450
1463.401491	-3.002500	3.515200	-10.553000	25.499831	0.000294	20.690797
1464.396673	-3.015000	3.514200	-10.595000	25.571646	0.000293	20.690846
1465.398614	-2.993600	3.514500	-10.520000	25.598858	0.000294	20.677396
1466.396829	-3.017900	3.513900	-10.603000	25.633965	0.000292	20.702226
1467.401273	-2.991400	3.514700	-10.513000	25.614812	0.000292	20.690576
1468.401506	-3.021700	3.513200	-10.615000	25.551499	0.000291	20.688156
1469.399216	-3.013900	3.512500	-10.586000	25.570327	0.000293	20.674821
1470.405694	-2.990700	3.512800	-10.505000	25.571377	0.000291	20.699111
1471.409349	-2.999900	3.512500	-10.536000	25.556497	0.000291	20.686063
1472.417903	-3.007300	3.511100	-10.557000	25.537978	0.000292	20.673153
1473.412817	-3.011300	3.511100	-10.572000	25.519743	0.000290	20.683291
1474.409802	-3.018200	3.510400	-10.595000	25.489151	0.000288	20.679596
1475.403952	-2.999900	3.512000	-10.534000	25.519939	0.000291	20.694868
1476.404747	-2.998800	3.511400	-10.529000	25.521729	0.000289	20.684812
1477.412465	-3.002200	3.509300	-10.535000	25.520362	0.000288	20.683438
1478.417963	-3.006400	3.509000	-10.549000	25.545036	0.000288	20.688303
1479.406626	-2.985200	3.511000	-10.480000	25.547429	0.000288	20.700665
1480.408009	-3.006300	3.509900	-10.552000	25.543904	0.000288	20.688115
1481.411718	-3.001600	3.508300	-10.530000	25.558288	0.000287	20.694026
1482.407840	-3.017900	3.507600	-10.585000	25.573746	0.000288	20.690584
1483.430665	-2.994900	3.508000	-10.506000	25.609131	0.000288	20.693404
1484.407706	-3.015700	3.506700	-10.574000	25.612810	0.000288	20.662483
1485.406592	-3.017700	3.506800	-10.581000	25.579184	0.000286	20.717384
1486.413719	-3.000700	3.506200	-10.520000	25.550693	0.000286	20.684027
1487.408299	-2.976900	3.507400	-10.440000	25.553868	0.000286	20.712348
1488.404475	-3.002500	3.506700	-10.528000	25.588366	0.000287	20.705742
1489.407220	-2.999200	3.507000	-10.517000	25.552134	0.000283	20.698277
1490.404450	-2.989500	3.506100	-10.480000	25.575447	0.000287	20.688973
1491.406728	-2.987000	3.505500	-10.470000	25.591898	0.000285	20.701703
1492.414022	-2.990400	3.506100	-10.484000	25.583620	0.000285	20.698130
1493.409310	-2.986200	3.505100	-10.466000	25.589831	0.000286	20.688245
1494.411252	-3.011700	3.504200	-10.552000	25.640379	0.000285	20.689226
1495.406863	-2.967000	3.505500	-10.399000	25.649268	0.000285	20.689619
1496.407923	-3.001800	3.504000	-10.517000	25.604450	0.000284	20.701981
1497.406496	-2.984200	3.504800	-10.458000	25.638287	0.000285	20.713680
1498.409215	-2.992500	3.503500	-10.484000	25.626908	0.000283	20.694189
1499.411527	-2.974800	3.503100	-10.420000	25.592037	0.000284	20.716067
1500.409713	-3.017400	3.501800	-10.565000	25.578353	0.000285	20.713230
1501.420121	-3.011500	3.502700	-10.548000	25.539687	0.000281	20.707589
1502.410382	-3.004200	3.501600	-10.518000	25.566249	0.000281	20.693012
1503.413687	-3.009700	3.500800	-10.535000	25.530936	0.000283	20.707336
1504.424316	-3.001600	3.500800	-10.506000	25.552012	0.000281	20.697206
1505.416007	-2.997100	3.502000	-10.495000	25.630750	0.000282	20.716542
1506.416767	-2.984500	3.501100	-10.447000	25.664399	0.000282	20.712405
1507.414330	-3.010100	3.498900	-10.531000	25.677984	0.000282	20.699970
1508.417734	-3.002800	3.500600	-10.511000	25.678187	0.000281	20.705864
1509.408355	-3.018100	3.498100	-10.556000	25.670805	0.000280	20.706984
1510.417266	-2.993000	3.499100	-10.471000	25.688695	0.000283	20.704090
1511.411191	-3.005800	3.499000	-10.516000	25.699252	0.000282	20.727971
1512.413995	-3.020600	3.499100	-10.568000	25.690771	0.000280	20.701907
1513.422813	-2.992900	3.497300	-10.466000	25.660964	0.000280	20.712748
1514.418098	-2.987700	3.497300	-10.448000	25.627665	0.000277	20.711546
1515.415697	-2.992200	3.497700	-10.465000	25.616904	0.000279	20.705006
1516.411051	-3.003900	3.497100	-10.503000	25.622350	0.000279	20.716640
1517.415778	-2.991400	3.496700	-10.460000	25.602350	0.000278	20.715046
1518.408689	-3.008700	3.495700	-10.516000	25.611207	0.000279	20.721570
1519.412404	-2.982400	3.497400	-10.429000	25.625964	0.000276	20.722167
1520.411034	-3.002900	3.496400	-10.499000	25.606860	0.000275	20.727636
1521.410534	-2.996100	3.496000	-10.472000	25.618467	0.000275	20.715111
1522.415165	-3.053500	3.494300	-10.668000	25.647884	0.000277	20.720000
1523.414092	-2.992500	3.494700	-10.457000	25.677300	0.000279	20.726312
1524.414799	-2.989300	3.494000	-10.443000	25.687857	0.000277	20.729803
1525.420555	-3.014200	3.492600	-10.526000	25.689664	0.000275	20.727824
1526.416400	-2.987100	3.493600	-10.435000	25.677715	0.000276	20.723884
1527.420530	-3.007800	3.492700	-10.504000	25.665685	0.000274	20.725077
1528.415676	-2.993700	3.492100	-10.454000	25.666833	0.000275	20.714850
1529.413151	-3.005000	3.494200	-10.499000	25.680768	0.000275	20.732165
1530.419787	-2.972800	3.494800	-10.387000	25.663520	0.000274	20.742818
1531.418797	-3.005100	3.491700	-10.492000	25.664049	0.000276	20.756626
1532.414650	-3.002800	3.491500	-10.483000	25.670423	0.000273	20.723671
1533.411959	-2.989500	3.492300	-10.439000	25.669902	0.000272	20.719354
1534.420474	-3.004900	3.490800	-10.489000	25.592778	0.000272	20.740047
1535.414067	-3.009800	3.490300	-10.504000	25.589660	0.000273	20.725061
1536.415335	-2.985700	3.492300	-10.425000	25.581789	0.000272	20.727113
1537.415205	-2.961800	3.491400	-10.340000	25.591085	0.000274	20.723647
1538.413867	-2.993100	3.491400	-10.449000	25.583018	0.000271	20.736409
1539.426533	-2.990900	3.489400	-10.435000	25.572786	0.000270	20.740832
1540.419801	-3.007900	3.488700	-10.493000	25.592192	0.000271	20.742303
1541.415613	-2.987500	3.489600	-10.425000	25.613584	0.000270	20.738183
1542.437651	-2.997200	3.488600	-10.455000	25.631939	0.000271	20.730539
1543.416303	-2.974000	3.489600	-10.378000	25.597605	0.000269	20.739679
1544.426227	-2.996200	3.488400	-10.451000	25.570051	0.000269	20.739507
1545.431291	-3.001600	3.488600	-10.470000	25.577776	0.000270	20.742050
1546.427204	-2.975400	3.487400	-10.376000	25.536253	0.000269	20.748239
1547.420942	-2.989700	3.486100	-10.421000	25.533322	0.000270	20.735338
1548.425639	-3.012600	3.485700	-10.500000	25.597101	0.000268	20.741069
1549.422237	-3.042600	3.485600	-10.604000	25.637555	0.000269	20.741870
1550.430582	-2.994000	3.486500	-10.437000	25.628911	0.000269	20.764957
1551.424994	-3.014900	3.484400	-10.504000	25.632639	0.000268	20.739303
1552.423978	-2.996600	3.486300	-10.446000	25.661575	0.000266	20.756038
1553.421584	-3.003500	3.484300	-10.464000	25.695476	0.000269	20.749784
1554.424579	-2.990800	3.485400	-10.424000	25.675624	0.000268	20.755449
1555.424938	-2.991800	3.484400	-10.424000	25.657888	0.000265	20.761344
1556.435528	-3.010500	3.483200	-10.485000	25.656887	0.000266	20.740897
1557.425463	-2.997000	3.483300	-10.438000	25.612583	0.000265	20.740497
1558.431004	-2.979200	3.483000	-10.375000	25.626974	0.000266	20.772021
1559.427679	-2.989300	3.482400	-10.409000	25.604728	0.000265	20.751100
1560.423058	-2.982500	3.483500	-10.389000	25.617410	0.000265	20.762415
1561.421911	-2.985500	3.481400	-10.392000	25.616856	0.000263	20.763281
1562.424765	-3.017200	3.482300	-10.506000	25.617979	0.000265	20.751607
1563.428012	-2.984000	3.481900	-10.389000	25.614780	0.000263	20.768783
1564.423026	-2.988300	3.482100	-10.405000	25.615252	0.000266	20.760248
1565.431392	-3.001300	3.480600	-10.445000	25.672523	0.000262	20.768930
1566.424234	-3.000400	3.479900	-10.440000	25.707652	0.000265	20.761066
1567.427066	-3.005700	3.480700	-10.461000	25.706048	0.000262	20.771309
1568.439260	-2.988200	3.480500	-10.399000	25.693245	0.000263	20.770778
1569.445999	-3.034800	3.479300	-10.557000	25.709491	0.000260	20.761491
1570.426221	-3.007300	3.478200	-10.459000	25.701572	0.000262	20.782935
1571.436532	-2.998300	3.479200	-10.431000	25.709353	0.000261	20.776525
1572.433213	-3.005500	3.478700	-10.454000	25.729692	0.000261	20.765660
1573.443279	-2.982100	3.478900	-10.374000	25.778028	0.000261	20.781021
1574.440137	-2.978800	3.478500	-10.361000	25.773381	0.000261	20.790104
1575.443880	-3.005600	3.477300	-10.451000	25.790204	0.000261	20.782820
1576.436259	-2.993700	3.478300	-10.411000	25.753303	0.000262	20.789377
1577.439334	-2.991200	3.477800	-10.402000	25.751089	0.000258	20.766290
1578.444510	-2.982500	3.476500	-10.368000	25.716580	0.000259	20.778569
1579.428253	-2.993100	3.476600	-10.405000	25.748591	0.000261	20.780850
1580.439916	-3.015100	3.477900	-10.485000	25.762549	0.000258	20.780171
1581.442186	-2.982200	3.477400	-10.369000	25.744196	0.000259	20.768374
1582.433881	-3.007700	3.475800	-10.453000	25.765120	0.000257	20.766633
1583.436653	-2.980100	3.476400	-10.359000	25.804682	0.000256	20.798786
1584.435454	-2.999800	3.474700	-10.422000	25.781805	0.000256	20.773909
1585.427859	-3.003300	3.475700	-10.438000	25.729635	0.000255	20.786940
1586.441412	-3.008100	3.473700	-10.448000	25.736846	0.000256	20.779959
1587.435751	-3.005500	3.472700	-10.436000	25.715473	0.000256	20.795475
1588.427904	-2.981600	3.474500	-10.359000	25.720381	0.000254	20.784757
1589.447794	-2.998900	3.473800	-10.417000	25.738417	0.000255	20.792916
1590.435411	-2.986700	3.473400	-10.373000	25.752050	0.000256	20.771996
1591.441298	-3.006000	3.474100	-10.442000	25.767057	0.000257	20.781855
1592.435904	-3.011700	3.472500	-10.457000	25.753946	0.000255	20.782910
1593.435757	-3.003300	3.473100	-10.429000	25.777646	0.000256	20.792965
1594.442969	-3.006700	3.471100	-10.436000	25.792425	0.000255	20.788371
1595.436241	-2.991700	3.472800	-10.389000	25.831115	0.000256	20.784561
1596.443651	-3.000900	3.472100	-10.419000	25.793898	0.000256	20.800756
1597.437877	-2.976700	3.471600	-10.332000	25.820682	0.000255	20.805849
1598.436008	-3.014500	3.470100	-10.460000	25.808564	0.000253	20.791305
1599.459647	-2.989100	3.470400	-10.372000	25.838179	0.000253	20.772691
1600.447514	-2.999100	3.468600	-10.402000	25.834053	0.000254	20.778029
1601.446209	-2.994700	3.470000	-10.391000	25.797837	0.000254	20.795229
1602.444426	-3.022000	3.468800	-10.481000	25.754662	0.000253	20.796905
1603.446051	-3.029600	3.468100	-10.506000	25.750959	0.000253	20.802669
1604.460451	-3.009800	3.468200	-10.438000	25.738368	0.000255	20.804721
1605.450910	-3.018000	3.468000	-10.465000	25.758658	0.000254	20.794281
1606.435593	-3.014800	3.467800	-10.454000	25.759480	0.000252	20.795581
1607.451553	-3.003700	3.468700	-10.418000	25.770272	0.000253	20.802154
1608.455130	-3.020000	3.465800	-10.466000	25.759187	0.000252	20.793864
1609.443342	-2.984900	3.467200	-10.348000	25.770369	0.000250	20.823588
1610.446867	-3.032700	3.466700	-10.512000	25.762426	0.000253	20.806127
1611.445023	-3.022500	3.466300	-10.476000	25.799717	0.000252	20.815609
1612.445564	-2.991800	3.465500	-10.367000	25.805585	0.000251	20.796848
1613.442446	-2.997200	3.465800	-10.387000	25.801743	0.000251	20.798205
1614.457802	-2.976000	3.466300	-10.314000	25.771419	0.000250	20.803306
1615.443010	-3.005500	3.464900	-10.413000	25.797137	0.000249	20.809699
1616.435839	-3.021100	3.464700	-10.466000	25.790529	0.000248	20.797371
1617.435975	-3.009700	3.463800	-10.424000	25.772200	0.000249	20.814996
1618.440048	-2.987800	3.464100	-10.349000	25.773047	0.000249	20.805889
1619.445445	-2.999200	3.463900	-10.388000	25.749721	0.000248	20.827504
1620.439453	-3.003800	3.463700	-10.403000	25.717996	0.000250	20.811285
1621.441929	-3.004000	3.464000	-10.405000	25.701148	0.000247	20.813329
1622.452794	-2.990300	3.463000	-10.355000	25.696411	0.000247	20.814735
1623.440290	-2.992100	3.463900	-10.363000	25.691315	0.000247	20.823841
1624.449410	-2.998400	3.462300	-10.381000	25.720413	0.000248	20.808497
1625.443657	-2.963600	3.461700	-10.259000	25.724987	0.000247	20.813565
1626.441150	-2.977600	3.462100	-10.308000	25.750551	0.000249	20.832605
1627.443067	-3.010500	3.462500	-10.422000	25.774381	0.000245	20.822877
1628.440923	-2.991000	3.462000	-10.354000	25.773730	0.000247	20.825068
1629.439533	-2.993700	3.461500	-10.361000	25.751552	0.000248	20.835981
1630.444123	-3.015100	3.460900	-10.434000	25.736788	0.000244	20.819729
1631.444742	-3.012500	3.459900	-10.422000	25.762483	0.000245	20.821830
1632.447576	-2.983900	3.459800	-10.323000	25.778239	0.000244	20.816320
1633.444232	-2.999800	3.459300	-10.377000	25.754735	0.000244	20.834910
1634.442087	-2.993500	3.458700	-10.353000	25.716823	0.000244	20.817220
1635.440619	-3.011400	3.458600	-10.414000	25.717271	0.000243	20.836635
1636.444266	-2.983800	3.459500	-10.321000	25.709718	0.000241	20.836161
1637.443952	-2.996200	3.458800	-10.362000	25.718468	0.000242	20.822190
1638.447488	-2.988000	3.458100	-10.332000	25.696777	0.000242	20.828378
1639.440891	-2.994200	3.457900	-10.353000	25.721479	0.000241	20.819525
1640.440949	-3.002500	3.456700	-10.378000	25.754148	0.000242	20.823416
1641.451659	-3.016100	3.456900	-10.425000	25.806813	0.000241	20.821789
1642.441648	-3.005200	3.455900	-10.384000	25.807887	0.000241	20.820972
1643.449812	-2.983900	3.456000	-10.311000	25.834817	0.000241	20.809143
1644.449676	-2.998200	3.456100	-10.361000	25.848733	0.000241	20.824544
1645.444008	-3.025700	3.455000	-10.453000	25.876451	0.000241	20.813982
1646.440999	-2.997600	3.454800	-10.355000	25.836778	0.000242	20.804001
1647.447206	-2.975900	3.454900	-10.280000	25.782471	0.000240	20.825787
1648.448571	-3.019000	3.454300	-10.428000	25.796087	0.000241	20.813860
1649.449291	-3.013800	3.454000	-10.408000	25.811761	0.000242	20.827234
1650.449008	-3.006900	3.454000	-10.385000	25.842556	0.000240	20.823081
1651.446054	-3.011800	3.452500	-10.397000	25.789779	0.000241	20.810369
1652.448045	-3.001600	3.452400	-10.361000	25.805527	0.000241	20.793471
1653.447810	-2.976000	3.454400	-10.279000	25.822561	0.000239	20.802995
1654.451427	-2.992000	3.454500	-10.335000	25.810834	0.000238	20.810655
1655.451844	-2.945400	3.453400	-10.170000	25.836925	0.000237	20.810312
1656.452619	-2.995400	3.452500	-10.340000	25.816848	0.000237	20.809110
1657.448498	-3.000700	3.451500	-10.356000	25.778565	0.000239	20.805742
1658.450542	-2.972100	3.451300	-10.256000	25.820697	0.000235	20.796856
1659.447861	-2.974400	3.451700	-10.266000	25.824945	0.000237	20.815348
1660.450534	-2.996300	3.450800	-10.339000	25.806610	0.000234	20.786498
1661.451159	-2.990000	3.450200	-10.315000	25.745635	0.000235	20.803486
1662.455273	-3.007800	3.448900	-10.373000	25.743080	0.000237	20.800919
1663.449290	-3.005100	3.450200	-10.366000	25.774536	0.000235	20.806437
1664.453859	-2.998400	3.449800	-10.343000	25.801515	0.000236	20.825950
1665.449519	-3.012200	3.448500	-10.386000	25.790284	0.000233	20.797126
1666.451328	-3.021400	3.448800	-10.419000	25.749965	0.000236	20.790291
1667.449949	-2.985400	3.449400	-10.297000	25.733338	0.000235	20.799194
1668.452183	-2.993900	3.448100	-10.323000	25.718948	0.000234	20.790430
1669.466677	-2.990800	3.448600	-10.313000	25.732882	0.000235	20.809167
1670.455719	-3.010100	3.447300	-10.376000	25.787769	0.000234	20.801712
1671.454963	-3.001200	3.446800	-10.344000	25.813202	0.000234	20.804025
1672.454288	-2.999400	3.446100	-10.335000	25.804608	0.000233	20.783539
1673.455593	-2.999400	3.446300	-10.336000	25.871617	0.000232	20.798221
1674.452421	-2.995900	3.446100	-10.324000	25.883092	0.000231	20.805955
1675.456888	-3.004900	3.445600	-10.353000	25.865628	0.000232	20.803110
1676.452648	-3.005800	3.444800	-10.353000	25.847822	0.000232	20.778110
1677.453619	-2.996300	3.445100	-10.322000	25.857921	0.000231	20.784937
1678.453622	-2.987400	3.445900	-10.294000	25.840856	0.000231	20.795294
1679.457363	-3.014300	3.444700	-10.383000	25.801906	0.000231	20.781299
1680.459831	-3.002600	3.444000	-10.339000	25.838943	0.000231	20.776304
1681.455585	-2.977800	3.444000	-10.254000	25.866792	0.000231	20.795744
1682.455931	-3.002400	3.443100	-10.336000	25.895136	0.000231	20.782492
1683.456576	-3.021700	3.443500	-10.405000	25.889000	0.000231	20.775380
1684.456275	-3.014000	3.443300	-10.376000	25.900555	0.000230	20.788411
1685.459526	-3.004600	3.443300	-10.345000	25.883108	0.000229	20.778944
1686.457361	-2.995500	3.443100	-10.313000	25.887266	0.000230	20.788811
1687.462533	-3.012900	3.442900	-10.371000	25.858816	0.000228	20.774456
1688.463955	-2.992700	3.442300	-10.301000	25.867288	0.000227	20.782492
1689.458915	-2.986400	3.440900	-10.274000	25.887047	0.000229	20.788117
1690.466683	-2.998100	3.440500	-10.313000	25.872708	0.000229	20.769919
1691.459732	-2.979700	3.441300	-10.254000	25.872659	0.000229	20.792629
1692.458110	-3.018000	3.441100	-10.385000	25.844233	0.000228	20.787307
1693.455917	-2.970900	3.440600	-10.221000	25.830895	0.000228	20.778176
1694.457918	-2.998500	3.439200	-10.311000	25.820413	0.000226	20.780923
1695.457279	-2.987100	3.439500	-10.273000	25.775277	0.000227	20.762136
1696.462475	-2.996100	3.440900	-10.308000	25.785930	0.000226	20.763354
1697.457686	-3.008900	3.438100	-10.343000	25.724539	0.000227	20.757639
1698.460444	-3.014100	3.438200	-10.362000	25.755719	0.000226	20.766673
1699.462024	-3.002700	3.438600	-10.324000	25.719501	0.000226	20.771545
1700.459089	-3.014400	3.437600	-10.360000	25.748370	0.000225	20.755023
1701.461038	-3.000100	3.438600	-10.315000	25.735600	0.000225	20.773491
1702.466016	-2.991200	3.438200	-10.284000	25.766007	0.000226	20.779852
1703.474444	-2.994800	3.437700	-10.294000	25.742233	0.000224	20.765929
1704.466129	-2.983500	3.436500	-10.252000	25.770206	0.000222	20.769845
1705.465099	-3.009100	3.435500	-10.337000	25.813405	0.000225	20.783367
1706.462642	-3.002100	3.436400	-10.315000	25.833914	0.000224	20.774096
1707.463518	-3.015600	3.435200	-10.358000	25.871642	0.000224	20.761735
1708.467874	-2.987700	3.435500	-10.263000	25.845950	0.000222	20.770540
1709.461812	-2.989100	3.435600	-10.269000	25.799359	0.000223	20.772576
1710.464461	-3.005600	3.435200	-10.324000	25.816001	0.000221	20.777914
1711.462874	-2.991200	3.434100	-10.271000	25.814358	0.000220	20.773418
1712.470314	-2.989200	3.434800	-10.267000	25.788046	0.000221	20.763583
1713.469336	-3.001700	3.433300	-10.305000	25.782162	0.000219	20.745344
1714.470873	-3.025400	3.434000	-10.387000	25.786313	0.000222	20.775118
1715.468369	-2.988100	3.434800	-10.263000	25.774886	0.000221	20.786874
1716.465698	-3.037500	3.431400	-10.422000	25.779085	0.000222	20.759323
1717.471376	-2.993900	3.433800	-10.280000	25.830781	0.000221	20.768104
1718.466899	-3.006300	3.432900	-10.319000	25.830284	0.000219	20.763338
1719.467484	-3.022900	3.430700	-10.369000	25.844542	0.000219	20.768651
1720.467291	-3.024800	3.431400	-10.379000	25.870112	0.000220	20.767311
1721.468609	-2.985900	3.431500	-10.245000	25.854039	0.000219	20.772502
1722.464700	-3.025700	3.431600	-10.382000	25.875751	0.000217	20.766338
1723.478533	-2.999800	3.431700	-10.294000	25.859109	0.000216	20.763370
1724.495050	-3.000300	3.430100	-10.290000	25.809271	0.000220	20.748393
1725.467319	-2.996400	3.430400	-10.278000	25.817320	0.000217	20.764539
1726.467532	-3.007200	3.428700	-10.310000	25.893117	0.000219	20.757705
1727.469962	-2.976500	3.429900	-10.208000	25.945507	0.000217	20.755334
1728.466479	-2.970700	3.429500	-10.187000	25.889984	0.000218	20.768782
1729.467522	-2.971900	3.429200	-10.190000	25.859956	0.000218	20.764695
1730.480909	-2.988200	3.428900	-10.246000	25.796925	0.000217	20.761596
1731.469605	-2.993200	3.428900	-10.263000	25.805324	0.000217	20.755334
1732.473610	-3.006800	3.429300	-10.310000	25.803656	0.000215	20.760770
1733.467971	-3.020500	3.427500	-10.352000	25.822317	0.000216	20.740634
1734.468998	-3.037600	3.426200	-10.407000	25.824644	0.000215	20.753404
1735.477590	-3.017000	3.427600	-10.340000	25.839106	0.000214	20.740904
1736.469166	-2.983200	3.427200	-10.223000	25.867475	0.000215	20.742850
1737.469750	-2.996900	3.424700	-10.262000	25.893036	0.000213	20.763787
1738.475630	-2.987400	3.426700	-10.236000	25.899709	0.000214	20.767646
1739.469586	-3.017200	3.426200	-10.337000	25.886794	0.000213	20.760836
1740.467469	-3.008900	3.426100	-10.308000	25.868297	0.000214	20.756953
1741.473981	-3.005700	3.424700	-10.293000	25.857767	0.000214	20.746374
1742.470096	-3.017500	3.423300	-10.328000	25.880479	0.000215	20.753069
1743.471788	-3.023800	3.423400	-10.350000	25.899082	0.000211	20.746153
1744.478182	-2.991200	3.425000	-10.244000	25.919256	0.000213	20.751246
1745.478568	-2.989200	3.424300	-10.235000	25.924643	0.000212	20.748123
1746.478297	-2.976700	3.423600	-10.190000	25.918971	0.000211	20.763289
1747.471582	-2.987800	3.423700	-10.229000	25.925880	0.000210	20.742728
1748.477212	-3.019200	3.423100	-10.334000	25.926270	0.000210	20.756397
1749.476130	-3.023700	3.422800	-10.348000	25.926498	0.000210	20.749513
1750.479038	-2.976900	3.421900	-10.185000	25.921941	0.000210	20.763428
1751.473081	-3.013400	3.421500	-10.310000	25.900881	0.000210	20.762185
1752.485799	-3.010400	3.421000	-10.296000	25.852192	0.000211	20.743619
1753.477505	-3.013300	3.420900	-10.307000	25.829503	0.000210	20.757337
1754.477466	-3.001700	3.421300	-10.269000	25.814570	0.000210	20.763673
1755.482081	-3.012300	3.420900	-10.304000	25.843891	0.000210	20.752350
1756.485469	-2.964700	3.421600	-10.143000	25.824628	0.000210	20.731576
1757.475544	-2.989200	3.421100	-10.226000	25.824205	0.000208	20.761498
1758.475554	-2.984700	3.420200	-10.207000	25.833051	0.000207	20.756634
1759.479208	-3.002200	3.419700	-10.265000	25.815684	0.000208	20.717375
1760.481882	-3.002700	3.419800	-10.268000	25.893443	0.000208	20.739539
1761.487589	-3.009800	3.418100	-10.287000	25.932634	0.000207	20.740030
1762.484985	-2.993800	3.418200	-10.233000	25.899726	0.000208	20.733048
1763.482540	-3.027700	3.417600	-10.347000	25.870413	0.000206	20.738215
1764.480092	-2.995900	3.419200	-10.243000	25.830870	0.000206	20.735476
1765.481683	-3.006700	3.418300	-10.277000	25.811982	0.000205	20.731675
1766.480926	-3.015300	3.418500	-10.307000	25.783717	0.000205	20.751173
1767.481876	-3.000000	3.417900	-10.253000	25.788331	0.000207	20.748696
1768.480520	-2.999100	3.416500	-10.246000	25.830195	0.000206	20.734798
1769.485198	-2.973600	3.417200	-10.160000	25.853169	0.000204	20.732746
1770.482675	-2.989300	3.417000	-10.214000	25.835289	0.000204	20.761253
1771.483879	-3.011100	3.416400	-10.286000	25.814993	0.000203	20.729009
1772.485135	-3.000700	3.416300	-10.251000	25.820307	0.000204	20.726761
1773.486724	-3.002900	3.415500	-10.255000	25.848058	0.000204	20.761278
1774.494318	-3.009500	3.414600	-10.275000	25.835135	0.000204	20.743554
1775.488688	-3.018000	3.414600	-10.304000	25.852778	0.000202	20.729034
1776.487602	-2.997300	3.414200	-10.232000	25.861722	0.000204	20.741812
1777.492491	-2.996900	3.414700	-10.233000	25.910654	0.000202	20.740234
1778.490630	-3.015600	3.412400	-10.290000	25.939201	0.000200	20.753266
1779.488907	-3.025300	3.412500	-10.323000	25.947419	0.000202	20.737340
1780.498919	-2.984100	3.412700	-10.182000	25.941064	0.000200	20.730007
1781.495273	-3.006000	3.413500	-10.259000	25.934823	0.000201	20.744600
1782.487511	-3.011600	3.413200	-10.279000	25.937516	0.000201	20.725968
1783.487942	-2.986200	3.412100	-10.189000	25.930062	0.000199	20.724644
1784.486374	-3.007000	3.411000	-10.256000	25.946809	0.000200	20.737201
1785.489484	-3.006200	3.411400	-10.255000	25.881945	0.000198	20.741264
1786.501950	-2.978000	3.411700	-10.159000	25.882075	0.000198	20.737127
1787.494541	-2.995500	3.409800	-10.214000	25.934416	0.000199	20.713369
1788.497015	-2.981900	3.411200	-10.170000	25.925473	0.000201	20.741371
1789.492848	-2.973800	3.411300	-10.144000	25.931250	0.000198	20.742433
1790.493693	-2.987700	3.410500	-10.189000	25.931503	0.000200	20.716607
1791.492394	-3.000300	3.409300	-10.228000	25.905064	0.000196	20.714702
1792.496381	-3.008200	3.409600	-10.256000	25.914487	0.000199	20.738395
1793.495815	-2.991500	3.410400	-10.201000	25.934880	0.000196	20.715258
1794.494644	-3.006300	3.408700	-10.247000	25.922210	0.000199	20.719125
1795.498615	-2.996900	3.408100	-10.213000	25.900726	0.000195	20.705602
1796.500577	-3.019700	3.408200	-10.291000	25.907554	0.000197	20.718626
1797.500111	-3.034800	3.406200	-10.336000	25.917441	0.000195	20.711963
1798.497570	-3.007100	3.407900	-10.246000	25.953254	0.000196	20.728028
1799.496640	-3.009700	3.408200	-10.257000	25.924195	0.000195	20.732974
1800.497547	-3.007200	3.406700	-10.244000	25.886266	0.000195	20.704352
1801.497716	-2.999300	3.406500	-10.216000	25.857352	0.000195	20.717506
1802.505548	-3.001600	3.405400	-10.221000	25.850142	0.000195	20.695089
1803.503144	-3.024000	3.405000	-10.296000	25.817467	0.000194	20.699724
1804.504180	-3.017500	3.404500	-10.271000	25.816702	0.000194	20.711759
1805.499025	-3.025900	3.405900	-10.305000	25.837910	0.000195	20.689439
1806.504011	-2.998400	3.405300	-10.208000	25.893712	0.000192	20.717048
1807.510443	-3.003000	3.403700	-10.220000	25.907001	0.000194	20.699577
1808.503644	-3.012000	3.405100	-10.255000	25.898855	0.000194	20.714628
1809.502398	-3.013400	3.403500	-10.256000	25.908042	0.000193	20.691614
1810.501365	-3.003700	3.403000	-10.221000	25.896788	0.000192	20.694058
1811.500727	-3.006800	3.403000	-10.231000	25.938948	0.000193	20.719820
1812.501950	-3.005700	3.403900	-10.230000	25.953352	0.000191	20.694459
1813.501415	-3.008100	3.403500	-10.238000	25.981197	0.000193	20.687820
1814.503138	-2.983100	3.402800	-10.150000	25.948453	0.000190	20.706134
1815.501865	-3.024900	3.401500	-10.287000	25.968007	0.000190	20.689742
1816.501894	-2.993800	3.401500	-10.183000	25.984867	0.000190	20.696250
1817.504540	-2.995700	3.401500	-10.189000	25.933594	0.000193	20.721553
1818.508926	-2.990300	3.401600	-10.171000	25.876142	0.000191	20.711252
1819.503191	-3.039900	3.399400	-10.333000	25.890742	0.000190	20.701736
1820.502085	-2.986200	3.399900	-10.152000	25.891043	0.000189	20.687338
1821.503693	-3.001600	3.399500	-10.203000	25.877900	0.000190	20.694999
1822.516394	-2.996300	3.400200	-10.188000	25.860135	0.000190	20.706551
1823.507262	-3.014900	3.398200	-10.244000	25.859793	0.000189	20.697672
1824.504037	-2.990000	3.400100	-10.166000	25.848726	0.000188	20.715479
1825.503594	-2.979600	3.398400	-10.124000	25.888056	0.000191	20.710418
1826.505165	-3.007900	3.397000	-10.217000	25.853869	0.000190	20.685556
1827.503189	-2.971900	3.399000	-10.101000	25.868428	0.000188	20.704924
1828.514690	-2.995500	3.397900	-10.178000	25.898587	0.000187	20.684959
1829.518847	-2.981300	3.398400	-10.131000	25.873392	0.000190	20.695686
1830.504860	-2.996900	3.398200	-10.182000	25.884818	0.000188	20.681084
1831.506200	-2.991400	3.397000	-10.161000	25.887471	0.000187	20.691810
1832.516097	-3.006100	3.395900	-10.207000	25.949112	0.000188	20.703003
1833.505285	-3.018300	3.395700	-10.247000	25.913413	0.000187	20.696536
1834.508842	-3.011000	3.395100	-10.221000	25.905089	0.000187	20.684853
1835.508007	-3.010900	3.395700	-10.223000	25.899978	0.000187	20.692047
1836.505419	-3.004200	3.395600	-10.200000	25.942448	0.000188	20.699152
1837.510790	-3.031600	3.393900	-10.288000	25.972010	0.000184	20.683806
1838.510983	-2.984000	3.395200	-10.130000	26.012972	0.000184	20.694615
1839.511141	-3.000300	3.393600	-10.181000	26.004160	0.000185	20.685760
1840.509018	-2.981300	3.394000	-10.118000	26.001987	0.000184	20.703494
1841.512702	-2.988600	3.395200	-10.145000	25.958796	0.000183	20.695187
1842.515677	-3.013400	3.393100	-10.224000	25.956257	0.000184	20.673668
1843.508858	-3.016600	3.392900	-10.234000	25.955744	0.000184	20.681689
1844.510048	-3.005000	3.391400	-10.190000	25.977828	0.000184	20.692971
1845.514525	-2.965100	3.392400	-10.057000	25.987137	0.000182	20.663440
1846.515572	-3.018300	3.391900	-10.237000	25.930502	0.000182	20.683831
1847.512188	-2.981000	3.391200	-10.108000	25.926409	0.000184	20.696789
1848.512654	-2.971100	3.392800	-10.080000	25.961774	0.000184	20.687273
1849.514091	-3.013500	3.390600	-10.217000	26.016674	0.000183	20.683634
1850.513831	-2.982600	3.391900	-10.116000	26.026162	0.000183	20.669932
1851.519642	-2.988900	3.390500	-10.133000	26.060343	0.000181	20.684362
1852.516021	-2.997400	3.390200	-10.161000	26.103824	0.000180	20.682531
1853.512444	-2.985400	3.390600	-10.121000	26.128582	0.000181	20.678484
1854.512079	-2.996900	3.389600	-10.156000	26.137905	0.000181	20.695915
1855.517358	-3.018300	3.387500	-10.223000	26.169912	0.000181	20.680184
1856.514275	-2.990400	3.389100	-10.134000	26.169993	0.000181	20.679792
1857.519366	-3.004300	3.390500	-10.185000	26.156203	0.000179	20.679686
1858.514474	-2.988200	3.388300	-10.124000	26.121487	0.000179	20.672303
1859.523959	-2.993000	3.389200	-10.143000	26.082979	0.000180	20.663007
1860.518269	-3.013200	3.388800	-10.210000	26.018725	0.000178	20.683798
1861.521168	-2.995100	3.388800	-10.149000	26.009831	0.000179	20.677707
1862.523795	-2.963100	3.387100	-10.035000	25.993216	0.000178	20.671444
1863.518680	-2.993800	3.386700	-10.138000	25.978878	0.000178	20.689758
1864.526569	-2.994000	3.386400	-10.138000	25.960326	0.000177	20.671117
1865.526050	-2.982400	3.386900	-10.100000	26.007691	0.000177	20.702112
1866.526720	-2.973300	3.387300	-10.071000	26.035039	0.000177	20.674584
1867.518843	-3.006000	3.385200	-10.175000	26.023859	0.000178	20.668092
1868.517210	-2.986100	3.385600	-10.109000	26.029750	0.000177	20.673537
1869.519514	-3.004200	3.384900	-10.169000	26.038684	0.000177	20.680144
1870.524431	-3.005500	3.386200	-10.176000	26.063476	0.000177	20.665223
1871.518136	-2.997300	3.385600	-10.147000	26.094899	0.000176	20.677830
1872.520963	-3.003700	3.384300	-10.165000	26.112001	0.000176	20.668935
1873.518597	-3.006400	3.384100	-10.173000	26.115060	0.000174	20.679596
1874.519356	-2.999700	3.384200	-10.151000	26.074347	0.000174	20.664765
1875.524819	-2.991900	3.383400	-10.122000	26.056544	0.000175	20.665370
1876.527014	-3.020500	3.381900	-10.213000	25.995787	0.000174	20.679244
1877.523155	-3.008900	3.382200	-10.176000	25.990571	0.000172	20.653138
1878.524377	-2.989500	3.383300	-10.113000	26.005641	0.000174	20.661167
1879.520472	-3.035000	3.382100	-10.264000	25.985526	0.000173	20.679841
1880.524073	-3.005200	3.380800	-10.159000	25.987138	0.000174	20.674347
1881.522105	-2.991600	3.382700	-10.119000	25.987935	0.000173	20.673251
1882.526047	-3.007100	3.382000	-10.169000	26.016756	0.000172	20.687036
1883.522259	-3.005900	3.380300	-10.159000	26.062695	0.000170	20.658747
1884.522763	-3.014200	3.380100	-10.187000	26.076918	0.000175	20.672091
1885.527390	-2.995800	3.381000	-10.127000	26.095867	0.000172	20.672164
1886.525357	-2.996900	3.380600	-10.130000	26.113750	0.000172	20.667847
1887.525248	-3.017900	3.378100	-10.194000	26.151688	0.000171	20.675623
1888.530101	-2.994400	3.379300	-10.118000	26.167935	0.000173	20.663024
1889.522325	-2.994500	3.378800	-10.117000	26.215910	0.000172	20.667136
1890.529829	-3.012900	3.378900	-10.178000	26.201608	0.000173	20.683586
1891.524069	-2.990100	3.379000	-10.103000	26.183125	0.000169	20.671649
1892.523354	-3.018300	3.378500	-10.197000	26.174525	0.000169	20.666327
1893.525840	-3.002700	3.379200	-10.144000	26.100448	0.000169	20.659222
1894.526094	-2.993500	3.376300	-10.106000	26.034201	0.000168	20.667578
1895.525414	-2.997000	3.376900	-10.120000	26.027188	0.000167	20.666695
1896.528528	-3.002700	3.376500	-10.138000	25.970498	0.000170	20.693193
1897.525155	-3.019200	3.375600	-10.191000	25.962385	0.000167	20.661806
1898.534733	-3.004100	3.377300	-10.145000	26.030264	0.000167	20.678321
1899.530439	-3.006800	3.374900	-10.146000	26.055943	0.000169	20.679940
1900.525778	-2.989600	3.376200	-10.093000	26.027099	0.000168	20.657595
1901.531034	-3.000800	3.375600	-10.128000	26.028986	0.000167	20.675141
1902.527736	-3.017700	3.375200	-10.183000	26.002729	0.000168	20.685271
1903.529796	-3.004000	3.374600	-10.136000	25.988798	0.000167	20.674119
1904.537480	-2.995300	3.374600	-10.106000	26.003567	0.000167	20.651022
1905.532784	-3.015600	3.372900	-10.171000	26.020728	0.000165	20.678698
1906.536899	-3.013100	3.373700	-10.164000	26.028335	0.000166	20.675910
1907.528296	-3.000200	3.374200	-10.122000	25.990182	0.000166	20.702064
1908.534283	-2.991300	3.373200	-10.089000	26.018539	0.000163	20.667963
1909.529507	-3.020600	3.371600	-10.183000	26.055024	0.000164	20.672378
1910.531335	-3.001800	3.372100	-10.121000	26.101222	0.000165	20.669009
1911.528864	-2.990900	3.371900	-10.084000	26.122896	0.000166	20.667554
1912.534127	-2.994400	3.371600	-10.095000	26.168156	0.000163	20.666565
1913.530725	-3.037400	3.370700	-10.237000	26.155481	0.000166	20.668527
1914.536379	-2.999000	3.371300	-10.109000	26.200234	0.000165	20.696906
1915.549230	-3.025700	3.370400	-10.196000	26.184883	0.000164	20.688591
1916.543111	-2.978400	3.369900	-10.036000	26.159541	0.000164	20.685885
1917.533879	-3.005800	3.369800	-10.128000	26.150372	0.000162	20.676197
1918.537125	-3.038300	3.368100	-10.232000	26.163259	0.000163	20.677292
1919.536448	-3.008900	3.368600	-10.134000	26.121855	0.000162	20.697331
1920.536579	-2.990000	3.370100	-10.076000	26.072282	0.000161	20.688297
1921.532585	-2.986600	3.369200	-10.061000	26.076098	0.000160	20.669370
1922.533818	-2.984100	3.369100	-10.053000	26.040005	0.000161	20.672935
1923.536153	-2.998600	3.368400	-10.099000	26.018198	0.000160	20.679001
1924.534035	-2.986400	3.367800	-10.057000	26.052575	0.000160	20.679876
1925.538592	-2.987900	3.368300	-10.063000	26.096813	0.000159	20.684495
1926.539458	-3.001300	3.367000	-10.105000	26.161803	0.000158	20.680097
1927.534465	-2.994400	3.367500	-10.082000	26.195444	0.000160	20.676917
1928.535267	-2.989100	3.366500	-10.062000	26.218564	0.000163	20.687823
1929.542156	-3.007500	3.367200	-10.126000	26.211064	0.000157	20.676492
1930.537303	-2.988400	3.366700	-10.060000	26.220476	0.000159	20.688322
1931.537692	-3.016200	3.366000	-10.151000	26.208477	0.000159	20.693808
1932.536844	-2.998800	3.364900	-10.090000	26.197225	0.000161	20.690562
1933.543441	-3.006200	3.365200	-10.115000	26.168247	0.000159	20.693685
1934.539607	-3.014900	3.364000	-10.142000	26.148200	0.000157	20.696776
1935.544851	-3.005900	3.364300	-10.112000	26.203905	0.000158	20.696800
1936.542228	-3.002900	3.363500	-10.099000	26.204718	0.000160	20.702360
1937.545203	-3.022300	3.364200	-10.167000	26.182045	0.000155	20.702810
1938.544577	-2.993400	3.363400	-10.067000	26.217157	0.000157	20.695419
1939.544746	-2.988600	3.365100	-10.055000	26.242962	0.000156	20.692427
1940.541245	-2.998500	3.361600	-10.080000	26.281505	0.000155	20.695599
1941.543664	-3.005100	3.364300	-10.109000	26.276080	0.000153	20.713381
1942.540783	-2.991300	3.363200	-10.059000	26.228880	0.000155	20.717158
1943.546665	-2.970200	3.362200	-9.985600	26.267717	0.000156	20.699286
1944.544598	-2.990800	3.362900	-10.057000	26.246973	0.000155	20.681757
1945.542212	-2.999500	3.361600	-10.082000	26.269132	0.000154	20.695018
1946.548338	-3.014300	3.360300	-10.128000	26.294659	0.000155	20.709767
1947.541458	-3.014700	3.361100	-10.132000	26.301232	0.000154	20.717322
1948.548966	-3.014800	3.360300	-10.130000	26.262820	0.000154	20.698158
1949.545067	-3.002200	3.359100	-10.082000	26.203270	0.000150	20.687628
1950.543985	-3.004000	3.360600	-10.094000	26.190376	0.000154	20.716398
1951.549975	-3.015500	3.358600	-10.126000	26.216995	0.000153	20.699049
1952.546930	-2.989700	3.359200	-10.043000	26.235120	0.000152	20.720584
1953.556241	-3.002200	3.358600	-10.082000	26.273713	0.000151	20.710054
1954.546247	-2.994300	3.359000	-10.057000	26.247534	0.000153	20.709351
1955.546202	-2.991700	3.358300	-10.045000	26.168361	0.000152	20.703285
1956.549254	-3.018400	3.358700	-10.136000	26.139683	0.000149	20.707658
1957.549348	-3.000800	3.357600	-10.075000	26.146704	0.000150	20.693376
1958.548575	-2.986600	3.359400	-10.032000	26.115397	0.000148	20.700800
1959.556128	-2.995300	3.358100	-10.057000	26.112403	0.000147	20.703955
1960.548663	-2.975700	3.357000	-9.988200	26.149356	0.000150	20.705999
1961.553516	-2.980800	3.356700	-10.005000	26.156898	0.000148	20.686075
1962.558266	-3.001600	3.355800	-10.071000	26.219997	0.000149	20.748063
1963.551391	-2.979800	3.356800	-10.002000	26.222902	0.000147	20.715418
1964.551052	-3.004500	3.354200	-10.076000	26.206436	0.000149	20.715941
1965.551205	-2.997000	3.356000	-10.057000	26.222625	0.000148	20.693801
1966.554797	-2.997500	3.355800	-10.059000	26.264936	0.000150	20.703604
1967.557162	-3.000400	3.353500	-10.061000	26.267197	0.000147	20.697816
1968.550801	-3.002700	3.353900	-10.069000	26.241141	0.000148	20.701029
1969.557123	-3.010200	3.354000	-10.096000	26.243525	0.000146	20.716228
1970.563268	-2.998100	3.353700	-10.053000	26.243720	0.000145	20.714527
1971.558354	-3.019400	3.352700	-10.122000	26.209365	0.000147	20.720782
1972.554780	-2.995900	3.352800	-10.044000	26.195137	0.000146	20.705534
1973.550847	-3.012400	3.351500	-10.094000	26.175400	0.000147	20.716522
1974.552224	-3.003800	3.352900	-10.071000	26.172333	0.000144	20.729562
1975.551753	-2.994200	3.352300	-10.036000	26.195544	0.000146	20.705943
1976.552984	-2.980800	3.352100	-9.990100	26.267784	0.000144	20.721166
1977.560131	-3.020900	3.350300	-10.119000	26.306522	0.000145	20.706516
1978.557150	-3.006200	3.351600	-10.075000	26.373183	0.000145	20.731787
1979.552392	-3.005600	3.350600	-10.070000	26.408696	0.000144	20.729072
1980.556117	-2.997900	3.350300	-10.043000	26.420604	0.000145	20.726816
1981.563380	-2.985600	3.351600	-10.006000	26.409599	0.000145	20.716229
1982.553321	-2.993000	3.349500	-10.024000	26.399675	0.000144	20.716212
1983.565109	-2.987100	3.349100	-10.003000	26.364089	0.000146	20.718379
1984.557878	-3.016300	3.348300	-10.099000	26.349058	0.000144	20.725558
1985.553196	-2.981700	3.351500	-9.992100	26.381041	0.000143	20.709811
1986.562155	-2.985000	3.349100	-9.996600	26.339264	0.000141	20.718560
1987.562482	-3.023200	3.348900	-10.124000	26.295118	0.000143	20.741525
1988.556487	-2.990500	3.349300	-10.015000	26.276392	0.000141	20.740723
1989.555173	-3.000500	3.348500	-10.046000	26.270747	0.000140	20.744533
1990.554147	-3.004600	3.347700	-10.058000	26.252590	0.000140	20.728183
1991.555240	-2.977100	3.347400	-9.964700	26.282786	0.000141	20.742882
1992.562487	-2.999500	3.346100	-10.036000	26.355688	0.000141	20.749292
1993.555212	-3.017600	3.346000	-10.096000	26.321450	0.000140	20.736219
1994.562348	-2.986000	3.346500	-9.991800	26.259114	0.000140	20.721463
1995.559837	-3.003000	3.347000	-10.051000	26.268250	0.000139	20.733015
1996.555040	-2.992800	3.345500	-10.011000	26.271349	0.000139	20.726172
1997.557062	-2.974300	3.346100	-9.951300	26.310916	0.000137	20.717097
1998.565720	-3.001900	3.346700	-10.046000	26.339419	0.000139	20.739580
1999.559628	-2.983700	3.345000	-9.980000	26.268469	0.000139	20.707630
2000.556182	-3.006700	3.343700	-10.053000	26.258089	0.000137	20.751728
2001.567462	-2.981000	3.345300	-9.970800	26.326795	0.000138	20.744436
2002.559446	-3.000200	3.343200	-10.029000	26.320662	0.000139	20.745859
2003.563034	-3.011700	3.343300	-10.068000	26.334767	0.000136	20.746284
2004.561852	-3.002800	3.343900	-10.040000	26.316212	0.000135	20.747077
2005.562989	-3.024700	3.342500	-10.109000	26.361008	0.000136	20.745630
2006.560963	-3.011500	3.343100	-10.067000	26.332131	0.000137	20.737471
2007.563459	-3.023100	3.342300	-10.103000	26.321077	0.000137	20.738689
2008.572454	-3.003400	3.340900	-10.033000	26.333620	0.000136	20.726164
2009.562267	-2.978300	3.342100	-9.952700	26.378017	0.000135	20.744706
2010.565428	-3.006200	3.341200	-10.044000	26.408210	0.000135	20.747077
2011.563175	-3.011300	3.341300	-10.061000	26.369224	0.000135	20.733023
2012.561762	-3.017600	3.341100	-10.081000	26.344886	0.000136	20.740807
2013.563076	-2.984700	3.340900	-9.970300	26.372599	0.000135	20.745900
2014.563283	-3.008900	3.339200	-10.046000	26.295770	0.000132	20.746922
2015.564518	-2.992100	3.340100	-9.992900	26.312528	0.000134	20.767082
2016.571338	-2.990600	3.340300	-9.987900	26.291532	0.000134	20.738395
2017.576728	-2.994500	3.340100	-10.001000	26.329293	0.000133	20.769706
2018.573039	-3.001900	3.338300	-10.021000	26.395611	0.000132	20.730146
2019.572851	-3.001900	3.338700	-10.022000	26.407503	0.000131	20.753953
2020.562984	-3.020900	3.336100	-10.077000	26.436084	0.000131	20.758498
2021.565609	-3.010300	3.337900	-10.048000	26.422599	0.000133	20.756798
2022.564033	-2.999900	3.336800	-10.009000	26.361399	0.000132	20.740807
2023.567030	-2.994600	3.338500	-9.996900	26.332490	0.000131	20.759643
2024.566082	-2.979700	3.336800	-9.942200	26.344683	0.000130	20.749138
2025.564150	-3.024700	3.335400	-10.088000	26.372128	0.000130	20.762496
2026.566438	-3.034000	3.334800	-10.116000	26.397051	0.000130	20.759095
2027.579452	-2.992300	3.337200	-9.985700	26.376642	0.000131	20.749489
2028.571011	-2.971900	3.336400	-9.913500	26.362936	0.000130	20.772699
2029.566091	-2.984100	3.336300	-9.954800	26.373007	0.000129	20.774759
2030.570602	-2.972100	3.335200	-9.911200	26.359130	0.000130	20.753225
2031.577496	-2.995500	3.333800	-9.985300	26.375170	0.000129	20.749432
2032.588266	-2.983900	3.334300	-9.947500	26.373804	0.000130	20.767025
2033.575337	-3.011400	3.334400	-10.041000	26.385826	0.000129	20.746865
2034.574354	-2.996500	3.334700	-9.991800	26.407023	0.000127	20.758213
2035.571834	-2.991800	3.333900	-9.973400	26.431750	0.000128	20.749874
2036.573835	-2.993300	3.333300	-9.977100	26.489977	0.000127	20.770467
2037.575781	-2.986900	3.333800	-9.955800	26.530918	0.000127	20.771317
2038.571804	-3.010900	3.332700	-10.034000	26.518793	0.000130	20.781888
2039.571880	-2.992000	3.332100	-9.968200	26.500249	0.000129	20.761352
2040.577273	-3.010800	3.331500	-10.029000	26.514466	0.000125	20.788919
2041.579790	-2.992400	3.330900	-9.966200	26.466301	0.000128	20.791241
2042.574335	-2.996800	3.330600	-9.980100	26.504560	0.000127	20.758573
2043.572040	-3.005200	3.330300	-10.007000	26.508505	0.000124	20.774866
2044.572609	-3.027100	3.329700	-10.078000	26.459087	0.000128	20.794896
2045.573585	-2.982300	3.331400	-9.934400	26.463194	0.000126	20.768203
2046.573699	-3.018000	3.330100	-10.050000	26.470815	0.000124	20.777760
2047.576922	-2.997200	3.330400	-9.981200	26.440413	0.000124	20.782764
2048.573432	-3.000000	3.328100	-9.983300	26.428148	0.000125	20.794144
2049.573656	-2.992200	3.329600	-9.962500	26.472760	0.000124	20.773551
2050.573804	-3.005000	3.328100	-10.000000	26.514467	0.000124	20.759522
2051.574039	-2.997800	3.328600	-9.977600	26.541769	0.000124	20.779854
2052.576645	-3.027500	3.326300	-10.069000	26.562256	0.000121	20.776739
2053.582277	-3.024000	3.327200	-10.061000	26.556441	0.000123	20.781326
2054.575414	-3.002000	3.327500	-9.988200	26.557051	0.000123	20.777198
2055.582643	-2.984900	3.328200	-9.933800	26.497193	0.000124	20.788153
2056.582449	-2.979500	3.325600	-9.907500	26.528798	0.000121	20.779618
2057.578223	-2.991500	3.327200	-9.951900	26.516208	0.000121	20.778342
2058.576396	-3.001000	3.325600	-9.978900	26.497022	0.000120	20.787981
2059.584426	-3.005700	3.325200	-9.993500	26.505928	0.000123	20.799303
2060.576326	-3.015800	3.325600	-10.028000	26.484791	0.000121	20.785643
2061.589954	-2.992500	3.325600	-9.951500	26.456112	0.000120	20.776258
2062.576148	-3.015800	3.323900	-10.024000	26.453803	0.000122	20.785316
2063.579428	-2.968100	3.325200	-9.868600	26.440146	0.000120	20.780125
2064.579423	-3.004600	3.323900	-9.986500	26.496877	0.000119	20.790205
2065.582483	-2.978100	3.324200	-9.899100	26.538477	0.000120	20.785554
2066.587654	-3.001000	3.322400	-9.969300	26.591657	0.000119	20.800604
2067.578513	-2.992100	3.324200	-9.945700	26.624967	0.000120	20.789993
2068.595163	-3.008700	3.323000	-9.997200	26.679930	0.000119	20.768435
2069.581586	-3.004200	3.322400	-9.979500	26.687225	0.000118	20.793312
2070.580696	-3.012500	3.321600	-10.005000	26.632953	0.000118	20.774788
2071.585570	-2.973500	3.323200	-9.880800	26.609597	0.000118	20.812475
2072.580206	-3.015100	3.321100	-10.013000	26.614631	0.000117	20.794776
2073.583351	-2.997800	3.321000	-9.953300	26.651396	0.000118	20.806131
2074.586271	-3.017400	3.320400	-10.018000	26.580646	0.000119	20.785743
2075.585771	-2.997600	3.321500	-9.955200	26.584810	0.000115	20.777600
2076.585274	-3.018900	3.321400	-10.026000	26.600701	0.000115	20.791204
2077.585066	-3.005500	3.318800	-9.974300	26.593048	0.000116	20.802952
2078.583549	-3.003900	3.318300	-9.966800	26.569952	0.000117	20.798227
2079.589228	-2.984300	3.319000	-9.903600	26.546392	0.000114	20.794458
2080.584136	-2.976100	3.319100	-9.876500	26.534900	0.000115	20.800924
2081.585823	-3.002700	3.319900	-9.967400	26.569969	0.000113	20.809149
2082.585603	-2.998000	3.318400	-9.947300	26.572726	0.000114	20.810498
2083.599943	-2.986900	3.318400	-9.911200	26.585754	0.000113	20.798464
2084.587793	-2.968100	3.318000	-9.846600	26.578826	0.000111	20.817578
2085.588696	-2.979200	3.317700	-9.883400	26.594367	0.000114	20.785785
2086.593379	-2.989400	3.317300	-9.915600	26.654212	0.000114	20.821763
2087.592035	-2.998600	3.316700	-9.945000	26.670460	0.000112	20.819606
2088.591858	-3.003900	3.315800	-9.959800	26.699205	0.000114	20.816262
2089.590620	-3.000600	3.315300	-9.946800	26.682901	0.000114	20.808880
2090.595904	-3.002800	3.314600	-9.952300	26.637867	0.000115	20.803436
2091.590786	-2.998900	3.315600	-9.941700	26.631435	0.000113	20.829211
2092.601958	-2.977500	3.314600	-9.868100	26.677348	0.000113	20.802823
2093.593722	-2.991300	3.314000	-9.911900	26.667517	0.000113	20.828027
2094.591842	-3.007300	3.314000	-9.965500	26.654262	0.000111	20.831297
2095.594400	-3.001500	3.313300	-9.943900	26.682089	0.000112	20.832245
2096.600375	-3.022800	3.312000	-10.011000	26.732050	0.000111	20.809928
2097.606789	-2.998300	3.313800	-9.935100	26.752598	0.000111	20.809724
2098.593819	-3.012000	3.311100	-9.972500	26.786244	0.000109	20.817948
2099.593529	-2.994800	3.312800	-9.919600	26.742962	0.000109	20.822796
2100.604367	-3.002200	3.311900	-9.941700	26.680570	0.000108	20.825028
2101.596411	-2.982000	3.312900	-9.878300	26.652303	0.000108	20.824112
2102.594637	-2.992600	3.311500	-9.908600	26.630924	0.000109	20.849086
2103.596462	-2.994800	3.311300	-9.915500	26.602673	0.000110	20.824480
2104.597459	-3.009900	3.309500	-9.960900	26.638121	0.000110	20.834037
2105.597425	-3.004100	3.311300	-9.946600	26.635340	0.000111	20.819387
2106.597419	-3.006800	3.309400	-9.950100	26.689621	0.000107	20.824170
2107.600015	-3.012800	3.309300	-9.970000	26.735938	0.000109	20.837070
2108.600000	-3.001000	3.308000	-9.926400	26.755624	0.000109	20.839792
2109.604702	-2.994600	3.309800	-9.911200	26.775968	0.000108	20.821367
2110.599370	-3.009500	3.308800	-9.956800	26.730946	0.000108	20.830154
2111.601144	-3.023700	3.307400	-10.000000	26.710934	0.000105	20.837062
2112.600266	-3.015600	3.307000	-9.971500	26.714805	0.000105	20.833367
2113.597975	-3.008400	3.308100	-9.951900	26.712422	0.000107	20.846145
2114.598176	-3.013700	3.307400	-9.966600	26.710731	0.000107	20.832591
2115.600122	-3.007100	3.305400	-9.938700	26.694891	0.000108	20.843692
2116.602768	-2.993500	3.306200	-9.896600	26.696672	0.000105	20.835526
2117.600316	-2.997300	3.307100	-9.911600	26.717700	0.000105	20.835804
2118.597463	-3.017700	3.305000	-9.971900	26.751007	0.000105	20.836573
2119.609710	-2.990600	3.306200	-9.886200	26.755975	0.000107	20.836352
2120.603700	-2.987100	3.305100	-9.872300	26.725703	0.000105	20.837685
2121.600151	-2.988900	3.305100	-9.878100	26.691851	0.000105	20.858179
2122.609407	-3.000800	3.303800	-9.913400	26.727394	0.000105	20.840808
2123.600958	-3.000300	3.304300	-9.913100	26.746185	0.000105	20.846424
2124.600032	-2.989900	3.302700	-9.874200	26.836186	0.000104	20.847772
2125.605347	-3.006000	3.303700	-9.930100	26.846561	0.000103	20.832126
2126.609904	-2.997600	3.303000	-9.900700	26.848146	0.000103	20.834668
2127.611856	-2.986200	3.303300	-9.862800	26.871846	0.000103	20.845696
2128.602933	-3.005700	3.302800	-9.925300	26.904733	0.000103	20.845574
2129.603458	-3.015400	3.301800	-9.954600	26.898229	0.000100	20.851361
2130.603851	-2.983200	3.302600	-9.851400	26.929709	0.000102	20.851248
2131.602690	-3.011800	3.300000	-9.937900	26.910579	0.000102	20.836754
2132.611903	-2.979200	3.302300	-9.836100	26.915636	0.000102	20.841839
2133.604911	-3.012200	3.301400	-9.943800	26.915668	0.000101	20.829069
2134.605217	-3.012600	3.300600	-9.942300	26.829097	0.000100	20.845860
2135.609438	-2.999200	3.299200	-9.894300	26.850618	0.000100	20.839999
2136.606939	-2.977800	3.299000	-9.823000	26.855774	9.882575E-5	20.839018
2137.605734	-2.998300	3.298200	-9.888600	26.876815	9.826471E-5	20.832201
2138.608610	-2.981200	3.299800	-9.836900	26.836261	9.951880E-5	20.839313
2139.606812	-3.012800	3.297600	-9.933900	26.797664	9.793468E-5	20.834171
2140.606054	-2.993100	3.298000	-9.869700	26.812105	9.905676E-5	20.834466
2141.608620	-2.993000	3.298500	-9.871200	26.833822	9.961780E-5	20.828801
2142.607234	-2.997700	3.297500	-9.884000	26.824984	0.000101	20.846466
2143.611867	-2.988700	3.297800	-9.855400	26.837570	9.849572E-5	20.821190
2144.613003	-3.008400	3.296500	-9.916100	26.837717	9.826471E-5	20.810432
2145.611054	-2.978100	3.296400	-9.816500	26.870970	9.747265E-5	20.810203
2146.616824	-3.002000	3.296200	-9.894500	26.883084	9.935378E-5	20.807211
2147.625257	-2.986800	3.296600	-9.845700	26.894369	9.819870E-5	20.826618
2148.612149	-3.005900	3.295600	-9.905500	26.907898	9.658158E-5	20.808928
2149.610822	-3.008100	3.296300	-9.915100	26.939214	9.674659E-5	20.816236
2150.614936	-2.996900	3.294500	-9.872800	26.929930	9.578952E-5	20.801211
2151.614162	-2.995400	3.293800	-9.865300	26.896402	9.707662E-5	20.814912
2152.610271	-3.014900	3.294200	-9.931000	26.839392	9.545950E-5	20.794099
2153.613800	-3.032200	3.292800	-9.983300	26.818244	9.430442E-5	20.818354
2154.610384	-3.017600	3.293100	-9.936200	26.837645	9.268730E-5	20.804195
2155.611692	-2.984400	3.292900	-9.826500	26.868126	9.377638E-5	20.801653
2156.611031	-3.015300	3.292800	-9.927800	26.923370	9.430442E-5	20.815951
2157.617807	-2.970100	3.293200	-9.780100	26.909370	9.351236E-5	20.817521
2158.615278	-3.004700	3.291300	-9.887600	26.866361	9.503047E-5	20.806043
2159.617235	-2.996600	3.291200	-9.860200	26.894801	9.377638E-5	20.799078
2160.614050	-3.009800	3.290900	-9.903200	26.951085	9.219226E-5	20.811104
2161.616031	-3.007400	3.290700	-9.894300	26.915444	9.377638E-5	20.812248
2162.618936	-2.998800	3.289400	-9.863400	26.932768	9.265430E-5	20.797427
2163.616254	-2.993400	3.290100	-9.847800	26.930208	9.176323E-5	20.804809
2164.618208	-3.008300	3.289900	-9.896100	26.906883	9.090517E-5	20.787993
2165.617195	-2.980000	3.290700	-9.805700	26.919013	9.265430E-5	20.796871
2166.617541	-2.989000	3.288100	-9.827200	26.953930	9.034413E-5	20.779352
2167.618999	-2.999100	3.288000	-9.860100	26.928241	9.044313E-5	20.815159
2168.621771	-3.005500	3.287700	-9.880800	26.931444	9.041013E-5	20.805104
2169.620229	-2.996000	3.289200	-9.853600	26.935810	9.021212E-5	20.808071
2170.619047	-2.997300	3.287800	-9.853000	26.899851	8.991510E-5	20.789457
2171.618531	-2.994800	3.287100	-9.843200	26.968760	9.008011E-5	20.789997
2172.623090	-3.012300	3.285800	-9.896900	27.025828	9.011311E-5	20.790962
2173.620370	-3.003100	3.286400	-9.868400	27.021788	8.767093E-5	20.795434
2174.621964	-3.006800	3.286500	-9.880600	27.041265	8.938706E-5	20.794158
2175.622024	-2.984700	3.284700	-9.802800	26.989271	8.852899E-5	20.785019
2176.621844	-3.003900	3.284700	-9.866000	26.983962	8.958507E-5	20.770197
2177.622279	-3.015000	3.284100	-9.900400	26.978873	8.671386E-5	20.815340
2178.620403	-2.982600	3.284400	-9.795400	26.990653	8.681287E-5	20.768391
2179.624704	-3.002700	3.283600	-9.859100	26.986678	8.780294E-5	20.780041
2180.622033	-3.008300	3.284100	-9.877700	26.979354	8.562478E-5	20.794487
2181.628850	-3.013400	3.283000	-9.892000	26.942121	8.578979E-5	20.813470
2182.621860	-3.006000	3.282100	-9.865000	26.923585	8.638384E-5	20.781080
2183.625496	-3.012700	3.282900	-9.889000	26.985882	8.714289E-5	20.780188
2184.626327	-3.002900	3.281300	-9.852500	27.001329	8.743991E-5	20.787661
2185.626480	-3.023400	3.281700	-9.920400	27.003215	8.450270E-5	20.792877
2186.624838	-3.001500	3.281900	-9.849200	26.976314	8.552577E-5	20.780050
2187.625251	-3.010000	3.280500	-9.872600	26.952609	8.532776E-5	20.781816
2188.627542	-3.023400	3.280500	-9.917700	26.943203	8.565778E-5	20.765245
2189.628375	-3.001800	3.280100	-9.845800	27.000102	8.578979E-5	20.770306
2190.629490	-3.032300	3.279000	-9.942000	27.020051	8.489873E-5	20.764763
2191.625243	-3.005000	3.278900	-9.852700	26.999371	8.417268E-5	20.774313
2192.625724	-3.007200	3.279400	-9.861500	26.979169	8.400766E-5	20.777706
2193.627677	-3.007800	3.279000	-9.861900	26.962341	8.126846E-5	20.783069
2194.624329	-3.014000	3.279300	-9.883000	26.984129	8.281958E-5	20.782693
2195.627064	-2.999500	3.279700	-9.836700	26.950253	8.192851E-5	20.769490
2196.631032	-2.985600	3.277800	-9.785200	26.909100	8.314960E-5	20.767463
2197.632743	-2.998000	3.278900	-9.828700	26.944904	8.166449E-5	20.795406
2198.628902	-2.991000	3.277000	-9.800500	26.938970	8.232454E-5	20.764782
2199.630031	-3.020500	3.276500	-9.895100	26.917922	8.182950E-5	20.778705
2200.632362	-3.005500	3.276600	-9.846300	26.931872	8.265456E-5	20.762861
2201.632601	-2.993900	3.276700	-9.808000	26.946133	8.202752E-5	20.765821
2202.630317	-2.989900	3.275400	-9.791300	27.034483	8.278657E-5	20.770742
2203.629928	-3.015500	3.274000	-9.872200	26.997723	8.347963E-5	20.759853
2204.630895	-3.014200	3.273900	-9.866700	26.979733	8.080643E-5	20.759305
2205.631084	-3.008800	3.274600	-9.851100	27.012413	8.344662E-5	20.776523
2206.634066	-3.019400	3.272600	-9.880800	27.026980	8.097144E-5	20.771258
2207.634067	-3.007300	3.272800	-9.840900	27.042556	7.991536E-5	20.770800
2208.631892	-3.028700	3.272100	-9.908900	27.047522	7.922231E-5	20.745448
2209.631624	-3.010000	3.272400	-9.849600	27.013974	7.945333E-5	20.766238
2210.632787	-3.013600	3.270800	-9.856400	26.963742	8.011338E-5	20.756028
2211.637437	-2.997000	3.271300	-9.803000	26.955695	7.899130E-5	20.762634
2212.644110	-3.011200	3.271500	-9.849600	26.959963	7.915631E-5	20.769297
2213.632386	-3.031200	3.271200	-9.914600	26.975002	8.004737E-5	20.751703
2214.639004	-3.029200	3.269700	-9.903900	27.058733	8.077343E-5	20.772844
2215.639818	-3.016400	3.269700	-9.861900	27.123640	8.074042E-5	20.757990
2216.633142	-3.013100	3.270700	-9.854200	27.180456	7.810023E-5	20.753494
2217.635775	-3.036500	3.268100	-9.923200	27.157340	7.968435E-5	20.746365
2218.633269	-3.005500	3.269200	-9.824500	27.171077	7.819924E-5	20.776303
2219.640134	-2.984100	3.269100	-9.754800	27.125469	7.777021E-5	20.743708
2220.635089	-2.983700	3.267600	-9.748700	27.118772	7.631810E-5	20.746455
2221.635376	-2.988400	3.267200	-9.762500	27.150033	7.694515E-5	20.752293
2222.637139	-2.979300	3.268000	-9.736200	27.177400	7.750619E-5	20.758481
2223.635943	-3.006500	3.266100	-9.818900	27.181765	7.684614E-5	20.761923
2224.639877	-3.002000	3.268300	-9.809900	27.236481	7.724217E-5	20.758162
2225.636442	-2.989300	3.266900	-9.764700	27.239773	7.546004E-5	20.744404
2226.636968	-2.984400	3.268300	-9.753200	27.245307	7.546004E-5	20.763722
2227.636568	-2.994200	3.264500	-9.773800	27.182286	7.618609E-5	20.775249
2228.636977	-2.998600	3.265500	-9.791000	27.211440	7.595507E-5	20.744354
2229.637661	-2.989400	3.264800	-9.758500	27.121593	7.328188E-5	20.759724
2230.638826	-3.012400	3.263300	-9.829700	27.071862	7.559205E-5	20.747167
2231.639968	-2.985600	3.265000	-9.747500	27.012602	7.446997E-5	20.747315
2232.641835	-2.982100	3.264400	-9.733300	27.094094	7.486600E-5	20.760992
2233.641091	-2.986500	3.263200	-9.745100	27.135980	7.555905E-5	20.748590
2234.639219	-2.983400	3.263200	-9.734000	27.079276	7.470098E-5	20.766478
2235.637580	-2.989900	3.263100	-9.755800	27.113522	7.354590E-5	20.765358
2236.645310	-2.990500	3.262300	-9.754400	27.152424	7.272084E-5	20.758965
2237.638089	-2.997900	3.263700	-9.783700	27.097607	7.153275E-5	20.770214
2238.638344	-2.992300	3.262300	-9.760700	27.127780	7.479999E-5	20.743661
2239.648308	-2.997400	3.260000	-9.770700	27.142963	7.331488E-5	20.737595
2240.638862	-2.982700	3.260400	-9.724300	27.173338	7.413994E-5	20.740170
2241.645562	-2.983200	3.260800	-9.726300	27.192585	7.390893E-5	20.734398
2242.642227	-2.987700	3.260000	-9.738100	27.221488	7.232481E-5	20.747348
2243.644666	-2.998000	3.259200	-9.770100	27.264140	7.258883E-5	20.749948
2244.643127	-2.992700	3.259200	-9.753400	27.215904	7.186278E-5	20.750267
2245.637633	-2.986000	3.260500	-9.734600	27.256095	7.262183E-5	20.723836
2246.640897	-3.001400	3.257700	-9.776600	27.309328	7.163176E-5	20.745142
2247.640016	-2.993400	3.256700	-9.747300	27.331018	6.852953E-5	20.737563
2248.650732	-2.973100	3.259000	-9.687900	27.280160	6.981663E-5	20.729077
2249.643419	-3.012600	3.255700	-9.807500	27.233045	7.090571E-5	20.749965
2250.640484	-2.992600	3.256000	-9.742800	27.215059	6.981663E-5	20.726657
2251.639908	-2.988500	3.256200	-9.730200	27.229672	6.948660E-5	20.743727
2252.640601	-2.991000	3.255800	-9.736600	27.214685	7.044367E-5	20.740980
2253.645970	-3.002200	3.254900	-9.770800	27.228949	6.796849E-5	20.724032
2254.639276	-3.006400	3.255100	-9.785400	27.312164	6.810050E-5	20.725708
2255.640445	-3.005500	3.254900	-9.782200	27.251552	6.714343E-5	20.729224
2256.649805	-2.992700	3.255200	-9.740700	27.210369	6.869454E-5	20.735216
2257.647541	-2.996400	3.253800	-9.749200	27.225991	6.760546E-5	20.722005
2258.642995	-2.998800	3.253600	-9.755500	27.187465	6.777048E-5	20.752957
2259.651700	-3.010300	3.252400	-9.789900	27.201112	6.975062E-5	20.735862
2260.645182	-3.007800	3.251200	-9.777400	27.173892	6.711043E-5	20.742150
2261.646976	-2.994300	3.253400	-9.740600	27.173997	6.918958E-5	20.740833
2262.645157	-2.992500	3.251900	-9.730400	27.223390	6.856253E-5	20.753056
2263.644158	-2.984500	3.250300	-9.699800	27.224431	6.681341E-5	20.738454
2264.643302	-2.983100	3.251600	-9.698800	27.224853	6.783648E-5	20.737931
2265.647932	-2.997000	3.250200	-9.739100	27.223520	6.684641E-5	20.726632
2266.652166	-3.003700	3.249000	-9.758600	27.259143	6.793549E-5	20.722634
2267.644783	-2.997800	3.251000	-9.744600	27.211280	6.780348E-5	20.731391
2268.655652	-3.014700	3.248900	-9.793800	27.200169	6.539430E-5	20.725905
2269.645417	-3.009000	3.247900	-9.772400	27.192399	6.529529E-5	20.724253
2270.644291	-3.001900	3.248200	-9.749400	27.232696	6.737445E-5	20.725905
2271.650971	-3.013500	3.247400	-9.785500	27.230656	6.671440E-5	20.729543
2272.644730	-3.003300	3.247600	-9.752500	27.245521	6.559232E-5	20.716519
2273.644885	-2.996300	3.246000	-9.725000	27.220935	6.621936E-5	20.729248
2274.651260	-3.000100	3.245300	-9.735800	27.210655	6.529529E-5	20.727917
2275.647986	-3.019900	3.246000	-9.800100	27.213263	6.552631E-5	20.725325
2276.652831	-3.015000	3.245300	-9.783900	27.263930	6.489927E-5	20.723182
2277.647212	-3.036700	3.246000	-9.856000	27.295324	6.562532E-5	20.702603
2278.651027	-2.991900	3.243800	-9.703500	27.222301	6.658239E-5	20.722087
2279.645769	-3.011100	3.245200	-9.770700	27.207094	6.598835E-5	20.724809
2280.654914	-2.979100	3.245600	-9.667900	27.185328	6.348016E-5	20.719986
2281.655579	-2.985100	3.243700	-9.681600	27.194358	6.539430E-5	20.728121
2282.657149	-2.990900	3.243200	-9.699700	27.254754	6.559232E-5	20.725332
2283.654043	-2.999400	3.242100	-9.723800	27.276926	6.275411E-5	20.701640
2284.649523	-2.989600	3.244000	-9.697600	27.296357	6.298513E-5	20.721187
2285.651394	-2.982100	3.242500	-9.668300	27.379339	6.222607E-5	20.722160
2286.658245	-3.008300	3.241900	-9.751500	27.398908	6.136801E-5	20.723354
2287.648141	-2.984600	3.240400	-9.670800	27.346687	6.499827E-5	20.729617
2288.653294	-2.987100	3.240400	-9.678100	27.401330	6.169803E-5	20.701608
2289.660569	-2.996700	3.240700	-9.711000	27.378194	6.070796E-5	20.728121
2290.659883	-3.017200	3.240400	-9.776200	27.405450	5.968488E-5	20.708598
2291.655288	-3.003600	3.239000	-9.727100	27.457350	6.252309E-5	20.717664
2292.653111	-3.019800	3.240200	-9.783600	27.520820	6.324914E-5	20.734105
2293.651727	-3.003900	3.237700	-9.724400	27.570651	6.252309E-5	20.697470
2294.651529	-3.006700	3.237300	-9.732700	27.572512	6.060895E-5	20.713094
2295.651389	-3.028700	3.237600	-9.804400	27.577590	6.067496E-5	20.701133
2296.658099	-3.012600	3.236200	-9.748800	27.586991	6.041094E-5	20.721025
2297.656454	-3.015600	3.235600	-9.756300	27.548226	5.938786E-5	20.700986
2298.652963	-2.990700	3.236800	-9.679300	27.498418	5.839779E-5	20.725317
2299.654544	-2.968600	3.236800	-9.608200	27.441506	5.918985E-5	20.725432
2300.658339	-3.007400	3.235300	-9.729200	27.410927	6.008091E-5	20.718376
2301.671792	-3.004300	3.233300	-9.713100	27.457360	6.087297E-5	20.690645
2302.658133	-3.012500	3.233400	-9.739200	27.434737	5.862881E-5	20.711035
2303.658654	-3.003600	3.234200	-9.712900	27.458058	5.902484E-5	20.700357
2304.661430	-3.004100	3.233100	-9.711900	27.425482	5.968488E-5	20.708362
2305.658143	-2.996100	3.233100	-9.685600	27.431479	5.951987E-5	20.717241
2306.664949	-2.973000	3.232500	-9.609300	27.379610	5.872781E-5	20.704413
2307.665710	-3.003800	3.231100	-9.704700	27.331240	5.697869E-5	20.710283
2308.669398	-3.000200	3.231800	-9.694200	27.240858	5.480053E-5	20.699499
2309.658731	-3.012400	3.230100	-9.729000	27.241476	5.585660E-5	20.696327
2310.666230	-3.029600	3.229800	-9.784200	27.289330	5.892583E-5	20.708428
2311.662453	-3.001000	3.231900	-9.697100	27.336222	5.684668E-5	20.700595
2312.664495	-3.006300	3.231000	-9.712600	27.359359	5.823278E-5	20.701585
2313.660545	-3.009100	3.229500	-9.717300	27.362585	5.707769E-5	20.702460
2314.660162	-3.009500	3.228600	-9.715500	27.439257	5.800176E-5	20.703253
2315.663558	-2.982000	3.228000	-9.625500	27.452712	5.585660E-5	20.706833
2316.663590	-3.047100	3.228800	-9.837200	27.446090	5.539457E-5	20.694480
2317.660599	-2.982900	3.226800	-9.625000	27.442507	5.483353E-5	20.698462
2318.659423	-3.014300	3.226700	-9.724800	27.435023	5.707769E-5	20.694725
2319.661434	-2.989800	3.226900	-9.647300	27.468827	5.661566E-5	20.693172
2320.660269	-2.984700	3.226000	-9.628000	27.492708	5.450350E-5	20.688275
2321.661664	-2.984600	3.226700	-9.629700	27.531182	5.608762E-5	20.713710
2322.675633	-3.008600	3.225200	-9.702700	27.540786	5.565859E-5	20.693025
2323.660977	-2.994600	3.224700	-9.656300	27.509259	5.430549E-5	20.695445
2324.671413	-2.987500	3.224800	-9.633000	27.479114	5.427249E-5	20.709213
2325.662336	-3.017800	3.223900	-9.728200	27.443718	5.407447E-5	20.684980
2326.665820	-3.009200	3.223500	-9.699300	27.449699	5.509755E-5	20.680565
2327.663651	-2.987100	3.224000	-9.629300	27.452795	5.414048E-5	20.679887
2328.660221	-3.004100	3.223900	-9.683900	27.466714	5.328241E-5	20.710015
2329.665062	-2.998100	3.221500	-9.657300	27.488313	5.489953E-5	20.678636
2330.664955	-3.004600	3.222700	-9.682400	27.524105	5.480053E-5	20.684776
2331.663372	-2.980900	3.222100	-9.603800	27.573092	5.397547E-5	20.694236
2332.670328	-2.984000	3.221200	-9.611400	27.545385	5.331542E-5	20.709508
2333.667149	-3.002500	3.219100	-9.664300	27.545954	5.361244E-5	20.697277
2334.670739	-3.003300	3.219000	-9.666200	27.539625	5.417348E-5	20.698970
2335.666552	-2.998400	3.219500	-9.652400	27.534620	5.423948E-5	20.701046
2336.675581	-2.991600	3.219100	-9.628400	27.552024	5.324941E-5	20.720456
2337.676482	-3.004800	3.219600	-9.673900	27.506287	5.381045E-5	20.675383
2338.676940	-2.999400	3.219400	-9.655700	27.503476	5.400847E-5	20.675874
2339.675311	-2.978500	3.220100	-9.589700	27.558598	5.334842E-5	20.685816
2340.671988	-2.996900	3.218600	-9.645000	27.603675	5.080723E-5	20.684230
2341.670866	-3.017500	3.216600	-9.704400	27.478327	5.110425E-5	20.677125
2342.685073	-3.003700	3.214700	-9.654900	27.422584	5.232534E-5	20.690272
2343.674644	-3.022900	3.215100	-9.717900	27.431393	5.004818E-5	20.682538
2344.669821	-3.014600	3.215500	-9.692000	27.473949	5.176430E-5	20.699749
2345.683927	-2.979100	3.215400	-9.578300	27.460501	5.202832E-5	20.693331
2346.674631	-2.985100	3.213900	-9.592800	27.538457	4.998217E-5	20.691156
2347.670568	-2.996700	3.214000	-9.630600	27.526432	5.206132E-5	20.689014
2348.671948	-2.997400	3.214100	-9.632000	27.532753	5.100525E-5	20.669294
2349.671971	-3.007700	3.213800	-9.665800	27.605870	5.051021E-5	20.685016
2350.671816	-3.007900	3.212300	-9.661000	27.597884	5.130227E-5	20.712544
2351.672377	-3.015600	3.212600	-9.687800	27.620056	4.978416E-5	20.680798
2352.673199	-3.005600	3.211400	-9.651700	27.624184	4.971815E-5	20.701075
2353.682425	-3.009600	3.212200	-9.666200	27.603970	4.836505E-5	20.693537
2354.672143	-3.005900	3.210900	-9.651200	27.644422	4.905810E-5	20.694886
2355.677368	-3.025000	3.210300	-9.709700	27.680307	4.905810E-5	20.690692
2356.673148	-2.995900	3.209900	-9.615600	27.722016	5.014718E-5	20.696153
2357.679939	-3.020200	3.208300	-9.688800	27.675165	4.892610E-5	20.677456
2358.676575	-3.026600	3.208000	-9.708100	27.684257	4.787002E-5	20.676173
2359.681483	-2.994100	3.208600	-9.606200	27.690488	5.113726E-5	20.677227
2360.672794	-2.965600	3.208000	-9.512200	27.697377	5.021319E-5	20.696015
2361.679105	-3.030600	3.208300	-9.722000	27.689660	4.687994E-5	20.697259
2362.675160	-2.988500	3.206600	-9.581800	27.668602	4.806803E-5	20.686025
2363.672312	-3.003300	3.206700	-9.628900	27.629963	4.691295E-5	20.708787
2364.684366	-2.988500	3.206400	-9.581700	27.527451	4.961915E-5	20.690988
2365.676389	-2.979800	3.205100	-9.550100	27.527029	4.740798E-5	20.699099
2366.675707	-3.015400	3.204600	-9.661500	27.488433	4.853007E-5	20.686819
2367.680064	-3.025800	3.204500	-9.695500	27.476790	4.935513E-5	20.697865
2368.677282	-3.021400	3.202600	-9.675500	27.525730	4.787002E-5	20.692101
2369.683681	-2.994900	3.203700	-9.593900	27.543484	4.760600E-5	20.669659
2370.675157	-2.995200	3.202700	-9.591900	27.546726	4.753999E-5	20.682880
2371.678099	-2.960300	3.203700	-9.483300	27.533978	4.621990E-5	20.696607
2372.676533	-2.987900	3.203000	-9.568700	27.606923	4.678094E-5	20.666160
2373.684828	-2.996500	3.200800	-9.590100	27.656939	4.684694E-5	20.683772
2374.680109	-2.992400	3.200700	-9.577400	27.640820	4.628590E-5	20.697899
2375.679554	-2.988400	3.200700	-9.564400	27.632387	4.631890E-5	20.713597
2376.682015	-2.993800	3.200100	-9.579800	27.582851	4.450377E-5	20.684614
2377.681884	-3.002100	3.200200	-9.606100	27.487314	4.582387E-5	20.695651
2378.678020	-2.970500	3.200400	-9.506200	27.523448	4.559285E-5	20.683641
2379.679403	-2.991000	3.197600	-9.563000	27.585525	4.480079E-5	20.690150
2380.681100	-3.002100	3.196500	-9.595200	27.626693	4.565886E-5	20.704073
2381.681443	-3.009300	3.195600	-9.614800	27.604789	4.612089E-5	20.696732
2382.693986	-2.989800	3.196500	-9.556000	27.603822	4.516382E-5	20.688646
2383.681657	-2.972200	3.197200	-9.501700	27.588288	4.513082E-5	20.691034
2384.680226	-2.990700	3.196800	-9.560200	27.661824	4.526283E-5	20.702439
2385.679852	-3.006300	3.194200	-9.602200	27.704524	4.437176E-5	20.697992
2386.681396	-3.012800	3.193500	-9.620800	27.758912	4.503181E-5	20.686341
2387.681724	-2.994300	3.195100	-9.566500	27.719180	4.519682E-5	20.693773
2388.690014	-3.016000	3.193300	-9.630400	27.713802	4.367871E-5	20.691206
2389.682136	-3.003600	3.192500	-9.587500	27.654033	4.268864E-5	20.685115
2390.683664	-2.975900	3.193000	-9.501500	27.663303	4.239162E-5	20.697289
2391.689411	-2.986400	3.191300	-9.529800	27.687334	4.169856E-5	20.700134
2392.687060	-2.989900	3.192100	-9.543500	27.736508	4.318367E-5	20.688926
2393.684301	-2.982300	3.192000	-9.519000	27.799595	4.209459E-5	20.680341
2394.686915	-2.972300	3.190700	-9.482000	27.849528	4.282065E-5	20.698827
2395.687925	-3.005600	3.189000	-9.583800	27.817369	4.258963E-5	20.688272
2396.684511	-2.971900	3.189000	-9.475800	27.791732	4.060948E-5	20.712734
2397.689594	-3.022500	3.188000	-9.635100	27.829042	4.189658E-5	20.689589
2398.690138	-2.995400	3.187700	-9.547400	27.799514	4.136854E-5	20.712979
2399.689970	-3.009700	3.186000	-9.587900	27.758353	4.239162E-5	20.714704
2400.693795	-3.002400	3.186900	-9.567900	27.759117	4.126953E-5	20.704092
2401.692767	-2.979800	3.185100	-9.490300	27.782033	3.975142E-5	20.702972
2402.692842	-3.005100	3.186400	-9.574900	27.827304	4.034547E-5	20.695901
2403.691087	-2.991300	3.185300	-9.527700	27.768792	4.166556E-5	20.693913
2404.701418	-3.013200	3.185000	-9.596600	27.771360	4.008145E-5	20.705982
2405.705003	-3.015600	3.183400	-9.598800	27.810036	4.054348E-5	20.716930
2406.692823	-3.010900	3.181600	-9.578600	27.881215	4.057648E-5	20.694208
2407.697357	-3.006900	3.183100	-9.570100	27.866700	4.107152E-5	20.703783
2408.694167	-3.028900	3.181300	-9.634900	27.822122	3.961941E-5	20.703962
2409.701671	-3.003100	3.180300	-9.550100	27.842031	3.833232E-5	20.712146
2410.699790	-3.013200	3.179600	-9.580300	27.833673	3.892636E-5	20.708001
2411.698597	-2.999900	3.181200	-9.542400	27.770857	3.938840E-5	20.691724
2412.696590	-2.997800	3.180200	-9.532400	27.770881	3.978442E-5	20.712613
2413.704000	-2.993300	3.178300	-9.512100	27.801255	3.965241E-5	20.721843
2414.698055	-3.003000	3.178500	-9.544200	27.795909	3.829932E-5	20.706505
2415.702073	-2.996600	3.178100	-9.522600	27.791280	3.697922E-5	20.713227
2416.703822	-2.992200	3.177300	-9.507000	27.767397	3.810130E-5	20.722858
2417.697316	-2.991100	3.176800	-9.501400	27.731865	3.912438E-5	20.730248
2418.703270	-3.005500	3.176300	-9.545300	27.701953	3.820031E-5	20.710578
2419.705203	-3.028100	3.173700	-9.608700	27.695925	3.671520E-5	20.714470
2420.703303	-3.004200	3.173400	-9.532500	27.764661	3.569212E-5	20.728165
2421.710466	-2.991200	3.173500	-9.491900	27.737853	3.681421E-5	20.732482
2422.701901	-3.013100	3.174000	-9.562800	27.777731	3.684721E-5	20.721403
2423.698389	-2.984700	3.173200	-9.470000	27.778917	3.760626E-5	20.697466
2424.699363	-2.994300	3.171100	-9.494300	27.777033	3.513108E-5	20.722123
2425.700070	-2.987600	3.172400	-9.475900	27.822036	3.569212E-5	20.716679
2426.705285	-2.998800	3.170400	-9.506500	27.794060	3.608815E-5	20.719344
2427.701931	-2.980000	3.171000	-9.448500	27.798650	3.245789E-5	20.742931
2428.703476	-2.963000	3.169600	-9.389900	27.801591	3.453704E-5	20.724079
2429.708617	-2.982900	3.168200	-9.449800	27.827462	3.579113E-5	20.727831
2430.711054	-2.984900	3.168000	-9.455400	27.855828	3.450404E-5	20.729351
2431.704059	-2.983000	3.168000	-9.448900	27.923115	3.638517E-5	20.711251
2432.704854	-2.997800	3.166900	-9.492700	27.961070	3.668220E-5	20.708676
2433.716116	-3.000700	3.165600	-9.497400	27.941927	3.589014E-5	20.714539
2434.704363	-3.010300	3.164000	-9.523600	27.968210	3.569212E-5	20.718708
2435.711538	-3.008800	3.164200	-9.518800	27.950982	3.625317E-5	20.722705
2436.713822	-2.982800	3.163800	-9.436400	27.930247	3.433902E-5	20.726966
2437.705237	-3.000800	3.163200	-9.491700	27.908602	3.377798E-5	20.726516
2438.713861	-2.997300	3.163600	-9.480800	27.793501	3.407501E-5	20.722101
2439.714580	-2.993300	3.162500	-9.465500	27.838601	3.311794E-5	20.744257
2440.709146	-2.997900	3.160200	-9.473000	27.819975	3.249089E-5	20.723140
2441.709417	-2.996600	3.159800	-9.467700	27.811194	3.308493E-5	20.718570
2442.708995	-2.988000	3.159700	-9.440200	27.824809	3.278791E-5	20.750765
2443.706345	-2.990100	3.159100	-9.445200	27.857268	3.367898E-5	20.727481
2444.714058	-3.018100	3.157900	-9.529500	27.830438	3.179784E-5	20.743628
2445.710825	-2.995700	3.155400	-9.451500	27.825946	3.107178E-5	20.724408
2446.708824	-3.003300	3.157400	-9.481300	27.805345	3.275491E-5	20.730702
2447.710216	-3.016600	3.155700	-9.518100	27.848585	3.381099E-5	20.724432
2448.707716	-3.011000	3.155200	-9.498600	27.861825	3.159982E-5	20.730172
2449.709156	-3.020800	3.153200	-9.524000	27.831478	3.173183E-5	20.734243
2450.708972	-3.033500	3.152600	-9.562900	27.788335	3.041174E-5	20.749146
2451.709374	-2.999500	3.151300	-9.451700	27.835393	3.192985E-5	20.740555
2452.708584	-3.024400	3.152200	-9.532300	27.884114	3.051074E-5	20.725103
2453.708386	-2.994100	3.150600	-9.432200	27.880945	3.285392E-5	20.723811
2454.712162	-3.000400	3.150000	-9.450200	27.923637	3.130280E-5	20.740702
2455.712339	-2.997500	3.149300	-9.439100	27.970689	2.879462E-5	20.723575
2456.711051	-3.002300	3.148000	-9.449700	28.026704	3.202886E-5	20.733965
2457.709414	-2.988600	3.148900	-9.410200	28.055161	3.242488E-5	20.732265
2458.711641	-3.026300	3.146800	-9.521600	28.031463	3.027973E-5	20.741601
2459.708678	-2.984000	3.146500	-9.387900	27.964353	3.041174E-5	20.729051
2460.718143	-2.979500	3.145800	-9.370900	27.922175	3.001571E-5	20.718840
2461.712068	-2.985400	3.146000	-9.390900	27.980826	2.932266E-5	20.716234
2462.711246	-2.997100	3.144500	-9.423400	28.019557	2.955367E-5	20.750006
2463.712574	-3.032600	3.142800	-9.529600	27.981726	3.235888E-5	20.739427
2464.713344	-3.021500	3.141000	-9.490000	27.945049	3.011471E-5	20.730484
2465.709779	-3.008800	3.140300	-9.447900	27.923305	2.892663E-5	20.751748
2466.724623	-2.987700	3.140600	-9.381400	27.935285	3.044474E-5	20.741994
2467.710920	-3.014900	3.138700	-9.461900	28.001155	2.994970E-5	20.748077
2468.710567	-3.008700	3.139500	-9.445300	28.046033	2.988370E-5	20.741569
2469.713531	-3.001700	3.137600	-9.417500	28.009236	2.889362E-5	20.747677
2470.710909	-2.998300	3.137600	-9.406300	28.030052	2.932266E-5	20.761519
2471.715431	-2.976600	3.137200	-9.337300	28.019982	2.958668E-5	20.727199
2472.720238	-2.994900	3.137000	-9.394100	28.016489	3.018072E-5	20.738382
2473.711879	-2.965300	3.135200	-9.295800	27.967028	2.737551E-5	20.754504
2474.715138	-3.011300	3.134000	-9.436700	27.962862	2.668246E-5	20.746517
2475.712947	-2.995700	3.131900	-9.380900	27.879827	2.806856E-5	20.738808
2476.716526	-2.990400	3.133100	-9.368300	27.921821	2.737551E-5	20.747883
2477.713466	-2.986000	3.132700	-9.353600	27.991216	2.932266E-5	20.761307
2478.713460	-2.974600	3.130500	-9.311300	28.089761	2.876162E-5	20.773734
2479.716623	-2.991900	3.129300	-9.361000	28.107034	2.909164E-5	20.762673
2480.717264	-3.017100	3.129100	-9.439300	28.054029	2.919065E-5	20.756256
2481.713559	-2.980800	3.128200	-9.323000	28.015232	2.833258E-5	20.762248
2482.714041	-2.998400	3.127500	-9.377200	27.979424	2.773854E-5	20.764137
2483.717658	-3.014500	3.125900	-9.422000	27.931253	2.790355E-5	20.754057
2484.714309	-2.991400	3.125800	-9.349600	27.955148	2.922365E-5	20.738279
2485.715112	-3.043300	3.123800	-9.505800	28.041254	2.615442E-5	20.762838
2486.715268	-2.989300	3.124500	-9.338800	28.079474	2.744152E-5	20.769068
2487.720078	-3.011000	3.122500	-9.401200	28.074122	2.602241E-5	20.750878
2488.719316	-2.982200	3.123000	-9.313000	28.057985	2.628643E-5	20.746013
2489.716494	-3.002200	3.121600	-9.371000	28.064921	2.658346E-5	20.763427
2490.716446	-2.998400	3.120800	-9.356400	28.047241	2.443830E-5	20.764123
2491.721086	-2.993800	3.119400	-9.338400	28.057199	2.585740E-5	20.772250
2492.717790	-3.022500	3.118100	-9.423400	28.073685	2.638544E-5	20.772250
2493.718923	-2.958900	3.118600	-9.226700	28.062810	2.523036E-5	20.764147
2494.718227	-2.979500	3.117000	-9.285700	28.083925	2.460331E-5	20.754583
2495.722235	-2.980100	3.116600	-9.287500	28.150037	2.661646E-5	20.789843
2496.731135	-2.976400	3.115900	-9.273400	28.145969	2.318421E-5	20.757298
2497.731480	-3.004400	3.112800	-9.350700	28.132010	2.618743E-5	20.765530
2498.721359	-3.002700	3.112900	-9.346300	28.145246	2.612142E-5	20.777908
2499.723382	-2.991400	3.112700	-9.310400	28.128737	2.410827E-5	20.772667
2500.720455	-2.998000	3.109400	-9.321300	28.136346	2.338222E-5	20.750455
2501.719848	-3.011100	3.109000	-9.360500	28.149307	2.268917E-5	20.774409
2502.720884	-3.009900	3.107200	-9.351200	28.166887	2.315120E-5	20.780728
2503.738513	-3.000500	3.108500	-9.326400	28.155528	2.292019E-5	20.774508
2504.728762	-2.991200	3.108200	-9.296200	28.152304	2.242515E-5	20.773633
2505.727259	-2.997200	3.106100	-9.308000	28.181480	2.189711E-5	20.785462
2506.734108	-3.014700	3.105100	-9.360500	28.237298	2.232614E-5	20.778596
2507.722865	-3.011600	3.102300	-9.341600	28.239158	2.123706E-5	20.776200
2508.723207	-2.995200	3.103300	-9.294500	28.216227	2.288718E-5	20.770184
2509.725449	-2.986200	3.101500	-9.260400	28.208619	2.265617E-5	20.777696
2510.728320	-3.012800	3.099500	-9.337100	28.193938	2.361324E-5	20.799901
2511.736739	-3.000800	3.099600	-9.300100	28.265977	2.229314E-5	20.780443
2512.738379	-3.004500	3.099000	-9.310000	28.337006	2.070902E-5	20.792216
2513.730135	-2.997800	3.097500	-9.284000	28.354754	2.146808E-5	20.788750
2514.740801	-2.973100	3.097500	-9.208900	28.392198	2.094004E-5	20.767184
2515.725800	-3.042700	3.093900	-9.413100	28.395965	2.156709E-5	20.785202
2516.726071	-3.013800	3.094900	-9.326800	28.373314	2.212813E-5	20.785153
2517.731253	-3.027300	3.092100	-9.360000	28.348374	2.136907E-5	20.802714
2518.731285	-2.999900	3.092200	-9.275200	28.309710	2.070902E-5	20.805984
2519.729743	-3.001500	3.090900	-9.276400	28.268512	2.041200E-5	20.796272
2520.728405	-2.984400	3.090800	-9.223000	28.265767	2.008198E-5	20.805836
2521.729553	-3.020200	3.089300	-9.329100	28.315507	2.113806E-5	20.790958
2522.732539	-3.001500	3.087100	-9.264000	28.349657	1.938893E-5	20.793575
2523.726821	-2.976700	3.089400	-9.195300	28.379972	2.018098E-5	20.786642
2524.741039	-3.015700	3.086900	-9.308300	28.307948	2.127006E-5	20.787615
2525.736223	-2.996800	3.085600	-9.246000	28.327695	2.245815E-5	20.781419
2526.728251	-2.986800	3.085100	-9.214000	28.274456	2.061002E-5	20.795145
2527.731425	-2.988300	3.084200	-9.215900	28.249026	2.100605E-5	20.791351
2528.731443	-3.023200	3.082400	-9.317500	28.247337	2.070902E-5	20.814781
2529.733493	-3.008700	3.081700	-9.271200	28.320007	1.839885E-5	20.787428
2530.742891	-2.989900	3.080600	-9.209600	28.326948	2.001597E-5	20.793469
2531.730325	-3.015800	3.079800	-9.286800	28.202791	1.985096E-5	20.810236
2532.736590	-2.986100	3.077800	-9.189000	28.086009	1.872888E-5	20.792243
2533.732449	-2.959000	3.077200	-9.103800	28.152746	1.757379E-5	20.798260
2534.733645	-3.009000	3.075400	-9.252600	28.231049	1.730977E-5	20.805021
2535.738890	-3.003100	3.074800	-9.233300	28.284339	1.823384E-5	20.787076
2536.739163	-2.999600	3.073800	-9.219600	28.283860	1.783781E-5	20.806035
2537.750079	-2.991300	3.071300	-9.185800	28.291964	1.810183E-5	20.786219
2538.735583	-2.994500	3.070700	-9.193700	28.312318	1.681474E-5	20.795334
2539.744139	-3.003900	3.069300	-9.219300	28.337587	1.892689E-5	20.809870
2540.735031	-2.985700	3.069400	-9.164100	28.283609	1.928992E-5	20.810524
2541.738781	-3.001400	3.067000	-9.203200	28.236808	1.985096E-5	20.826465
2542.735101	-2.997600	3.066900	-9.192400	28.248955	1.727677E-5	20.810720
2543.737784	-2.997400	3.064400	-9.184000	28.292947	1.803583E-5	20.801908
2544.732790	-2.999900	3.062900	-9.187300	28.324523	2.027999E-5	20.792449
2545.743515	-3.001200	3.061700	-9.188100	28.371094	1.767280E-5	20.811366
2546.733850	-2.997500	3.062000	-9.177700	28.321454	1.889389E-5	20.804532
2547.735739	-2.988700	3.060400	-9.145600	28.290568	1.938893E-5	20.818479
2548.734414	-3.003200	3.059700	-9.187400	28.308812	1.869588E-5	20.819778
2549.746897	-2.985300	3.057400	-9.125900	28.296310	1.839885E-5	20.813354
2550.743992	-3.022500	3.054700	-9.231600	28.290373	1.777181E-5	20.820653
2551.742091	-2.994700	3.056100	-9.151000	28.283026	1.714476E-5	20.817049
2552.736977	-2.993400	3.055100	-9.144400	28.352031	1.928992E-5	20.798810
2553.737930	-2.976200	3.054300	-9.089000	28.400135	1.773881E-5	20.818798
2554.747004	-2.999900	3.052200	-9.155100	28.400184	1.793682E-5	20.821692
2555.738267	-3.006400	3.051100	-9.172300	28.405827	1.856387E-5	20.817891
2556.737075	-2.999600	3.048500	-9.143400	28.483543	1.770580E-5	20.816494
2557.743275	-2.999300	3.049000	-9.143900	28.484687	1.932292E-5	20.830448
2558.738796	-3.030500	3.046000	-9.229400	28.378021	1.899290E-5	20.815022
2559.740138	-3.004900	3.045800	-9.150600	28.331792	1.806883E-5	20.815415
2560.759631	-3.019200	3.043500	-9.188300	28.284602	1.846486E-5	20.830015
2561.740045	-2.999300	3.043000	-9.125900	28.269274	2.103905E-5	20.832600
2562.742466	-3.005300	3.042200	-9.141500	28.329169	1.862987E-5	20.832214
2563.740026	-2.993700	3.040700	-9.102100	28.347080	2.004897E-5	20.826067
2564.742919	-2.992400	3.040600	-9.097900	28.351604	1.961994E-5	20.830148
2565.743749	-2.990400	3.039200	-9.087500	28.324477	1.711176E-5	20.840292
2566.738791	-2.994700	3.038100	-9.097600	28.306550	1.796982E-5	20.822717
2567.739951	-3.025600	3.034400	-9.180200	28.357238	1.862987E-5	20.838191
2568.742267	-2.992100	3.035800	-9.082700	28.432052	1.886089E-5	20.831971
2569.740203	-3.018400	3.032300	-9.151200	28.395153	1.770580E-5	20.842704
2570.742971	-3.022900	3.031500	-9.163200	28.319638	1.618769E-5	20.819773
2571.743518	-2.994700	3.030000	-9.073400	28.316635	1.895989E-5	20.830499
2572.745389	-2.988600	3.027900	-9.048000	28.342884	1.783781E-5	20.838911
2573.740728	-2.986300	3.027700	-9.040400	28.443841	1.740878E-5	20.843367
2574.743675	-2.972500	3.027600	-8.998500	28.499708	1.763980E-5	20.847944
2575.739664	-3.009900	3.024500	-9.102100	28.502177	1.928992E-5	20.842370
2576.742277	-3.009800	3.023900	-9.100600	28.543812	1.886089E-5	20.843996
2577.743235	-3.021600	3.022300	-9.131200	28.586826	1.645171E-5	20.851754
2578.743032	-2.990500	3.022100	-9.036800	28.673693	1.948793E-5	20.817862
2579.743995	-2.984700	3.021100	-9.016500	28.691208	1.711176E-5	20.849728
2580.748006	-2.975700	3.019800	-8.985300	28.626965	2.008198E-5	20.840024
2581.741699	-2.993800	3.017300	-9.032900	28.589221	1.668273E-5	20.855589
2582.750261	-2.988000	3.016500	-9.012700	28.504743	1.876188E-5	20.853015
2583.743172	-2.999900	3.014500	-9.041900	28.487127	1.935592E-5	20.838594
2584.741070	-3.002300	3.013500	-9.046700	28.472224	1.605568E-5	20.843026
2585.745019	-3.027400	3.010600	-9.113600	28.424796	1.763980E-5	20.831777
2586.744854	-3.023500	3.011500	-9.104800	28.408901	1.704575E-5	20.833315
2587.745167	-3.002300	3.009400	-9.034500	28.439515	1.622069E-5	20.847546
2588.746714	-3.001700	3.008500	-9.029800	28.390562	1.790382E-5	20.839503
2589.744034	-3.008300	3.007900	-9.047500	28.402212	2.004897E-5	20.833691
2590.744494	-3.004200	3.005800	-9.029400	28.363079	1.938893E-5	20.846917
2591.744805	-2.985400	3.003900	-8.967200	28.408448	1.671573E-5	20.857039
2592.745539	-2.977600	3.002100	-8.937500	28.463692	1.780481E-5	20.839177
2593.745346	-3.006700	3.002400	-9.026600	28.501635	1.727677E-5	20.837083
2594.746574	-2.980000	3.001400	-8.942800	28.481002	1.717776E-5	20.841434
2595.749105	-3.007800	2.998500	-9.017700	28.476747	1.886089E-5	20.823874
2596.745638	-3.011600	2.996300	-9.022400	28.492626	1.737578E-5	20.855037
2597.750201	-3.016000	2.995100	-9.032100	28.451687	1.483459E-5	20.826139
2598.758127	-3.020900	2.994800	-9.046200	28.466049	1.575866E-5	20.848188
2599.744943	-3.007000	2.992500	-8.998200	28.486822	1.684774E-5	20.843029
2600.747170	-3.004500	2.992200	-8.989000	28.530327	1.971895E-5	20.834684
2601.754111	-2.979500	2.990900	-8.909300	28.587563	1.787081E-5	20.839221
2602.753151	-2.991400	2.988300	-8.938700	28.567521	1.605568E-5	20.828520
2603.751234	-3.010300	2.987400	-8.991100	28.649309	1.994997E-5	20.823174
2604.756017	-3.022000	2.986600	-9.023500	28.672101	1.760680E-5	20.812465
2605.750854	-2.993400	2.984400	-8.932400	28.683043	1.747479E-5	20.823486
2606.762102	-3.025500	2.983300	-9.025000	28.700687	1.803583E-5	20.837465
2607.749638	-3.006000	2.982400	-8.963800	28.658061	1.526362E-5	20.818713
2608.752121	-2.986600	2.981300	-8.902500	28.622153	1.879488E-5	20.816212
2609.750368	-2.993400	2.978300	-8.913600	28.650546	1.671573E-5	20.827739
2610.747309	-2.990500	2.977700	-8.903600	28.646821	1.829985E-5	20.814031
2611.749811	-2.984500	2.976100	-8.881500	28.631683	1.542864E-5	20.825810
2612.752573	-2.973000	2.974600	-8.842300	28.652519	1.635270E-5	20.829726
2613.751886	-3.008600	2.972900	-8.943900	28.653210	1.787081E-5	20.832318
2614.752914	-2.985100	2.972400	-8.871600	28.590369	1.605568E-5	20.824978
2615.749094	-2.997400	2.970100	-8.901600	28.586595	1.589067E-5	20.817384
2616.768267	-2.988300	2.969000	-8.871300	28.556464	1.546164E-5	20.825445
2617.754812	-3.013500	2.965500	-8.935000	28.494015	1.463658E-5	20.820401
2618.754834	-2.990500	2.965700	-8.867700	28.522258	1.661672E-5	20.804273
2619.750391	-3.022100	2.963800	-8.955400	28.564412	1.674873E-5	20.823966
2620.750024	-2.996100	2.963800	-8.879000	28.553161	1.496660E-5	20.828282
2621.759324	-3.004100	2.961500	-8.896700	28.573496	1.707876E-5	20.823632
2622.762302	-2.987400	2.960700	-8.843300	28.559421	1.608868E-5	20.813250
2623.752975	-2.996000	2.958700	-8.863300	28.565022	1.598968E-5	20.806563
2624.767758	-2.991300	2.957000	-8.844400	28.638733	1.744178E-5	20.807307
2625.755916	-3.028100	2.955000	-8.946600	28.697059	1.668273E-5	20.823379
2626.756495	-3.010500	2.953300	-8.890300	28.768132	1.727677E-5	20.828587
2627.752120	-3.011900	2.951900	-8.888700	28.821792	1.671573E-5	20.812466
2628.762595	-3.008600	2.950000	-8.873500	28.855186	1.839885E-5	20.792527
2629.761531	-2.998300	2.949700	-8.842900	28.825826	1.724377E-5	20.804202
2630.750018	-2.998900	2.947300	-8.838200	28.772588	1.803583E-5	20.820274
2631.756407	-3.000800	2.946600	-8.841100	28.721994	1.688074E-5	20.809140
2632.751337	-3.001000	2.945100	-8.837000	28.736196	1.810183E-5	20.814911
2633.756819	-2.990700	2.943200	-8.801400	28.736806	1.859687E-5	20.796085
2634.759214	-2.962000	2.941800	-8.712900	28.709754	1.605568E-5	20.811511
2635.758246	-3.001800	2.940100	-8.824900	28.692434	1.671573E-5	20.794066
2636.759513	-3.002500	2.937600	-8.819200	28.769879	1.744178E-5	20.812329
2637.759661	-2.997100	2.937400	-8.803000	28.738511	1.592367E-5	20.807760
2638.754525	-2.975400	2.936500	-8.736600	28.747528	1.631970E-5	20.824903
2639.761103	-3.025700	2.932300	-8.870400	28.713708	1.433956E-5	20.798424
2640.757445	-3.011700	2.932800	-8.831500	28.663533	1.737578E-5	20.818535
2641.763403	-2.989000	2.931400	-8.761100	28.722628	1.589067E-5	20.813572
2642.751737	-2.998100	2.928200	-8.778000	28.824731	1.668273E-5	20.814004
2643.765728	-3.029000	2.925000	-8.859200	28.784666	1.480159E-5	20.805888
2644.756102	-2.981500	2.925400	-8.721400	28.802877	1.608868E-5	20.785351
2645.759411	-3.008400	2.924300	-8.795900	28.757811	1.559365E-5	20.793535
2646.755138	-3.023200	2.920900	-8.830200	28.726255	1.463658E-5	20.802527
2647.767889	-3.025700	2.919800	-8.833000	28.745572	1.803583E-5	20.803492
2648.761395	-2.974600	2.919200	-8.682400	28.739330	1.499960E-5	20.783455
2649.757963	-3.044900	2.916000	-8.876800	28.830509	1.671573E-5	20.791375
2650.758575	-2.993900	2.915900	-8.729000	28.852526	1.618769E-5	20.794589
2651.773152	-3.002000	2.914300	-8.748000	28.901597	1.810183E-5	20.790444
2652.762977	-2.998700	2.911200	-8.728400	28.816259	1.608868E-5	20.801677
2653.764163	-3.001300	2.910700	-8.734300	28.779300	1.628670E-5	20.805224
2654.776126	-2.977800	2.908200	-8.658800	28.709859	1.688074E-5	20.784590
2655.772565	-3.009000	2.908000	-8.748600	28.720735	1.655072E-5	20.781320
2656.768390	-2.987900	2.905000	-8.679400	28.695859	1.582466E-5	20.792773
2657.761856	-3.001900	2.904200	-8.717600	28.687263	1.770580E-5	20.785064
2658.770730	-3.001300	2.901300	-8.706200	28.731423	1.618769E-5	20.779283
2659.764465	-3.036600	2.898800	-8.800800	28.749823	1.721077E-5	20.786911
2660.772817	-3.009200	2.898700	-8.722100	28.766427	1.724377E-5	20.778507
2661.772671	-3.010600	2.896400	-8.718800	28.747274	1.651772E-5	20.783870
2662.763229	-2.985700	2.896200	-8.646200	28.804481	1.582466E-5	20.799770
2663.759623	-2.992600	2.893400	-8.657900	28.870548	1.559365E-5	20.783821
2664.765537	-3.017500	2.890500	-8.720700	28.923220	1.717776E-5	20.774770
2665.768967	-2.971300	2.889400	-8.584000	28.958169	1.671573E-5	20.781057
2666.764606	-2.999900	2.886600	-8.658500	29.004461	1.635270E-5	20.785022
2667.760650	-2.988800	2.885000	-8.621100	29.041290	1.628670E-5	20.760014
2668.763068	-2.991400	2.883400	-8.624700	28.965609	1.513161E-5	20.764844
2669.771264	-2.996800	2.882500	-8.637500	29.006626	1.714476E-5	20.787677
2670.764062	-2.986500	2.879500	-8.598400	28.952602	1.328348E-5	20.791095
2671.768969	-2.997400	2.877100	-8.622700	28.947352	1.490060E-5	20.770158
2672.769170	-2.991100	2.877100	-8.604300	28.929021	1.371251E-5	20.764493
2673.772612	-2.991700	2.874300	-8.597800	28.896724	1.707876E-5	20.786009
2674.771628	-3.008100	2.872500	-8.639900	28.885282	1.628670E-5	20.781594
2675.767063	-3.003800	2.870400	-8.621800	28.899378	1.645171E-5	20.789631
2676.763752	-2.955700	2.869300	-8.479300	28.945079	1.420755E-5	20.772610
2677.767767	-2.996300	2.866800	-8.588800	28.876583	1.513161E-5	20.770460
2678.776178	-3.012700	2.865800	-8.632100	28.816887	1.582466E-5	20.759635
2679.765144	-3.012100	2.862100	-8.620300	28.739544	1.453757E-5	20.779403
2680.772147	-3.032500	2.859600	-8.671000	28.820255	1.476859E-5	20.772037
2681.769539	-2.985600	2.858700	-8.534000	28.897575	1.549464E-5	20.781177
2682.768702	-2.988600	2.856800	-8.536600	28.900797	1.417454E-5	20.780155
2683.769176	-3.032000	2.853100	-8.649400	28.893217	1.612169E-5	20.769674
2684.783545	-2.986100	2.852100	-8.515800	28.907637	1.598968E-5	20.793210
2685.772147	-3.000300	2.851600	-8.554400	28.958491	1.598968E-5	20.774268
2686.771625	-3.006400	2.848900	-8.563600	28.996984	1.671573E-5	20.752358
2687.765500	-2.985900	2.846100	-8.497000	29.036020	1.770580E-5	20.775568
2688.791792	-3.028300	2.843100	-8.608400	29.023443	1.483459E-5	20.756257
2689.767780	-3.031000	2.841800	-8.612700	28.942611	1.691374E-5	20.752579
2690.772848	-3.002400	2.839600	-8.524200	28.905688	1.579166E-5	20.773703
2691.772963	-2.977800	2.839100	-8.453900	28.931445	1.688074E-5	20.777840
2692.769033	-3.003400	2.834900	-8.513800	28.918055	1.552764E-5	20.770514
2693.776218	-2.985700	2.834100	-8.460500	28.958076	1.648471E-5	20.761996
2694.769878	-3.005400	2.830900	-8.507000	28.967245	1.730977E-5	20.778820
2695.770852	-2.980100	2.829600	-8.430700	28.993892	1.447156E-5	20.752562
2696.771740	-2.979300	2.826900	-8.421300	29.005487	1.447156E-5	20.755235
2697.793183	-2.969500	2.825300	-8.389000	28.984448	1.572566E-5	20.789041
2698.776287	-2.991800	2.821300	-8.440300	29.016328	1.651772E-5	20.753356
2699.779664	-2.991400	2.819300	-8.432900	29.064750	1.589067E-5	20.764212
2700.780351	-3.006900	2.817600	-8.471600	29.104554	1.612169E-5	20.763542
2701.772312	-3.000200	2.815100	-8.445100	29.124293	1.635270E-5	20.762094
2702.785781	-3.011800	2.811900	-8.467800	29.185001	1.466958E-5	20.748351
2703.771533	-2.973400	2.810900	-8.356900	29.207927	1.400953E-5	20.753437
2704.776300	-3.009300	2.807400	-8.447700	29.117542	1.371251E-5	20.742489
2705.794445	-2.988100	2.804800	-8.380100	29.054924	1.288745E-5	20.751466
2706.778396	-3.013500	2.802200	-8.443500	29.032594	1.466958E-5	20.744140
2707.788719	-2.982200	2.799500	-8.347900	28.969208	1.523062E-5	20.766099
2708.780220	-2.975800	2.798200	-8.326400	28.992066	1.658372E-5	20.754041
2709.785887	-3.007800	2.793800	-8.402800	29.016862	1.493360E-5	20.737297
2710.777395	-3.016300	2.792000	-8.420500	29.063426	1.387752E-5	20.757662
2711.778331	-2.991000	2.788500	-8.339500	29.087231	1.447156E-5	20.747508
2712.778294	-2.990200	2.786800	-8.332300	29.121136	1.641871E-5	20.750378
2713.796511	-2.976300	2.783500	-8.283500	29.019320	1.476859E-5	20.763482
2714.791691	-2.999600	2.779500	-8.337000	29.100982	1.631970E-5	20.758520
2715.797188	-3.005100	2.777500	-8.345500	29.097754	1.529663E-5	20.747680
2716.787143	-2.974000	2.777300	-8.258600	29.102864	1.493360E-5	20.741924
2717.789450	-2.968300	2.773600	-8.231700	29.169804	1.559365E-5	20.759117
2718.785885	-3.020300	2.767900	-8.358700	29.245517	1.582466E-5	20.753859
2719.786560	-2.989000	2.767800	-8.271600	29.294789	1.612169E-5	20.739978
2720.786689	-2.988000	2.764300	-8.258800	29.266365	1.473558E-5	20.741678
2721.788695	-3.025500	2.758200	-8.344400	29.258049	1.493360E-5	20.731875
2722.782239	-3.002200	2.757300	-8.277000	29.246004	1.532963E-5	20.745815
2723.789745	-2.988600	2.754200	-8.230400	29.228286	1.559365E-5	20.746451
2724.793945	-3.003000	2.750000	-8.257000	29.249807	1.496660E-5	20.756760
2725.786516	-2.980000	2.746900	-8.185000	29.255202	1.437256E-5	20.738015
2726.785476	-2.998300	2.745500	-8.230600	29.192202	1.737578E-5	20.775049
2727.789078	-2.990100	2.742000	-8.198100	29.160481	1.721077E-5	20.736919
2728.787050	-2.990500	2.737000	-8.183200	29.123632	1.711176E-5	20.735349
2729.789309	-2.989700	2.733900	-8.173000	29.125863	1.490060E-5	20.730484
2730.793853	-2.988100	2.732200	-8.163300	29.122172	1.523062E-5	20.732929
2731.788376	-3.008100	2.728500	-8.205600	29.092307	1.635270E-5	20.751200
2732.797606	-2.995600	2.724600	-8.161100	29.129018	1.549464E-5	20.735560
2733.793253	-3.005000	2.720400	-8.174000	29.200118	1.582466E-5	20.720909
2734.790267	-3.006700	2.716000	-8.164500	29.159652	1.648471E-5	20.731341
2735.784174	-2.996800	2.713600	-8.131200	29.132312	1.678173E-5	20.716593
2736.792440	-3.011700	2.709900	-8.160900	29.167651	1.516462E-5	20.712848
2737.795741	-3.004600	2.705400	-8.127400	29.243081	1.800282E-5	20.742869
2738.787251	-3.012200	2.701000	-8.135000	29.292215	1.513161E-5	20.724106
2739.790489	-2.996700	2.697600	-8.083000	29.327378	1.532963E-5	20.734889
2740.787196	-2.990600	2.693400	-8.053600	29.352581	1.740878E-5	20.745117
2741.785057	-2.999500	2.690500	-8.069000	29.362370	1.470258E-5	20.728904
2742.789295	-2.970400	2.687200	-7.981100	29.439180	1.595667E-5	20.727612
2743.789181	-2.996000	2.682100	-8.034500	29.498029	1.843186E-5	20.724816
2744.786959	-2.989700	2.677200	-8.002600	29.451613	1.450457E-5	20.715961
2745.790916	-3.017700	2.672400	-8.063200	29.376912	1.770580E-5	20.734078
2746.785039	-2.968500	2.669500	-7.922600	29.324626	1.608868E-5	20.726899
2747.794290	-2.989300	2.664800	-7.964800	29.261062	1.579166E-5	20.727324
2748.797914	-3.022100	2.660300	-8.038700	29.310114	1.773881E-5	20.712747
2749.794031	-2.978100	2.655000	-7.905700	29.347905	1.727677E-5	20.715747
2750.793060	-3.014200	2.650900	-7.989500	29.479503	1.615469E-5	20.724634
2751.789176	-3.001600	2.646800	-7.943800	29.453095	1.539563E-5	20.717455
2752.786396	-2.997100	2.643300	-7.920600	29.427880	1.523062E-5	20.718592
2753.801293	-3.018800	2.634700	-7.952500	29.461684	1.631970E-5	20.720423
2754.797185	-3.044100	2.631400	-8.009600	29.539469	1.565965E-5	20.711111
2755.793012	-2.993100	2.627100	-7.862000	29.490654	1.612169E-5	20.715010
2756.793880	-3.012800	2.622100	-7.898600	29.431431	1.717776E-5	20.727862
2757.801128	-2.994300	2.617300	-7.836100	29.456865	1.909190E-5	20.731213
2758.795691	-2.997000	2.612900	-7.830100	29.520661	1.747479E-5	20.728189
2759.789457	-2.974200	2.608300	-7.756400	29.572214	1.625370E-5	20.718990
2760.792304	-3.014900	2.601800	-7.843600	29.650973	1.476859E-5	20.717781
2761.786800	-2.995300	2.596200	-7.775400	29.736210	1.631970E-5	20.702720
2762.792476	-3.003900	2.589200	-7.777200	29.760235	1.820084E-5	20.721255
2763.791532	-2.993500	2.584800	-7.736800	29.782735	1.754079E-5	20.706956
2764.792907	-2.987900	2.581000	-7.709900	29.766478	1.829985E-5	20.707634
2765.790944	-2.954600	2.573700	-7.603500	29.683787	1.701275E-5	20.720044
2766.792788	-2.996700	2.568100	-7.694400	29.602404	1.612169E-5	20.717182
2767.794724	-2.995300	2.562100	-7.673100	29.656453	1.579166E-5	20.716668
2768.811030	-3.031600	2.555000	-7.745000	29.658812	1.707876E-5	20.700079
2769.796918	-3.013400	2.550200	-7.684000	29.575092	1.724377E-5	20.701027
2770.792998	-2.972700	2.544000	-7.562100	29.563755	1.777181E-5	20.703349
2771.797291	-2.994400	2.537400	-7.597200	29.602770	1.628670E-5	20.695263
2772.799849	-3.016300	2.530600	-7.632400	29.658359	1.711176E-5	20.714796
2773.792191	-2.974400	2.527300	-7.515800	29.721233	1.556064E-5	20.692836
2774.791994	-3.018700	2.518500	-7.601700	29.713019	1.767280E-5	20.706366
2775.789199	-2.987200	2.513600	-7.508000	29.567518	1.407554E-5	20.704772
2776.795146	-3.027700	2.507000	-7.589900	29.550957	1.628670E-5	20.688077
2777.791428	-3.013600	2.500900	-7.536000	29.595285	1.767280E-5	20.701944
2778.790801	-3.015300	2.495000	-7.522300	29.653485	1.707876E-5	20.690440
