LabVIEW Measurement	
Writer_Version	2
Reader_Version	2
Separator	Tab
Decimal_Separator	.
Multi_Headings	No
X_Columns	One
Time_Pref	Absolute
Operator	admin
Description	Clolumns are: time, Current, Voltage, Power, Battery Temp, and Chamber Temp
Date	2024/06/17
Time	15:57:57.1458311080932617187
***End_of_Header***	
	
Channels	6						
Samples	1	1	1	1	1	1	
Date	2024/06/19	2024/06/19	2024/06/19	2024/06/19	2024/06/19	2024/06/19	
Time	05:00:48.8317046165466308594	05:00:48.8386993408203125	05:00:48.8436942100524902344	05:00:48.8142514228820800781	05:00:48.8142514228820800781	05:00:48.8142514228820800781	
X_Dimension	Time	Time	Time	Time	Time	Time	
X0	0.0000000000000000E+0	0.0000000000000000E+0	0.0000000000000000E+0	0.0000000000000000E+0	0.0000000000000000E+0	0.0000000000000000E+0	
Delta_X	1.000000	1.000000	1.000000	1.000000	1.000000	1.000000	
***End_of_Header***							
X_Value	Untitled	Untitled 1	Untitled 2	Untitled 3	Untitled 4	Untitled 5	Comment
0.000000	9.060000E-5	3.928400	0.000333	20.854698	0.000117	20.886464
1.002284	-2.990600	3.836800	-11.473000	20.856620	0.000115	20.877008
2.001852	-2.996800	3.831400	-11.481000	20.849773	0.000115	20.891022
2.997946	-3.003100	3.825700	-11.489000	20.862231	0.000116	20.903954
3.999127	-2.985900	3.823700	-11.416000	20.861865	0.000116	20.884622
4.999187	-2.990100	3.820400	-11.422000	20.855253	0.000114	20.898398
5.998902	-3.004800	3.816800	-11.468000	20.865079	0.000115	20.901112
7.002036	-3.000800	3.813200	-11.441000	20.862391	0.000113	20.917863
8.002742	-3.011300	3.811200	-11.476000	20.860311	0.000114	20.906301
9.000480	-2.997200	3.808400	-11.414000	20.889075	0.000113	20.888127
10.000335	-2.981700	3.807000	-11.350000	20.870326	0.000115	20.903514
11.002512	-3.014200	3.803900	-11.464000	20.864159	0.000113	20.897822
12.001715	-2.975200	3.803300	-11.315000	20.871507	0.000112	20.887627
13.001023	-3.007000	3.800100	-11.426000	20.882359	0.000112	20.891842
14.004659	-2.994100	3.799200	-11.374000	20.905538	0.000112	20.873299
15.000387	-2.999300	3.797500	-11.389000	20.888497	0.000111	20.908409
16.001078	-3.011900	3.794900	-11.429000	20.873380	0.000111	20.888552
17.005411	-3.009600	3.793500	-11.416000	20.879515	0.000111	20.887575
18.000717	-3.008400	3.791500	-11.406000	20.886653	0.000112	20.904195
19.003899	-2.977900	3.790400	-11.286000	20.920050	0.000111	20.888759
20.003657	-3.012800	3.788700	-11.413000	20.923816	0.000111	20.895844
21.003675	-3.005200	3.786500	-11.378000	20.911647	0.000110	20.894579
22.001959	-3.007200	3.786100	-11.385000	20.903375	0.000111	20.892470
23.004494	-2.986300	3.784800	-11.301000	20.926658	0.000109	20.892523
24.003671	-2.985900	3.784900	-11.301000	20.928002	0.000110	20.914727
25.005007	-3.004800	3.782400	-11.364000	20.912042	0.000113	20.894974
26.008323	-3.015500	3.781000	-11.401000	20.925791	0.000109	20.885966
27.007323	-3.010500	3.781300	-11.383000	20.928688	0.000110	20.882700
28.008200	-2.971000	3.780700	-11.232000	20.920521	0.000107	20.903453
29.008323	-3.011700	3.778900	-11.380000	20.939640	0.000110	20.886540
30.006032	-2.993900	3.777900	-11.309000	20.930765	0.000110	20.888570
31.007159	-2.993300	3.775500	-11.301000	20.925710	0.000111	20.890626
32.012747	-2.982000	3.776400	-11.260000	20.951812	0.000108	20.877377
33.008063	-2.988800	3.773600	-11.277000	20.943197	0.000110	20.882985
34.010658	-2.986300	3.773600	-11.269000	20.937615	0.000108	20.891627
35.012983	-2.981500	3.772900	-11.247000	20.950680	0.000109	20.894262
36.008102	-2.983000	3.771700	-11.250000	20.955921	0.000108	20.892392
37.012195	-2.985500	3.773000	-11.264000	20.940884	0.000105	20.885888
38.011502	-2.996600	3.770100	-11.296000	20.967878	0.000107	20.883962
39.010254	-2.985500	3.769600	-11.253000	20.969539	0.000109	20.889890
40.011944	-3.002400	3.768100	-11.312000	20.974809	0.000107	20.894212
41.016810	-3.002300	3.768000	-11.312000	20.971461	0.000108	20.903666
42.012345	-2.999700	3.768700	-11.304000	20.969987	0.000106	20.874692
43.016482	-3.009600	3.766300	-11.334000	20.976045	0.000109	20.894026
44.018907	-3.006400	3.765600	-11.320000	20.982522	0.000110	20.881539
45.012811	-2.993000	3.765800	-11.270000	20.992111	0.000107	20.888284
46.014804	-3.003900	3.765200	-11.309000	20.985131	0.000106	20.916388
47.017616	-2.986800	3.765000	-11.244000	20.988711	0.000109	20.900530
48.014325	-3.004400	3.762900	-11.304000	20.998091	0.000109	20.898057
49.015467	-3.006400	3.761800	-11.308000	21.008465	0.000105	20.893735
50.016926	-2.988700	3.762500	-11.244000	21.010388	0.000105	20.903718
51.012080	-2.984900	3.761000	-11.225000	20.993691	0.000104	20.909777
52.016081	-3.016800	3.761400	-11.347000	20.994770	0.000107	20.884780
53.018688	-3.016800	3.760800	-11.344000	21.005830	0.000106	20.883514
54.015024	-2.993400	3.760500	-11.256000	21.026744	0.000106	20.898267
55.016206	-2.989100	3.758200	-11.233000	21.026506	0.000107	20.889969
56.016657	-2.992400	3.759100	-11.248000	21.022632	0.000107	20.897947
57.014732	-2.978200	3.758300	-11.192000	21.020919	0.000107	20.891019
58.016954	-3.002800	3.757000	-11.280000	21.025636	0.000106	20.908064
59.017872	-3.001200	3.758600	-11.278000	21.019840	0.000108	20.890414
60.015105	-2.995200	3.756900	-11.252000	21.047097	0.000106	20.883538
61.017038	-3.010900	3.756300	-11.309000	21.030424	0.000107	20.892465
62.018595	-2.981400	3.757200	-11.201000	21.029953	0.000106	20.893890
63.014484	-2.984600	3.756600	-11.211000	21.057052	0.000105	20.895391
64.018014	-2.996700	3.756100	-11.256000	21.021551	0.000106	20.905874
65.019178	-3.003000	3.755600	-11.277000	21.049598	0.000104	20.897892
66.016620	-2.980400	3.755300	-11.191000	21.058893	0.000108	20.913352
67.019844	-3.008100	3.753400	-11.289000	21.060158	0.000105	20.911298
68.018831	-2.989500	3.754600	-11.223000	21.059367	0.000105	20.907189
69.020480	-2.999100	3.753000	-11.255000	21.056256	0.000105	20.899336
70.019198	-3.007100	3.752600	-11.284000	21.070454	0.000106	20.901683
71.019591	-2.998700	3.752900	-11.253000	21.068689	0.000105	20.911296
72.021310	-3.016200	3.751900	-11.316000	21.060444	0.000105	20.897835
73.021728	-2.983000	3.752200	-11.192000	21.086019	0.000105	20.885958
74.023017	-2.977600	3.751500	-11.169000	21.086859	0.000105	20.901023
75.022732	-3.006000	3.749100	-11.269000	21.078827	0.000105	20.922384
76.022346	-2.990200	3.749900	-11.212000	21.101447	0.000105	20.914190
77.022836	-3.010100	3.749700	-11.286000	21.069136	0.000105	20.917433
78.022696	-3.016000	3.750100	-11.310000	21.079432	0.000105	20.921092
79.024122	-2.982500	3.749900	-11.183000	21.077748	0.000107	20.920356
80.023771	-3.010500	3.749000	-11.286000	21.093414	0.000107	20.931284
81.024812	-3.018700	3.747100	-11.311000	21.099208	0.000105	20.912899
82.023936	-3.002400	3.748100	-11.251000	21.102133	0.000105	20.906817
83.023088	-3.018200	3.748100	-11.312000	21.110796	0.000104	20.873759
84.025369	-2.993500	3.748100	-11.219000	21.109112	0.000105	20.917116
85.025356	-2.983000	3.747700	-11.179000	21.119855	0.000105	20.915534
86.027614	-2.998500	3.747400	-11.235000	21.123805	0.000104	20.894830
87.026831	-3.010100	3.747100	-11.279000	21.119172	0.000105	20.927651
88.028212	-3.011800	3.745100	-11.279000	21.106399	0.000106	20.912032
89.026803	-2.986700	3.744900	-11.183000	21.105477	0.000106	20.912058
90.027014	-3.004200	3.745100	-11.251000	21.110665	0.000104	20.905868
91.025910	-2.976600	3.744800	-11.146000	21.135556	0.000106	20.922703
92.027308	-3.002700	3.744800	-11.244000	21.105032	0.000106	20.925836
93.028646	-2.991800	3.744400	-11.201000	21.135317	0.000105	20.922939
94.028929	-3.021600	3.743500	-11.310000	21.156121	0.000105	20.942324
95.027694	-2.981500	3.744000	-11.162000	21.136954	0.000104	20.928843
96.028651	-3.007600	3.744200	-11.260000	21.140982	0.000107	20.933345
97.028861	-3.005400	3.743500	-11.250000	21.151119	0.000104	20.905557
98.029142	-3.004100	3.743000	-11.244000	21.145777	0.000106	20.917755
99.029847	-3.000500	3.742100	-11.228000	21.168634	0.000106	20.922601
100.029925	-2.997200	3.742900	-11.218000	21.163684	0.000107	20.930451
101.027023	-3.000900	3.741000	-11.226000	21.154181	0.000104	20.916205
102.030920	-3.001900	3.741300	-11.229000	21.145518	0.000106	20.936934
103.029221	-3.027800	3.741200	-11.326000	21.172615	0.000106	20.940805
104.033129	-2.998200	3.741600	-11.216000	21.176747	0.000105	20.943516
105.030238	-3.007700	3.741500	-11.252000	21.166479	0.000105	20.914282
106.031024	-3.018800	3.739500	-11.288000	21.162713	0.000106	20.937065
107.033163	-2.992800	3.740700	-11.194000	21.192365	0.000107	20.937804
108.032680	-2.994000	3.738900	-11.194000	21.188312	0.000105	20.948446
109.032124	-3.010900	3.740000	-11.260000	21.180966	0.000105	20.931143
110.033258	-2.981700	3.739100	-11.148000	21.198422	0.000105	20.929165
111.034586	-3.020700	3.738100	-11.291000	21.194078	0.000105	20.948999
112.034135	-2.999700	3.738600	-11.213000	21.185310	0.000104	20.927903
113.036463	-3.016500	3.737900	-11.275000	21.219383	0.000106	20.926425
114.035854	-3.009900	3.738900	-11.253000	21.213616	0.000103	20.940570
115.035330	-2.991400	3.738400	-11.182000	21.204639	0.000107	20.919738
116.034822	-3.005500	3.737200	-11.231000	21.231735	0.000105	20.948263
117.034602	-3.019700	3.736500	-11.283000	21.223683	0.000104	20.960594
118.035630	-3.020800	3.735700	-11.284000	21.222968	0.000106	20.943760
119.037097	-2.982000	3.736800	-11.143000	21.221281	0.000106	20.923109
120.037145	-2.979800	3.736000	-11.132000	21.227576	0.000107	20.939836
121.036757	-2.997500	3.736200	-11.198000	21.248693	0.000106	20.939150
122.037805	-2.983200	3.735200	-11.142000	21.251589	0.000107	20.926876
123.039511	-3.001400	3.735300	-11.210000	21.242851	0.000106	20.937573
124.040003	-3.014800	3.735800	-11.262000	21.254064	0.000107	20.942152
125.039939	-2.989500	3.735400	-11.165000	21.259568	0.000105	20.924427
126.038714	-2.977900	3.734700	-11.120000	21.247774	0.000107	20.935860
127.042760	-2.992700	3.733900	-11.174000	21.263939	0.000106	20.940177
128.041263	-2.989200	3.734300	-11.162000	21.273711	0.000107	20.921032
129.042629	-3.002600	3.734100	-11.210000	21.288482	0.000107	20.926800
130.043154	-3.022600	3.732900	-11.282000	21.262098	0.000106	20.932172
131.046351	-2.995400	3.732500	-11.180000	21.274342	0.000108	20.928301
132.043763	-3.010600	3.731900	-11.235000	21.258675	0.000108	20.933490
133.044131	-3.012600	3.731000	-11.239000	21.268285	0.000106	20.934569
134.046827	-2.997600	3.732200	-11.187000	21.282847	0.000107	20.940601
135.044956	-2.969600	3.731600	-11.081000	21.287720	0.000107	20.928408
136.048230	-2.998500	3.731500	-11.188000	21.290931	0.000106	20.944894
137.049400	-3.005900	3.731400	-11.215000	21.295379	0.000106	20.939862
138.048052	-3.017000	3.730900	-11.255000	21.314390	0.000108	20.942759
139.047245	-2.989500	3.732000	-11.156000	21.295063	0.000105	20.951398
140.050690	-3.011800	3.730800	-11.236000	21.313785	0.000105	20.950688
141.048230	-3.002700	3.730400	-11.201000	21.273918	0.000107	20.943048
142.047923	-3.011600	3.729300	-11.230000	21.314204	0.000107	20.958218
143.052130	-3.018800	3.730200	-11.260000	21.313203	0.000108	20.952003
144.046801	-3.017000	3.728800	-11.249000	21.293978	0.000108	20.944624
145.049244	-3.003900	3.729200	-11.201000	21.308700	0.000108	20.952239
146.051727	-2.987800	3.730200	-11.144000	21.317652	0.000105	20.960246
147.049010	-2.998900	3.728500	-11.181000	21.338820	0.000108	20.970042
148.049083	-3.020200	3.727700	-11.258000	21.337081	0.000107	20.942702
149.048007	-3.008600	3.727500	-11.213000	21.331603	0.000106	20.970882
150.050697	-3.032500	3.726900	-11.301000	21.346821	0.000106	20.973305
151.050095	-3.005800	3.726300	-11.200000	21.340744	0.000107	20.942099
152.048808	-2.996700	3.727200	-11.168000	21.351956	0.000106	20.966590
153.052815	-2.992800	3.727700	-11.156000	21.346295	0.000107	20.961401
154.049640	-2.989700	3.726000	-11.139000	21.348929	0.000107	20.974940
155.050416	-2.999900	3.726600	-11.179000	21.383523	0.000103	20.958344
156.053600	-2.996100	3.726800	-11.166000	21.359751	0.000106	20.963483
157.051978	-2.999700	3.726700	-11.179000	21.351718	0.000108	20.958766
158.052215	-2.999300	3.726200	-11.175000	21.381232	0.000107	20.975964
159.055349	-3.006600	3.725700	-11.201000	21.369570	0.000106	20.969987
160.052589	-3.016500	3.725100	-11.236000	21.365517	0.000109	20.950761
161.052583	-3.017200	3.725600	-11.240000	21.407538	0.000104	20.954871
162.055139	-3.029800	3.724900	-11.285000	21.394978	0.000108	20.958899
163.053499	-2.994700	3.724500	-11.153000	21.408116	0.000107	20.985317
164.052184	-3.017800	3.724900	-11.240000	21.396664	0.000105	20.971016
165.057616	-3.000600	3.723600	-11.172000	21.413698	0.000106	20.975731
166.052886	-2.992500	3.724300	-11.144000	21.417251	0.000108	20.958899
167.053092	-2.995500	3.724300	-11.155000	21.412303	0.000106	20.975757
168.058622	-2.992800	3.723100	-11.142000	21.416597	0.000108	20.975312
169.056278	-3.015700	3.722100	-11.224000	21.419519	0.000107	20.978235
170.055484	-2.991800	3.722600	-11.136000	21.440504	0.000107	20.992117
171.058448	-3.001500	3.721700	-11.170000	21.416123	0.000105	20.967252
172.057655	-2.989100	3.722700	-11.126000	21.420464	0.000107	20.990084
173.057209	-2.989800	3.720500	-11.123000	21.445373	0.000108	20.980396
174.063159	-3.009400	3.720300	-11.195000	21.430285	0.000104	20.982842
175.056072	-2.997800	3.720600	-11.153000	21.446795	0.000105	20.981818
176.057463	-3.008000	3.721700	-11.193000	21.442292	0.000107	20.992957
177.059986	-2.989900	3.721900	-11.127000	21.440292	0.000106	20.993801
178.057568	-3.012100	3.718700	-11.200000	21.465617	0.000107	20.997803
179.056852	-3.015300	3.720000	-11.216000	21.456590	0.000106	20.984031
180.061874	-3.019100	3.717400	-11.223000	21.480307	0.000107	20.984529
181.060264	-3.012000	3.719400	-11.202000	21.465853	0.000106	21.012735
182.056954	-3.004600	3.719400	-11.174000	21.464907	0.000105	20.996619
183.059634	-3.023100	3.718200	-11.239000	21.459087	0.000105	20.995063
184.057712	-2.997100	3.719600	-11.147000	21.477542	0.000105	20.994089
185.057813	-2.987800	3.718800	-11.110000	21.476938	0.000105	21.009602
186.061399	-2.990300	3.717300	-11.115000	21.481417	0.000106	21.000336
187.056436	-2.992400	3.717700	-11.123000	21.481022	0.000106	21.000888
188.059883	-2.979800	3.717300	-11.076000	21.504715	0.000104	20.990459
189.061471	-3.001700	3.716200	-11.154000	21.491578	0.000105	20.992486
190.061244	-2.998100	3.715900	-11.140000	21.509349	0.000106	20.983717
191.058376	-2.982900	3.716700	-11.086000	21.519565	0.000105	20.991567
192.060676	-2.996000	3.715100	-11.130000	21.494529	0.000103	21.002075
193.059519	-3.014600	3.714900	-11.198000	21.512852	0.000107	21.005236
194.059042	-3.006100	3.714800	-11.166000	21.524172	0.000105	21.007554
195.061068	-2.998400	3.715500	-11.139000	21.505427	0.000105	21.009186
196.059607	-2.984400	3.716500	-11.091000	21.528832	0.000107	21.022646
197.059546	-3.006000	3.714300	-11.164000	21.536414	0.000107	21.019801
198.065552	-3.027400	3.713900	-11.242000	21.521437	0.000105	21.004817
199.063005	-3.023700	3.712400	-11.224000	21.547760	0.000106	20.998916
200.064142	-3.002200	3.713100	-11.146000	21.547472	0.000105	21.013324
201.066237	-2.983700	3.713700	-11.079000	21.547315	0.000108	21.010323
202.064631	-2.977000	3.713600	-11.054000	21.541891	0.000106	21.009162
203.064759	-2.990900	3.711800	-11.100000	21.561266	0.000106	21.004843
204.068016	-2.989000	3.713400	-11.098000	21.550632	0.000103	21.013167
205.067788	-2.998900	3.712600	-11.132000	21.563083	0.000105	21.030364
206.063888	-3.004800	3.712800	-11.155000	21.569429	0.000106	21.015854
207.068916	-3.010600	3.712000	-11.174000	21.573403	0.000104	21.016512
208.066368	-3.009600	3.711700	-11.169000	21.564874	0.000104	21.012719
209.064784	-2.991100	3.711300	-11.100000	21.582618	0.000104	21.004872
210.071150	-2.999900	3.710800	-11.131000	21.569929	0.000104	21.032947
211.066807	-2.981000	3.711900	-11.064000	21.593542	0.000105	21.012483
212.066598	-2.979500	3.710800	-11.056000	21.574115	0.000106	21.035712
213.070294	-2.979400	3.709700	-11.052000	21.590649	0.000105	21.039929
214.065576	-3.023600	3.709600	-11.216000	21.610602	0.000103	21.024338
215.069587	-2.998400	3.709400	-11.122000	21.612128	0.000105	21.014487
216.069438	-3.011800	3.709200	-11.170000	21.609105	0.000104	21.035639
217.067604	-3.008000	3.708800	-11.154000	21.622476	0.000104	21.033374
218.067145	-2.990600	3.708500	-11.090000	21.612890	0.000105	21.019516
219.071255	-2.990600	3.709600	-11.093000	21.622793	0.000104	21.021839
220.066722	-3.012100	3.708900	-11.170000	21.624924	0.000106	21.032030
221.068081	-3.011200	3.707400	-11.162000	21.627345	0.000105	21.023549
222.072131	-2.993500	3.707500	-11.097000	21.643638	0.000101	21.024681
223.070099	-2.985200	3.708500	-11.070000	21.631110	0.000101	21.033478
224.069080	-2.991100	3.706200	-11.085000	21.647274	0.000104	21.036378
225.075265	-3.019500	3.706600	-11.191000	21.630607	0.000104	21.043405
226.068595	-2.987200	3.706400	-11.071000	21.659878	0.000105	21.036663
227.070946	-3.011100	3.706100	-11.158000	21.655826	0.000104	21.035927
228.075356	-2.996100	3.705700	-11.102000	21.648850	0.000102	21.037006
229.072506	-3.016200	3.706700	-11.179000	21.668145	0.000104	21.041142
230.073443	-3.004700	3.706300	-11.136000	21.662718	0.000103	21.024335
231.074509	-3.000900	3.706200	-11.121000	21.693306	0.000103	21.046880
232.074407	-2.998800	3.704100	-11.107000	21.687646	0.000105	21.032685
233.073683	-3.031500	3.704000	-11.228000	21.685934	0.000101	21.047090
234.075091	-3.000400	3.704800	-11.115000	21.695015	0.000104	21.043376
235.075036	-3.010900	3.703300	-11.150000	21.698279	0.000102	21.036213
236.073061	-2.995900	3.703900	-11.096000	21.698012	0.000103	21.033575
237.075108	-2.991800	3.705100	-11.084000	21.730519	0.000102	21.034340
238.074403	-2.994900	3.704400	-11.094000	21.705674	0.000102	21.054515
239.074856	-2.990700	3.702200	-11.071000	21.728360	0.000101	21.045453
240.078835	-3.009400	3.702800	-11.142000	21.708461	0.000102	21.052089
241.076838	-3.005200	3.701400	-11.123000	21.745285	0.000100	21.051958
242.078898	-3.018500	3.701200	-11.171000	21.729386	0.000102	21.047427
243.080153	-3.024400	3.701600	-11.195000	21.738387	0.000103	21.055012
244.078668	-3.013800	3.701500	-11.154000	21.732150	0.000105	21.056356
245.079199	-3.001600	3.700700	-11.107000	21.752603	0.000101	21.046956
246.079343	-2.997200	3.701500	-11.093000	21.742468	0.000101	21.015482
247.081428	-3.012100	3.701000	-11.147000	21.760997	0.000101	21.066258
248.079877	-2.980500	3.701300	-11.031000	21.747996	0.000103	21.060834
249.082822	-2.995100	3.701000	-11.084000	21.758157	0.000101	21.072898
250.081728	-3.003700	3.701300	-11.117000	21.755550	0.000102	21.063178
251.083103	-3.008700	3.700100	-11.132000	21.766973	0.000101	21.068445
252.083282	-2.999300	3.699700	-11.095000	21.765185	0.000101	21.060968
253.084508	-3.009200	3.699700	-11.133000	21.780293	0.000102	21.050013
254.084251	-3.021500	3.698300	-11.174000	21.769289	9.945279E-5	21.071237
255.082849	-3.013100	3.698800	-11.144000	21.786266	0.000101	21.061678
256.084706	-3.001600	3.698100	-11.099000	21.794822	0.000103	21.074980
257.083946	-2.995000	3.699500	-11.080000	21.801454	9.965081E-5	21.072136
258.085405	-3.006300	3.698000	-11.116000	21.808032	0.000101	21.084880
259.085462	-2.974700	3.699000	-11.002000	21.814745	0.000102	21.060785
260.083629	-3.023400	3.697700	-11.178000	21.816954	0.000100	21.050670
261.085230	-3.003500	3.697500	-11.105000	21.818928	0.000101	21.070184
262.085196	-3.004900	3.696400	-11.106000	21.815164	0.000102	21.086328
263.086851	-2.996600	3.696000	-11.074000	21.835273	0.000101	21.071845
264.086111	-2.967900	3.696400	-10.969000	21.824246	0.000100	21.064603
265.087468	-2.988700	3.695600	-11.044000	21.856643	9.988182E-5	21.085644
266.086731	-2.971800	3.696100	-10.983000	21.835720	0.000102	21.093150
267.088342	-3.000300	3.696100	-11.089000	21.847380	0.000101	21.088701
268.087271	-2.979900	3.694800	-11.009000	21.856928	9.918877E-5	21.066494
269.088480	-2.998900	3.695700	-11.082000	21.865853	0.000101	21.062626
270.088593	-2.992900	3.696000	-11.061000	21.857218	9.918877E-5	21.076266
271.091481	-3.010700	3.694600	-11.123000	21.859796	9.961780E-5	21.090696
272.091239	-2.990300	3.695100	-11.048000	21.859296	9.790168E-5	21.061280
273.089832	-2.999000	3.693600	-11.076000	21.874795	0.000100	21.071101
274.092501	-3.005200	3.693300	-11.098000	21.866978	0.000101	21.080817
275.091739	-3.006900	3.693800	-11.106000	21.873296	9.786868E-5	21.077185
276.093236	-2.995400	3.694600	-11.066000	21.887557	9.747265E-5	21.076286
277.093474	-2.996600	3.692300	-11.063000	21.878713	0.000101	21.067911
278.094450	-2.980900	3.694500	-11.012000	21.886897	9.800069E-5	21.061405
279.093266	-3.009200	3.692200	-11.110000	21.895767	9.582253E-5	21.066015
280.095593	-2.998800	3.692700	-11.073000	21.902951	9.829771E-5	21.074626
281.093829	-2.988100	3.692400	-11.032000	21.904819	9.879274E-5	21.061801
282.093371	-2.977300	3.691100	-10.989000	21.913765	9.912277E-5	21.059849
283.095334	-3.000100	3.690300	-11.070000	21.915131	9.743965E-5	21.046047
284.093504	-3.016300	3.690700	-11.131000	21.927711	9.648258E-5	21.067170
285.095441	-2.998000	3.691500	-11.066000	21.918606	9.714262E-5	21.068961
286.094589	-2.990200	3.691500	-11.037000	21.938132	9.740664E-5	21.077599
287.094239	-2.986900	3.691100	-11.024000	21.912684	9.674659E-5	21.041228
288.095334	-2.992300	3.691300	-11.044000	21.937525	9.720863E-5	21.055659
289.094879	-3.012600	3.689500	-11.115000	21.950840	9.823170E-5	21.043386
290.095531	-3.005300	3.689300	-11.087000	21.948260	9.701061E-5	21.043648
291.094995	-3.001000	3.688100	-11.067000	21.932102	9.770366E-5	21.058291
292.095952	-2.998400	3.690400	-11.064000	21.944546	9.575652E-5	21.040880
293.096689	-3.002000	3.688100	-11.071000	21.960706	9.770366E-5	21.055630
294.097988	-2.982200	3.688500	-10.999000	21.978598	9.545950E-5	21.049360
295.095440	-2.992600	3.689300	-11.039000	21.982783	9.595454E-5	21.057340
296.098007	-2.989300	3.689600	-11.028000	21.992623	9.668059E-5	21.036375
297.099787	-3.004600	3.686800	-11.076000	21.988438	9.747265E-5	21.054941
298.097852	-2.997000	3.688100	-11.051000	22.004438	9.569052E-5	21.046304
299.102992	-2.977400	3.687000	-10.976000	22.001988	9.750565E-5	21.060444
300.100708	-2.997300	3.685900	-11.046000	21.993669	9.618555E-5	21.040267
301.098665	-2.993300	3.688100	-11.039000	22.021853	9.750565E-5	21.058045
302.102115	-3.006900	3.686700	-11.084000	22.028220	9.578952E-5	21.044507
303.105397	-3.011900	3.686300	-11.102000	22.017800	9.371037E-5	21.052092
304.104389	-2.997600	3.686100	-11.048000	21.980695	9.671359E-5	21.053354
305.102350	-2.986800	3.685300	-11.006000	22.002457	9.562451E-5	21.040054
306.103498	-2.993700	3.684700	-11.030000	21.997953	9.677960E-5	21.019903
307.100964	-2.999400	3.684300	-11.048000	22.000717	9.658158E-5	21.033098
308.104075	-3.003400	3.684100	-11.064000	22.017896	9.532749E-5	21.032752
309.100884	-2.995400	3.685100	-11.037000	22.018030	9.753865E-5	21.041893
310.102150	-2.996400	3.684700	-11.040000	22.021976	9.641657E-5	21.025458
311.107785	-2.973200	3.684300	-10.953000	22.034922	9.407340E-5	21.040785
312.103409	-2.981500	3.684000	-10.983000	22.030630	9.545950E-5	21.041705
313.101092	-2.997500	3.683900	-11.041000	22.015868	9.539350E-5	21.032145
314.105806	-2.995800	3.683300	-11.034000	22.044313	9.625156E-5	21.036438
315.105351	-3.006500	3.684000	-11.075000	22.060862	9.493146E-5	21.036883
316.105831	-2.994100	3.683200	-11.026000	22.056442	9.463444E-5	21.027244
317.108579	-3.001200	3.682600	-11.051000	22.056337	9.466744E-5	21.034251
318.104491	-2.991800	3.682100	-11.015000	22.043602	9.714262E-5	21.025296
319.107075	-2.968200	3.683700	-10.933000	22.046362	9.618555E-5	21.019526
320.105375	-2.986200	3.682100	-10.994000	22.046755	9.361137E-5	21.018497
321.106581	-2.997600	3.681500	-11.034000	22.068359	9.734064E-5	21.014047
322.104567	-2.984600	3.681400	-10.986000	22.085197	9.503047E-5	21.033271
323.104090	-2.990100	3.680700	-11.003000	22.075147	9.308333E-5	21.030796
324.105303	-2.990100	3.681900	-11.009000	22.087961	9.456844E-5	21.010912
325.104440	-2.971200	3.681800	-10.938000	22.101217	9.460144E-5	21.037454
326.105401	-2.992400	3.681000	-11.014000	22.089879	9.318233E-5	21.042223
327.103195	-2.979000	3.680200	-10.962000	22.105874	9.569052E-5	21.021731
328.104052	-2.996200	3.679800	-11.024000	22.137002	9.450243E-5	21.009275
329.103890	-2.992900	3.679800	-11.012000	22.140498	9.473345E-5	21.003767
330.106040	-2.975200	3.679800	-10.947000	22.117029	9.374338E-5	21.007297
331.106118	-2.995500	3.679800	-11.022000	22.139896	9.479945E-5	20.987046
332.105278	-2.985000	3.678500	-10.980000	22.131975	9.427141E-5	21.021310
333.104760	-2.965000	3.679000	-10.907000	22.126682	9.377638E-5	21.034026
334.106166	-3.007500	3.677700	-11.060000	22.120551	9.196124E-5	21.010823
335.107520	-3.006000	3.677600	-11.054000	22.136706	9.103718E-5	20.997601
336.108726	-3.012000	3.677900	-11.077000	22.160334	9.595454E-5	21.019356
337.108698	-2.989800	3.678200	-10.996000	22.161859	9.331434E-5	21.023253
338.106956	-3.004700	3.676100	-11.045000	22.156885	9.453543E-5	21.019222
339.108636	-2.980600	3.676800	-10.958000	22.182404	9.400739E-5	21.010634
340.108908	-2.990200	3.677000	-10.994000	22.147463	9.265430E-5	21.021168
341.107404	-3.011800	3.676500	-11.072000	22.152989	9.394139E-5	21.021959
342.109716	-2.984500	3.675400	-10.969000	22.148727	9.179623E-5	21.012478
343.108182	-2.970200	3.677300	-10.922000	22.166380	9.268730E-5	21.012135
344.108550	-2.976100	3.675700	-10.938000	22.175980	9.390839E-5	21.034070
345.108755	-2.983400	3.675300	-10.964000	22.161168	9.420541E-5	21.025406
346.109862	-3.009500	3.675200	-11.060000	22.166825	9.047614E-5	21.006417
347.111152	-2.993200	3.674300	-10.996000	22.172901	9.156522E-5	21.003492
348.111897	-2.982000	3.673900	-10.955000	22.149459	9.215926E-5	21.017004
349.111425	-3.027800	3.673700	-11.122000	22.160012	9.252229E-5	21.009553
350.110939	-3.002100	3.674300	-11.030000	22.166140	9.318233E-5	21.019953
351.110927	-2.999000	3.673900	-11.017000	22.167296	9.107018E-5	20.979393
352.110648	-3.001500	3.673100	-11.024000	22.166956	8.998110E-5	21.011763
353.111303	-3.005800	3.673800	-11.042000	22.189319	9.215926E-5	21.003809
354.112183	-3.025000	3.672600	-11.108000	22.165928	9.176323E-5	21.005045
355.113789	-2.997700	3.672500	-11.008000	22.185638	9.367737E-5	21.020982
356.114734	-2.972100	3.671500	-10.911000	22.188817	9.179623E-5	21.017528
357.115144	-2.997000	3.671400	-11.002000	22.191266	9.308333E-5	21.000543
358.114798	-3.020300	3.670000	-11.083000	22.207498	8.955207E-5	21.019636
359.115968	-3.006200	3.671600	-11.037000	22.225204	8.800096E-5	21.012235
360.116872	-2.970400	3.672000	-10.907000	22.240017	9.176323E-5	21.024694
361.117401	-2.999200	3.670300	-11.007000	22.248460	9.202725E-5	21.010865
362.117494	-2.999000	3.670500	-11.006000	22.236621	9.021212E-5	21.008020
363.118224	-2.990500	3.669200	-10.972000	22.251618	8.975008E-5	20.998856
364.118016	-2.987400	3.670900	-10.966000	22.272164	8.809996E-5	20.999513
365.118228	-3.010300	3.670000	-11.046000	22.247620	9.100417E-5	20.993432
366.119114	-2.988400	3.669800	-10.966000	22.263329	9.004711E-5	20.992565
367.119218	-2.999200	3.669000	-11.004000	22.295318	8.978309E-5	20.994249
368.119468	-3.005000	3.668300	-11.023000	22.276428	8.998110E-5	21.009945
369.120501	-3.012300	3.668800	-11.050000	22.262591	9.054214E-5	21.018848
370.117412	-3.020900	3.667700	-11.079000	22.301764	9.182924E-5	21.007339
371.119398	-2.993700	3.668800	-10.982000	22.300738	8.872701E-5	21.002994
372.121321	-2.980000	3.669100	-10.933000	22.294923	8.862800E-5	21.002861
373.122700	-3.010000	3.667100	-11.037000	22.274403	9.017911E-5	20.991326
374.121593	-3.012400	3.666800	-11.045000	22.306892	8.899103E-5	20.988769
375.122571	-3.020200	3.667100	-11.074000	22.296395	8.885902E-5	20.988691
376.122705	-3.010400	3.666100	-11.035000	22.309053	8.932105E-5	20.999466
377.125500	-3.008800	3.664800	-11.025000	22.320075	8.998110E-5	20.997701
378.129126	-2.987500	3.666800	-10.953000	22.297057	9.054214E-5	20.995042
379.124454	-2.996700	3.666100	-10.986000	22.297031	8.925505E-5	21.001653
380.128467	-2.988200	3.665700	-10.953000	22.305871	8.856200E-5	20.998651
381.128886	-3.006600	3.665400	-11.019000	22.307266	9.060815E-5	20.974447
382.131700	-2.996100	3.664900	-10.979000	22.300636	8.743991E-5	20.984877
383.129321	-2.981900	3.665800	-10.930000	22.296453	8.971708E-5	20.984482
384.133330	-2.974000	3.664600	-10.898000	22.299927	8.932105E-5	20.990804
385.130652	-3.011200	3.665000	-11.035000	22.314002	8.677987E-5	20.991147
386.128462	-2.975500	3.663800	-10.901000	22.321791	8.879301E-5	21.002737
387.133739	-3.009900	3.664000	-11.027000	22.324106	9.050914E-5	20.976611
388.134923	-3.008800	3.662400	-11.019000	22.317215	8.803396E-5	20.995312
389.132506	-3.019600	3.661800	-11.056000	22.336603	8.872701E-5	20.997656
390.136966	-2.980500	3.664500	-10.921000	22.342230	8.757192E-5	20.983853
391.134862	-2.992000	3.663400	-10.960000	22.350968	8.842999E-5	20.983120
392.133399	-2.989500	3.661400	-10.945000	22.331923	8.846299E-5	21.000556
393.138184	-2.991100	3.661700	-10.951000	22.390771	8.836398E-5	20.999741
394.135133	-2.997700	3.662800	-10.979000	22.398530	9.041013E-5	20.977169
395.133113	-3.002300	3.659900	-10.987000	22.371332	8.909004E-5	20.979804
396.135839	-2.999300	3.661400	-10.980000	22.365307	8.846299E-5	20.968083
397.134766	-2.971800	3.662200	-10.883000	22.392479	8.770393E-5	20.989599
398.134194	-2.982800	3.660700	-10.918000	22.400006	8.773694E-5	20.970112
399.135998	-2.965400	3.660600	-10.854000	22.397324	8.727490E-5	20.987339
400.139392	-3.017100	3.659100	-11.039000	22.372383	8.707689E-5	20.975642
401.135820	-3.004300	3.659800	-10.995000	22.345317	8.737391E-5	20.976514
402.140368	-2.993800	3.659500	-10.955000	22.374018	8.948606E-5	21.012360
403.137726	-3.007600	3.660000	-11.006000	22.363230	8.806696E-5	20.964581
404.135052	-3.008400	3.659500	-11.008000	22.372284	8.615282E-5	20.981705
405.138092	-2.993800	3.657100	-10.947000	22.409164	8.598781E-5	20.959845
406.142097	-2.993700	3.658600	-10.952000	22.411348	8.780294E-5	20.988106
407.137032	-2.978800	3.658700	-10.898000	22.425158	8.734091E-5	20.991978
408.141424	-3.029700	3.656900	-11.078000	22.408374	8.734091E-5	20.999825
409.138826	-3.004400	3.659000	-10.993000	22.405036	8.846299E-5	20.983683
410.139774	-2.999700	3.657800	-10.971000	22.404034	8.763793E-5	20.984576
411.141087	-2.984300	3.657400	-10.914000	22.399352	8.951907E-5	20.990317
412.144131	-3.012300	3.655900	-11.011000	22.404272	8.773694E-5	20.990977
413.137998	-3.013900	3.656300	-11.019000	22.418027	8.635083E-5	20.973460
414.140158	-3.012800	3.655100	-11.011000	22.415662	8.677987E-5	20.973462
415.142751	-3.011800	3.654700	-11.007000	22.416423	8.892502E-5	20.971380
416.140416	-3.011000	3.656100	-11.007000	22.428946	8.562478E-5	20.973963
417.141456	-3.007700	3.653000	-10.986000	22.455669	8.674686E-5	20.950468
418.142072	-3.000300	3.653700	-10.962000	22.444887	8.450270E-5	20.970487
419.143134	-2.989700	3.654300	-10.924000	22.471375	8.912304E-5	20.986579
420.142453	-2.993400	3.655000	-10.941000	22.464929	8.608682E-5	20.993400
421.145959	-2.993600	3.654100	-10.938000	22.482738	8.569079E-5	20.979942
422.141978	-3.002000	3.654100	-10.967000	22.500096	8.615282E-5	20.984049
423.143848	-3.006100	3.653200	-10.981000	22.505670	8.578979E-5	20.973512
424.144263	-2.992500	3.652900	-10.931000	22.499518	8.361163E-5	20.981574
425.142476	-3.010100	3.652000	-10.992000	22.508406	8.433769E-5	20.980519
426.143305	-2.995100	3.652700	-10.939000	22.500250	8.618582E-5	20.974722
427.145706	-2.976100	3.652500	-10.870000	22.503486	8.644984E-5	20.990762
428.145074	-3.000200	3.651800	-10.955000	22.515348	8.413967E-5	20.978937
429.146411	-2.995200	3.652300	-10.937000	22.523080	8.555878E-5	20.989523
430.147639	-3.018100	3.651500	-11.020000	22.500091	8.496473E-5	20.994948
431.144780	-3.010000	3.651100	-10.990000	22.469688	8.578979E-5	20.968771
432.148263	-3.018800	3.649000	-11.014000	22.497459	8.588880E-5	20.979039
433.146528	-3.010300	3.650200	-10.987000	22.504245	8.295159E-5	20.970662
434.148767	-2.994700	3.649900	-10.930000	22.507901	8.446970E-5	20.974324
435.150750	-3.000800	3.648500	-10.948000	22.486884	8.390866E-5	20.954701
436.152764	-3.004600	3.648700	-10.962000	22.502827	8.176350E-5	20.976354
437.148100	-3.014100	3.649400	-10.999000	22.500588	8.357863E-5	20.969845
438.149700	-2.998700	3.649500	-10.943000	22.517922	8.295159E-5	20.954965
439.150428	-3.005200	3.648000	-10.962000	22.539462	8.367764E-5	20.976061
440.150803	-2.997100	3.649500	-10.937000	22.537542	8.423868E-5	20.963708
441.150374	-3.002200	3.647100	-10.948000	22.553192	8.443669E-5	20.987439
442.150313	-3.010800	3.647100	-10.980000	22.527153	8.331461E-5	20.963735
443.151189	-2.989300	3.647100	-10.901000	22.548486	8.404067E-5	20.963289
444.149320	-3.015000	3.647300	-10.996000	22.535518	8.456870E-5	20.946510
445.154853	-2.986300	3.646800	-10.889000	22.550694	8.555878E-5	20.974033
446.149724	-2.985200	3.647300	-10.888000	22.574127	8.404067E-5	20.970002
447.151796	-2.990000	3.645400	-10.899000	22.543357	8.331461E-5	20.978064
448.151452	-3.008900	3.645100	-10.967000	22.538649	8.423868E-5	20.965290
449.153815	-2.996400	3.645700	-10.923000	22.549172	8.301759E-5	20.961605
450.150849	-2.989400	3.645600	-10.898000	22.568710	8.437069E-5	20.990178
451.153497	-2.979000	3.646300	-10.861000	22.557926	8.499774E-5	20.973216
452.154517	-3.006500	3.643500	-10.953000	22.541223	8.173050E-5	20.962653
453.152966	-3.000700	3.644000	-10.934000	22.539277	8.384265E-5	20.960230
454.153976	-3.008000	3.643200	-10.957000	22.530017	8.437069E-5	20.950010
455.153975	-3.014500	3.643400	-10.982000	22.533650	8.427168E-5	20.947010
456.154151	-2.993900	3.642600	-10.905000	22.552478	8.212653E-5	20.956856
457.154896	-3.020100	3.643400	-11.002000	22.539774	8.331461E-5	20.953142
458.154975	-3.017700	3.642700	-10.991000	22.544089	8.430469E-5	20.960309
459.157961	-2.984300	3.642400	-10.869000	22.569994	8.486573E-5	20.939315
460.155840	-3.013700	3.640600	-10.971000	22.568681	8.295159E-5	20.952223
461.155298	-2.993500	3.641600	-10.900000	22.569524	8.347963E-5	20.962548
462.155202	-2.997600	3.641800	-10.916000	22.597690	8.404067E-5	20.951880
463.159215	-3.025300	3.640400	-11.012000	22.628331	8.258856E-5	20.965023
464.160428	-3.028600	3.641000	-11.027000	22.614655	8.506374E-5	20.955120
465.158007	-2.989100	3.640800	-10.882000	22.634668	8.397466E-5	20.953354
466.160622	-2.997800	3.640600	-10.912000	22.612732	8.285258E-5	20.945609
467.161530	-2.994100	3.639800	-10.896000	22.621805	8.107045E-5	20.934784
468.159989	-3.009100	3.638000	-10.946000	22.633245	8.285258E-5	20.943396
469.165513	-3.000600	3.639600	-10.920000	22.629615	8.285258E-5	20.931227
470.160193	-3.000800	3.639500	-10.920000	22.602315	8.255556E-5	20.935177
471.161135	-3.010700	3.639500	-10.957000	22.625828	8.229154E-5	20.935019
472.166435	-3.014100	3.638100	-10.965000	22.608969	8.387565E-5	20.935677
473.159643	-3.014100	3.637600	-10.964000	22.623409	8.314960E-5	20.940656
474.159692	-3.023900	3.637600	-10.999000	22.621117	8.232454E-5	20.934569
475.165910	-3.001800	3.637800	-10.919000	22.638607	8.331461E-5	20.941654
476.159606	-3.004000	3.636500	-10.923000	22.646890	8.324861E-5	20.928615
477.160379	-2.996400	3.636700	-10.897000	22.613148	8.397466E-5	20.942233
478.163063	-3.003300	3.636400	-10.920000	22.625692	8.133447E-5	20.941521
479.159462	-2.996500	3.636300	-10.895000	22.637579	8.295159E-5	20.953899
480.159697	-2.992700	3.635600	-10.880000	22.636130	8.149948E-5	20.918313
481.163254	-3.007900	3.636000	-10.936000	22.631054	8.196151E-5	20.929823
482.161932	-2.985800	3.636000	-10.856000	22.644228	7.849626E-5	20.938275
483.166419	-3.019800	3.633700	-10.972000	22.653300	8.199452E-5	20.931717
484.163466	-2.985300	3.635000	-10.851000	22.693642	8.281958E-5	20.931347
485.161233	-3.003500	3.634100	-10.914000	22.670813	8.159849E-5	20.930766
486.164990	-2.992000	3.633900	-10.872000	22.671550	8.120246E-5	20.906851
487.169081	-3.005400	3.633700	-10.920000	22.671705	8.054241E-5	20.935452
488.164284	-3.009900	3.631600	-10.930000	22.675991	8.229154E-5	20.927419
489.162711	-3.009000	3.631800	-10.927000	22.690164	7.998137E-5	20.924071
490.168304	-3.002100	3.632600	-10.905000	22.667811	8.245655E-5	20.925863
491.163076	-3.001000	3.633600	-10.903000	22.670439	8.311660E-5	20.908583
492.164086	-3.003800	3.632700	-10.911000	22.674935	8.288558E-5	20.921145
493.168671	-2.965100	3.633000	-10.771000	22.689188	8.328161E-5	20.920250
494.166284	-2.985500	3.632300	-10.844000	22.721824	8.324861E-5	20.918801
495.168878	-3.006300	3.629500	-10.910000	22.712012	7.915631E-5	20.911818
496.167729	-2.972900	3.631800	-10.796000	22.704043	8.077343E-5	20.918060
497.165291	-2.979400	3.631100	-10.817000	22.700835	8.146648E-5	20.917691
498.167531	-2.990700	3.630100	-10.856000	22.725237	8.090544E-5	20.907522
499.167838	-3.021600	3.628600	-10.963000	22.724398	8.149948E-5	20.928016
500.169244	-2.993100	3.628700	-10.861000	22.752979	8.179650E-5	20.919189
501.170521	-2.997600	3.628600	-10.876000	22.750662	8.054241E-5	20.907386
502.174686	-3.027700	3.628400	-10.984000	22.768861	7.786921E-5	20.922770
503.170593	-3.004800	3.630300	-10.907000	22.752951	8.021239E-5	20.910626
504.170149	-3.010800	3.628300	-10.922000	22.769280	8.153248E-5	20.921292
505.176228	-3.006400	3.627000	-10.903000	22.715553	7.981636E-5	20.917735
506.172566	-2.989400	3.626900	-10.842000	22.723020	8.037740E-5	20.935644
507.171427	-2.988400	3.627700	-10.839000	22.703351	8.044340E-5	20.908832
508.171141	-2.972000	3.627500	-10.781000	22.716945	7.753919E-5	20.921025
509.171203	-2.986800	3.626900	-10.832000	22.693857	8.077343E-5	20.911651
510.171203	-2.996900	3.625100	-10.863000	22.718600	7.938733E-5	20.945440
511.173420	-3.022900	3.625900	-10.960000	22.716605	7.994837E-5	20.906462
512.173110	-3.008300	3.626500	-10.908000	22.763281	7.965135E-5	20.921447
513.174053	-3.021800	3.624900	-10.953000	22.727095	7.912331E-5	20.911753
514.173903	-2.959600	3.625600	-10.729000	22.736904	7.846326E-5	20.904984
515.172782	-3.001000	3.624000	-10.873000	22.729409	7.793522E-5	20.921657
516.173146	-2.977300	3.626300	-10.795000	22.726383	7.994837E-5	20.894921
517.173158	-2.994100	3.624200	-10.849000	22.743032	7.922231E-5	20.906381
518.173254	-3.003600	3.624200	-10.885000	22.774638	7.922231E-5	20.909118
519.176237	-2.995300	3.624000	-10.855000	22.766722	7.961834E-5	20.886492
520.173164	-2.988600	3.623300	-10.828000	22.772954	7.994837E-5	20.904586
521.175333	-3.003200	3.622800	-10.878000	22.783815	7.819924E-5	20.920680
522.176507	-3.006500	3.622100	-10.889000	22.787259	7.757219E-5	20.882408
523.173892	-3.009900	3.623300	-10.904000	22.743053	7.971735E-5	20.906876
524.174887	-2.987300	3.623100	-10.823000	22.732744	7.938733E-5	20.901291
525.175972	-2.990100	3.620100	-10.824000	22.759251	7.737418E-5	20.885646
526.176856	-2.986000	3.620800	-10.810000	22.761644	7.585607E-5	20.879508
527.178650	-2.979000	3.620800	-10.785000	22.777400	7.918931E-5	20.909039
528.180401	-3.035400	3.620000	-10.988000	22.776001	7.829825E-5	20.885355
529.177751	-2.995500	3.621200	-10.847000	22.787016	7.895829E-5	20.882165
530.180139	-3.012700	3.619600	-10.904000	22.801456	7.803423E-5	20.910852
531.178580	-3.012200	3.619600	-10.902000	22.775159	7.800122E-5	20.892097
532.177729	-3.023300	3.617800	-10.937000	22.793726	7.740718E-5	20.895523
533.178100	-3.000100	3.618200	-10.854000	22.785648	7.562505E-5	20.893122
534.177248	-2.989700	3.619300	-10.819000	22.791488	7.691214E-5	20.910349
535.179516	-3.005000	3.618100	-10.872000	22.836795	7.539403E-5	20.887935
536.181550	-2.988200	3.617600	-10.809000	22.799220	7.691214E-5	20.907664
537.182481	-3.020100	3.616500	-10.921000	22.803877	8.041040E-5	20.884831
538.178236	-2.987200	3.617800	-10.806000	22.804505	7.800122E-5	20.910588
539.183836	-3.012500	3.617800	-10.898000	22.813025	7.816624E-5	20.877874
540.182484	-2.994000	3.616500	-10.826000	22.796249	7.869428E-5	20.882405
541.179436	-2.998800	3.616300	-10.843000	22.816631	7.674713E-5	20.903295
542.185416	-3.024600	3.616400	-10.938000	22.840796	7.664813E-5	20.911855
543.182384	-2.997700	3.615200	-10.836000	22.855361	7.697815E-5	20.903214
544.179887	-3.011600	3.615100	-10.886000	22.850654	7.433796E-5	20.904188
545.186597	-2.996900	3.615900	-10.835000	22.864116	7.664813E-5	20.871684
546.185042	-2.988500	3.614600	-10.802000	22.849577	7.711016E-5	20.893153
547.182487	-3.006900	3.613900	-10.865000	22.850155	7.555905E-5	20.908429
548.186057	-3.013300	3.614100	-10.889000	22.884156	7.569106E-5	20.886070
549.185215	-3.002300	3.614600	-10.850000	22.880895	7.569106E-5	20.888967
550.182221	-3.008300	3.612400	-10.866000	22.873689	7.470098E-5	20.905928
551.188144	-2.989900	3.614700	-10.807000	22.881873	7.387592E-5	20.883783
552.187803	-2.996300	3.613400	-10.826000	22.865305	7.674713E-5	20.884729
553.184779	-2.998300	3.611300	-10.827000	22.871694	7.572406E-5	20.888757
554.184022	-2.997300	3.612100	-10.825000	22.831173	8.031139E-5	20.883251
555.188473	-3.010000	3.611000	-10.868000	22.844454	7.625210E-5	20.872375
556.185884	-3.009800	3.610900	-10.867000	22.860073	7.579006E-5	20.879961
557.188314	-2.985400	3.610400	-10.778000	22.852657	7.493200E-5	20.891497
558.187332	-2.997300	3.611400	-10.824000	22.869907	7.582307E-5	20.884123
559.183231	-3.002100	3.609800	-10.836000	22.856841	7.595507E-5	20.900429
560.187659	-2.980900	3.611000	-10.763000	22.844219	7.625210E-5	20.887785
561.186989	-3.007100	3.610200	-10.856000	22.849979	7.569106E-5	20.879806
562.185619	-2.997000	3.610600	-10.821000	22.883949	7.450297E-5	20.903879
563.187931	-2.994300	3.609800	-10.808000	22.889788	7.572406E-5	20.896927
564.189314	-2.994600	3.608400	-10.805000	22.896309	7.532803E-5	20.906779
565.184454	-2.994700	3.608400	-10.806000	22.880037	7.608708E-5	20.884788
566.186434	-3.013700	3.607900	-10.871000	22.878118	7.483299E-5	20.897563
567.191463	-3.011800	3.608000	-10.866000	22.855055	7.730817E-5	20.895795
568.186547	-3.021000	3.607200	-10.897000	22.835730	7.420595E-5	20.882127
569.193775	-2.975800	3.608100	-10.736000	22.842644	7.503101E-5	20.888105
570.190928	-2.996000	3.606900	-10.804000	22.861895	7.460198E-5	20.877994
571.188038	-2.987300	3.606100	-10.772000	22.862055	7.354590E-5	20.897118
572.188135	-2.981800	3.607600	-10.757000	22.893370	7.592207E-5	20.900041
573.189092	-3.001200	3.605500	-10.820000	22.914092	7.661512E-5	20.877181
574.193019	-3.012600	3.604600	-10.858000	22.919139	7.453597E-5	20.885082
575.188639	-2.999500	3.604500	-10.811000	22.942541	7.453597E-5	20.866803
576.188375	-2.999800	3.604500	-10.812000	22.957029	7.384292E-5	20.899808
577.190922	-3.007200	3.604600	-10.839000	22.935813	7.064169E-5	20.890881
578.190596	-3.013600	3.604600	-10.862000	22.949166	7.506401E-5	20.899043
579.190745	-2.991700	3.605400	-10.786000	22.965390	7.496500E-5	20.875945
580.190880	-3.038200	3.604500	-10.950000	22.985290	7.163176E-5	20.897304
581.190412	-3.004500	3.603600	-10.827000	22.971545	7.479999E-5	20.881163
582.190981	-3.015700	3.603200	-10.865000	22.920961	7.301786E-5	20.907294
583.193205	-3.018300	3.602100	-10.872000	22.935159	7.110372E-5	20.881218
584.189153	-3.002000	3.601900	-10.812000	22.928319	7.206079E-5	20.887167
585.190876	-3.013400	3.602700	-10.855000	22.944465	7.453597E-5	20.907134
586.191891	-3.000600	3.602700	-10.809000	22.930876	7.153275E-5	20.897788
587.192592	-2.999000	3.602600	-10.803000	22.912840	7.272084E-5	20.899632
588.192266	-3.004500	3.601100	-10.818000	22.892750	7.513001E-5	20.893731
589.193136	-3.013100	3.600000	-10.846000	22.898461	7.354590E-5	20.882383
590.193111	-2.986900	3.601600	-10.757000	22.908766	7.047667E-5	20.885595
591.193604	-2.990700	3.600800	-10.767000	22.950416	7.074069E-5	20.886545
592.193433	-2.999900	3.600000	-10.799000	22.943581	7.281985E-5	20.908145
593.193995	-3.013100	3.599500	-10.844000	22.959936	7.476699E-5	20.882333
594.193952	-3.006500	3.598600	-10.818000	22.948737	7.156575E-5	20.889605
595.195624	-2.975700	3.599600	-10.711000	22.951315	7.377692E-5	20.881283
596.194610	-3.041000	3.597600	-10.940000	22.940982	7.387592E-5	20.888473
597.194580	-3.004500	3.598800	-10.811000	22.959099	7.189578E-5	20.906149
598.194849	-3.001600	3.598200	-10.800000	22.979530	7.285285E-5	20.905282
599.196238	-3.005600	3.597400	-10.812000	22.977744	7.116972E-5	20.892588
600.196821	-3.002700	3.597600	-10.801000	23.002933	7.159876E-5	20.890325
601.197039	-3.008000	3.596900	-10.818000	23.001830	7.136774E-5	20.891590
602.199090	-3.005300	3.596800	-10.808000	22.991839	7.120273E-5	20.891064
603.197220	-2.976400	3.597400	-10.707000	22.957187	7.179677E-5	20.886692
604.200070	-3.016300	3.596700	-10.848000	22.983559	6.984963E-5	20.894621
605.199219	-2.999200	3.595900	-10.784000	22.950384	7.159876E-5	20.898367
606.197655	-2.988800	3.596300	-10.747000	22.950695	7.275384E-5	20.913376
607.200029	-2.993500	3.594700	-10.760000	22.947992	7.017965E-5	20.905452
608.198718	-3.024500	3.593700	-10.868000	22.967502	7.291885E-5	20.903189
609.197271	-3.015100	3.594600	-10.837000	22.976151	7.166476E-5	20.883407
610.197511	-3.017900	3.594600	-10.847000	22.959828	7.037767E-5	20.877484
611.198067	-2.999600	3.594000	-10.779000	22.965060	7.070769E-5	20.917810
612.198518	-2.992700	3.592800	-10.751000	22.965797	7.011365E-5	20.917126
613.198948	-2.993400	3.592100	-10.752000	22.965327	6.935459E-5	20.894846
614.201974	-3.014600	3.592200	-10.829000	23.013493	7.008064E-5	20.896638
615.200398	-2.989200	3.592800	-10.738000	23.016646	6.948660E-5	20.886047
616.201868	-3.000200	3.592200	-10.775000	23.020827	6.879355E-5	20.909200
617.201608	-2.973500	3.592400	-10.681000	23.032477	7.077370E-5	20.883892
618.202568	-3.005100	3.590600	-10.789000	23.019015	6.925558E-5	20.890317
619.201743	-3.005300	3.590000	-10.788000	23.003822	7.057568E-5	20.917291
620.202430	-2.972300	3.591700	-10.675000	23.026955	6.813350E-5	20.894953
621.203734	-2.979600	3.589500	-10.695000	23.033716	6.951960E-5	20.892719
622.202538	-2.982900	3.589800	-10.707000	23.043628	7.120273E-5	20.898856
623.202612	-2.986700	3.590000	-10.721000	23.013051	7.060868E-5	20.895247
624.202724	-3.003300	3.589900	-10.781000	23.036451	6.833152E-5	20.909682
625.201917	-3.016000	3.589800	-10.826000	23.050020	6.717643E-5	20.900045
626.202856	-3.018800	3.588700	-10.833000	23.078177	6.905757E-5	20.883690
627.204066	-2.982700	3.588800	-10.703000	23.069398	6.968462E-5	20.893858
628.204394	-2.998300	3.588800	-10.759000	23.051782	6.757246E-5	20.902759
629.204268	-3.007600	3.587600	-10.790000	23.049892	6.806750E-5	20.890909
630.204785	-2.986200	3.587200	-10.711000	23.039272	6.975062E-5	20.911086
631.206158	-2.987900	3.586300	-10.715000	23.036880	6.777048E-5	20.894466
632.205900	-3.016000	3.587000	-10.818000	23.033646	6.866154E-5	20.900708
633.205012	-3.003300	3.586700	-10.771000	23.038195	7.011365E-5	20.911903
634.205530	-3.017700	3.586200	-10.821000	23.041879	6.671440E-5	20.899949
635.206847	-2.981200	3.586900	-10.693000	23.066643	6.813350E-5	20.906743
636.209720	-2.994400	3.584400	-10.732000	23.081210	6.790249E-5	20.906641
637.207612	-2.995500	3.586000	-10.741000	23.043246	6.648338E-5	20.911749
638.208790	-3.005400	3.585000	-10.773000	23.000496	6.638437E-5	20.916804
639.209895	-3.008800	3.583800	-10.782000	23.034438	6.575733E-5	20.910510
640.206986	-3.005000	3.584200	-10.770000	23.024660	6.668140E-5	20.900713
641.212931	-3.000300	3.583400	-10.751000	23.031706	6.773747E-5	20.916781
642.210139	-3.010900	3.583100	-10.787000	23.031523	6.753946E-5	20.901900
643.208898	-3.008500	3.583700	-10.781000	23.075636	6.833152E-5	20.891574
644.210857	-2.999100	3.582500	-10.744000	23.074504	6.816650E-5	20.926946
645.208641	-3.002300	3.583800	-10.759000	23.093435	6.499827E-5	20.936431
646.208250	-3.006600	3.581300	-10.766000	23.097221	6.605435E-5	20.937379
647.209877	-3.002000	3.582700	-10.755000	23.083260	6.796849E-5	20.924814
648.210244	-3.009700	3.581200	-10.777000	23.088230	6.588934E-5	20.887598
649.209372	-3.011900	3.582500	-10.789000	23.078055	6.651638E-5	20.925288
650.209979	-3.011300	3.580000	-10.779000	23.095406	6.480026E-5	20.927502
651.209630	-3.002200	3.581200	-10.751000	23.091226	6.489927E-5	20.926632
652.210131	-3.010400	3.581500	-10.781000	23.116412	6.608735E-5	20.918206
653.211045	-3.017600	3.579500	-10.800000	23.131476	6.661539E-5	20.922394
654.209760	-2.998300	3.581300	-10.736000	23.146061	6.559232E-5	20.920414
655.212382	-3.010900	3.578100	-10.772000	23.149927	6.579033E-5	20.913383
656.214200	-2.992200	3.578800	-10.707000	23.111335	6.377718E-5	20.924971
657.215727	-2.992300	3.579500	-10.710000	23.127162	6.546031E-5	20.933243
658.217692	-2.995600	3.577700	-10.717000	23.154735	6.546031E-5	20.924364
659.213725	-3.006000	3.577600	-10.753000	23.141460	6.450324E-5	20.926234
660.214430	-2.996000	3.577800	-10.718000	23.147478	6.437123E-5	20.937479
661.218359	-2.999300	3.577000	-10.728000	23.147663	6.565832E-5	20.919175
662.215856	-3.002900	3.577800	-10.743000	23.118167	6.585634E-5	20.929445
663.215800	-3.017000	3.576900	-10.790000	23.135912	6.427222E-5	20.948173
664.217969	-2.991400	3.576400	-10.697000	23.133544	6.404120E-5	20.934422
665.216786	-3.010700	3.575300	-10.763000	23.138879	6.275411E-5	20.919856
666.220021	-3.014600	3.575300	-10.777000	23.168875	6.357917E-5	20.919568
667.219834	-3.002400	3.576600	-10.738000	23.154732	6.460224E-5	20.921517
668.216548	-2.997500	3.574400	-10.713000	23.167429	6.592234E-5	20.912430
669.216737	-3.000100	3.574900	-10.725000	23.181018	6.466825E-5	20.930312
670.223547	-3.007800	3.574400	-10.750000	23.154099	6.516328E-5	20.928942
671.216331	-2.996000	3.573900	-10.706000	23.142900	6.150002E-5	20.930522
672.219649	-2.994400	3.574500	-10.703000	23.149078	6.470125E-5	20.928652
673.219266	-2.997400	3.575600	-10.717000	23.176231	6.529529E-5	20.943532
674.217607	-3.023800	3.573600	-10.805000	23.159014	6.367818E-5	20.947615
675.218625	-2.994300	3.573700	-10.700000	23.173708	6.579033E-5	20.920618
676.218731	-3.001000	3.572900	-10.722000	23.152439	6.150002E-5	20.947665
677.218563	-2.997000	3.571800	-10.704000	23.165790	6.239108E-5	20.943501
678.219100	-3.016700	3.572700	-10.777000	23.145786	6.516328E-5	20.932939
679.220485	-2.980200	3.571500	-10.643000	23.164504	6.351316E-5	20.939367
680.221764	-3.014900	3.571500	-10.766000	23.217863	6.255609E-5	20.927881
681.217788	-2.978900	3.572500	-10.641000	23.166025	6.202806E-5	20.945159
682.223176	-3.003800	3.570900	-10.725000	23.169257	6.305113E-5	20.936544
683.221190	-3.003100	3.570900	-10.723000	23.168938	6.374418E-5	20.957558
684.219122	-3.010200	3.570200	-10.746000	23.192175	6.648338E-5	20.950973
685.223195	-3.021700	3.568900	-10.784000	23.189678	6.381019E-5	20.945627
686.222940	-3.002700	3.569400	-10.717000	23.220930	6.278711E-5	20.926213
687.222990	-3.000300	3.569200	-10.708000	23.225267	6.529529E-5	20.950945
688.223529	-2.989200	3.569900	-10.671000	23.225583	6.305113E-5	20.956002
689.224302	-3.011200	3.568300	-10.744000	23.238277	6.331515E-5	20.941224
690.222476	-2.987600	3.569400	-10.663000	23.263353	6.433822E-5	20.934587
691.223357	-2.980100	3.567800	-10.631000	23.286088	6.027893E-5	20.949310
692.225835	-3.020800	3.567800	-10.776000	23.289372	6.196205E-5	20.938377
693.229995	-3.011900	3.567400	-10.744000	23.247392	6.351316E-5	20.952254
694.226444	-2.998500	3.566500	-10.693000	23.259351	6.268810E-5	20.955230
695.228744	-2.981800	3.566200	-10.633000	23.247943	6.209406E-5	20.957548
696.231450	-2.995800	3.566500	-10.684000	23.222077	6.285312E-5	20.962446
697.226991	-3.000200	3.566200	-10.698000	23.229041	6.031193E-5	20.966105
698.228941	-2.991200	3.565700	-10.665000	23.210170	6.242408E-5	20.972797
699.230811	-2.992000	3.565000	-10.666000	23.210960	6.305113E-5	20.952728
700.228248	-2.980600	3.564700	-10.624000	23.217874	6.097198E-5	20.949226
701.232704	-2.995000	3.566400	-10.681000	23.221947	6.400820E-5	20.958522
702.230625	-2.984400	3.565400	-10.640000	23.250782	5.975089E-5	20.958496
703.227120	-2.986200	3.565200	-10.645000	23.255856	6.060895E-5	20.933238
704.228634	-2.990600	3.564400	-10.659000	23.300407	6.047694E-5	20.953229
705.229944	-2.979000	3.564700	-10.619000	23.310105	6.146701E-5	20.955835
706.228026	-3.003500	3.563300	-10.702000	23.269893	5.998191E-5	20.961526
707.233477	-2.997500	3.563400	-10.681000	23.268447	5.859580E-5	20.948700
708.230784	-3.006300	3.561700	-10.707000	23.304848	6.143401E-5	20.963368
709.228903	-2.997900	3.563900	-10.683000	23.284350	5.981689E-5	20.961791
710.233679	-3.010400	3.562400	-10.723000	23.312470	6.311713E-5	20.976695
711.233424	-3.022600	3.561000	-10.762000	23.294492	5.915684E-5	20.958679
712.229763	-2.986500	3.562500	-10.638000	23.293366	6.031193E-5	20.949017
713.230550	-2.986700	3.561300	-10.636000	23.322855	5.942086E-5	20.971456
714.233294	-3.013000	3.561500	-10.729000	23.310842	6.074096E-5	20.984544
715.231244	-3.008000	3.560500	-10.709000	23.305037	6.011392E-5	20.962134
716.230459	-3.009600	3.559100	-10.711000	23.305849	5.948687E-5	20.973853
717.233151	-2.977900	3.561000	-10.603000	23.305693	5.975089E-5	20.980807
718.232050	-2.999900	3.559200	-10.676000	23.309530	5.750672E-5	20.976118
719.233638	-2.991700	3.560500	-10.651000	23.316051	5.796876E-5	20.971275
720.236817	-3.022600	3.558800	-10.756000	23.325197	5.770474E-5	20.963847
721.233878	-2.998200	3.559600	-10.672000	23.327879	5.615362E-5	20.970327
722.233032	-2.993800	3.560000	-10.658000	23.335945	5.651665E-5	20.959447
723.236066	-3.006100	3.558500	-10.696000	23.362966	5.645065E-5	20.971828
724.234763	-2.979300	3.557600	-10.599000	23.330427	5.961888E-5	20.958184
725.235612	-2.985100	3.558500	-10.621000	23.275811	5.730871E-5	20.972671
726.236739	-2.991300	3.558700	-10.644000	23.331771	5.674767E-5	20.968064
727.235102	-2.986900	3.557100	-10.624000	23.340574	5.549358E-5	20.950337
728.234971	-2.972400	3.557400	-10.573000	23.357001	5.618663E-5	20.965377
729.236432	-2.977200	3.557300	-10.590000	23.388883	5.559258E-5	20.979311
730.234859	-3.008900	3.555100	-10.696000	23.356557	5.744072E-5	20.970146
731.234879	-3.004400	3.555400	-10.681000	23.339813	5.466852E-5	20.992242
732.236081	-3.005200	3.556300	-10.686000	23.340629	5.777074E-5	20.966037
733.236203	-2.993400	3.554900	-10.640000	23.358212	5.664866E-5	20.994560
734.236696	-2.968400	3.555400	-10.553000	23.345909	5.925585E-5	20.977491
735.234542	-3.005000	3.554400	-10.680000	23.372509	5.565859E-5	20.975702
736.236115	-3.001000	3.554900	-10.667000	23.377292	5.588961E-5	20.994717
737.236254	-3.013000	3.553500	-10.706000	23.388805	5.569159E-5	20.978758
738.235804	-2.996300	3.555000	-10.651000	23.382550	5.645065E-5	20.980550
739.238834	-3.020400	3.553400	-10.732000	23.353588	5.707769E-5	20.981393
740.236006	-3.006500	3.554100	-10.685000	23.370933	5.430549E-5	20.999248
741.236154	-3.025900	3.552200	-10.748000	23.392224	5.440450E-5	20.986451
742.238659	-3.013200	3.552100	-10.702000	23.370514	5.671467E-5	20.974651
743.236806	-3.016000	3.552400	-10.712000	23.392801	5.684668E-5	20.994615
744.237876	-2.973600	3.553400	-10.565000	23.395329	5.572459E-5	20.994777
745.238628	-2.970000	3.552700	-10.551000	23.408389	5.704469E-5	20.977051
746.238945	-2.999900	3.550400	-10.649000	23.410122	5.546057E-5	20.995854
747.239279	-3.001800	3.550900	-10.659000	23.394116	5.529556E-5	21.002095
748.237193	-3.025100	3.549900	-10.738000	23.427599	5.595561E-5	20.988717
749.238425	-3.002700	3.549700	-10.658000	23.424206	5.615362E-5	20.992902
750.238780	-2.977000	3.550900	-10.570000	23.397453	5.443750E-5	20.993114
751.238630	-2.995900	3.548500	-10.629000	23.367600	5.529556E-5	20.999702
752.239756	-3.001900	3.550600	-10.657000	23.385287	5.598861E-5	21.012685
753.239514	-2.989400	3.549300	-10.608000	23.376774	5.562559E-5	20.991354
754.243480	-3.018800	3.547100	-10.707000	23.375671	5.605462E-5	20.979819
755.241805	-3.025800	3.547600	-10.733000	23.435617	5.572459E-5	21.001967
756.240396	-3.006000	3.547000	-10.662000	23.428890	5.651665E-5	21.008973
757.240797	-2.988700	3.547400	-10.601000	23.405895	5.357944E-5	20.989722
758.239979	-2.999400	3.548300	-10.641000	23.413990	5.242435E-5	21.007315
759.240288	-3.000000	3.547300	-10.641000	23.419141	5.189631E-5	21.018641
760.241536	-2.990700	3.546400	-10.605000	23.422322	5.311740E-5	21.020880
761.243278	-3.004400	3.545600	-10.652000	23.432523	5.179731E-5	20.986066
762.241778	-2.992400	3.544600	-10.606000	23.416776	5.321641E-5	21.027648
763.242699	-2.999600	3.546700	-10.638000	23.452362	5.315040E-5	20.999311
764.243451	-3.003200	3.544600	-10.644000	23.444427	5.282038E-5	20.999893
765.244891	-3.011500	3.545200	-10.675000	23.427818	5.192932E-5	20.999840
766.244681	-2.972400	3.545500	-10.538000	23.444663	5.318341E-5	21.022410
767.246012	-2.996900	3.543700	-10.619000	23.471522	5.183031E-5	21.014246
768.244677	-2.993200	3.544600	-10.609000	23.483031	5.480053E-5	20.997810
769.245579	-2.982800	3.545100	-10.573000	23.441487	5.367844E-5	21.006428
770.246747	-2.999600	3.543300	-10.628000	23.408716	5.202832E-5	21.000134
771.245261	-3.007000	3.542600	-10.652000	23.417440	5.225934E-5	21.024521
772.246393	-2.975400	3.543000	-10.541000	23.434052	5.196232E-5	21.012250
773.247070	-3.005900	3.541600	-10.645000	23.447692	5.305140E-5	21.025919
774.245867	-2.999600	3.542300	-10.625000	23.437128	5.166530E-5	21.011540
775.247533	-3.012800	3.542200	-10.671000	23.438312	5.427249E-5	21.009408
776.247281	-2.991000	3.542100	-10.594000	23.488457	5.245735E-5	20.994241
777.247297	-3.018400	3.541400	-10.688000	23.487035	5.285338E-5	21.012253
778.247943	-3.000800	3.541300	-10.626000	23.465673	5.150028E-5	21.006488
779.247999	-3.017800	3.541000	-10.685000	23.470928	5.031220E-5	21.023607
780.248538	-2.983100	3.541200	-10.563000	23.456293	5.265537E-5	21.007517
781.248346	-3.010700	3.539900	-10.657000	23.489037	5.186331E-5	21.030377
782.249131	-2.999400	3.539200	-10.615000	23.519757	5.100525E-5	21.034143
783.248738	-2.988100	3.539700	-10.577000	23.501547	5.070823E-5	21.018264
784.248702	-2.986600	3.539300	-10.570000	23.509040	4.975116E-5	21.009655
785.249151	-3.005700	3.539300	-10.637000	23.501814	5.011418E-5	21.027064
786.248699	-3.006800	3.539100	-10.641000	23.501866	4.836505E-5	21.015739
787.249119	-3.002000	3.538600	-10.622000	23.507545	4.988317E-5	21.014793
788.248405	-2.985400	3.537100	-10.558000	23.538239	5.001517E-5	21.021378
789.248171	-3.007200	3.537700	-10.637000	23.536689	5.123626E-5	21.030728
790.249187	-3.000700	3.537700	-10.615000	23.518848	5.262237E-5	21.016166
791.247230	-2.994700	3.537000	-10.592000	23.512858	5.024619E-5	21.007792
792.248310	-2.989800	3.536300	-10.572000	23.500507	4.945413E-5	21.010584
793.248922	-2.990100	3.536500	-10.573000	23.484244	4.981716E-5	21.013248
794.248736	-2.996400	3.535500	-10.593000	23.489947	4.909111E-5	21.000475
795.248791	-2.975400	3.535500	-10.518000	23.486821	4.961915E-5	20.998764
796.247288	-3.006200	3.536000	-10.629000	23.494944	4.783702E-5	21.025393
797.249105	-2.988800	3.535300	-10.565000	23.488089	4.925612E-5	21.006198
798.249193	-2.996600	3.535200	-10.593000	23.519935	4.879409E-5	21.007774
799.249259	-3.011700	3.533300	-10.640000	23.523484	4.747399E-5	20.993791
800.251970	-3.042900	3.533200	-10.750000	23.522672	4.753999E-5	21.002457
801.251786	-2.972900	3.534800	-10.508000	23.502201	4.816704E-5	21.001378
802.249431	-3.010400	3.533400	-10.636000	23.521281	5.034520E-5	21.009597
803.252114	-2.992500	3.532600	-10.570000	23.546011	5.047721E-5	20.982235
804.251990	-3.003600	3.532000	-10.608000	23.528324	4.978416E-5	20.987738
805.250396	-2.988000	3.531900	-10.553000	23.514531	4.536183E-5	20.983869
806.252512	-2.979000	3.532200	-10.521000	23.542280	4.509781E-5	20.976598
807.250997	-3.021000	3.530900	-10.666000	23.520260	4.509781E-5	20.995299
808.250161	-3.020300	3.530000	-10.660000	23.550640	4.489980E-5	20.985451
809.253478	-2.987600	3.530700	-10.548000	23.567302	4.935513E-5	20.972285
810.252001	-3.005400	3.529400	-10.607000	23.571559	4.839806E-5	20.991248
811.250558	-3.000000	3.530500	-10.591000	23.567380	4.631890E-5	20.989430
812.251131	-2.998400	3.529100	-10.580000	23.557505	4.645091E-5	20.983799
813.252045	-2.995600	3.529500	-10.572000	23.587614	4.460278E-5	20.971310
814.252342	-3.000400	3.529900	-10.590000	23.609664	4.697895E-5	20.985352
815.252293	-2.989800	3.529300	-10.552000	23.581076	4.456978E-5	20.987513
816.254119	-3.008800	3.529500	-10.618000	23.575006	4.579087E-5	20.984747
817.255209	-3.010100	3.528500	-10.620000	23.565415	4.727597E-5	20.975609
818.254870	-3.005300	3.527500	-10.601000	23.539032	4.608789E-5	20.988513
819.255698	-3.007500	3.527700	-10.609000	23.524002	4.463578E-5	20.978191
820.258625	-3.010000	3.527700	-10.618000	23.538640	4.806803E-5	20.981484
821.255874	-2.990000	3.528200	-10.548000	23.527473	4.430576E-5	20.952276
822.255692	-2.981100	3.528000	-10.517000	23.550517	4.664893E-5	20.972528
823.257651	-2.984300	3.527400	-10.526000	23.560424	4.470179E-5	20.978665
824.256775	-2.995900	3.526600	-10.565000	23.574274	4.536183E-5	20.990651
825.257088	-2.985900	3.527100	-10.531000	23.583444	4.476779E-5	20.963338
826.259966	-3.019000	3.525600	-10.644000	23.589700	4.522982E-5	20.959178
827.257246	-3.007600	3.524800	-10.600000	23.617156	4.361271E-5	20.976743
828.257575	-3.019800	3.524600	-10.643000	23.613506	4.720997E-5	20.970713
829.260128	-3.003600	3.524800	-10.586000	23.631084	4.460278E-5	20.979799
830.258699	-3.006000	3.524800	-10.595000	23.611745	4.579087E-5	20.955674
831.257554	-2.995000	3.524500	-10.555000	23.645482	4.496580E-5	20.988068
832.260239	-3.000800	3.523400	-10.572000	23.641963	4.503181E-5	20.961784
833.257598	-3.012600	3.523700	-10.615000	23.629247	4.552685E-5	20.958047
834.256444	-3.004000	3.522500	-10.581000	23.626859	4.364571E-5	20.956127
835.261127	-3.007600	3.523000	-10.595000	23.597639	4.536183E-5	20.956232
836.257846	-3.019800	3.522800	-10.638000	23.568685	4.407474E-5	20.965137
837.259356	-2.971500	3.521800	-10.464000	23.582561	4.420675E-5	20.941119
838.260456	-3.014600	3.521600	-10.615000	23.585742	4.318367E-5	20.953788
839.259141	-2.983900	3.522100	-10.509000	23.575417	4.371171E-5	20.958610
840.259767	-2.985800	3.521800	-10.514000	23.571845	4.364571E-5	20.953134
841.262221	-2.978800	3.521300	-10.489000	23.616465	4.529583E-5	20.951397
842.259561	-2.996700	3.520700	-10.550000	23.593445	4.341469E-5	20.943495
843.261771	-3.020900	3.519500	-10.630000	23.602330	4.265564E-5	20.963304
844.260403	-3.010100	3.519000	-10.592000	23.604646	4.272164E-5	20.956143
845.260468	-3.010100	3.519800	-10.594000	23.584835	4.242462E-5	20.943872
846.261672	-3.009300	3.520200	-10.593000	23.596712	4.133554E-5	20.965259
847.261445	-3.005800	3.519600	-10.578000	23.625381	4.169856E-5	20.952275
848.262471	-2.999900	3.518700	-10.554000	23.588123	4.400873E-5	20.954279
849.262538	-2.999800	3.518600	-10.554000	23.595508	4.252363E-5	20.943666
850.264935	-2.972200	3.519000	-10.458000	23.617056	4.070849E-5	20.963842
851.263278	-3.009200	3.517900	-10.585000	23.626597	4.245762E-5	20.949701
852.263232	-3.005100	3.517400	-10.570000	23.642181	4.054348E-5	20.952996
853.264652	-2.986000	3.517700	-10.504000	23.646676	4.219360E-5	20.934745
854.264206	-3.001000	3.517200	-10.554000	23.643995	4.074149E-5	20.949599
855.264363	-2.977400	3.517300	-10.472000	23.609578	3.998244E-5	20.946390
856.264416	-2.997400	3.516900	-10.540000	23.594025	3.952041E-5	20.954979
857.264119	-2.996800	3.515300	-10.533000	23.597861	4.001544E-5	20.955980
858.263419	-3.000600	3.515100	-10.547000	23.593238	4.169856E-5	20.955139
859.263836	-3.007700	3.513700	-10.567000	23.614078	4.232561E-5	20.960857
860.265768	-3.014600	3.514400	-10.593000	23.642117	4.084050E-5	20.942975
861.263136	-3.017800	3.515200	-10.607000	23.609461	3.978442E-5	20.954333
862.264064	-3.007700	3.514400	-10.570000	23.613405	3.985043E-5	20.941693
863.263407	-3.020600	3.512900	-10.609000	23.631592	3.734225E-5	20.931952
864.263955	-3.018600	3.513700	-10.605000	23.653143	3.942140E-5	20.932219
865.265010	-3.055700	3.512400	-10.732000	23.627211	3.955341E-5	20.926137
866.265893	-3.021100	3.512600	-10.611000	23.642795	3.932239E-5	20.939389
867.264740	-3.009100	3.512500	-10.569000	23.647061	3.932239E-5	20.935605
868.264406	-2.997300	3.512600	-10.527000	23.655342	3.787028E-5	20.958602
869.266566	-3.012600	3.512100	-10.579000	23.664096	3.869534E-5	20.921390
870.264783	-3.017500	3.511400	-10.594000	23.696204	3.704522E-5	20.937457
871.264909	-3.001700	3.511300	-10.539000	23.685123	3.925639E-5	20.931564
872.265196	-3.018800	3.509800	-10.595000	23.668207	3.872835E-5	20.936890
873.263567	-2.992900	3.511100	-10.508000	23.684450	3.724324E-5	20.928519
874.265076	-2.991900	3.511500	-10.505000	23.699932	3.664919E-5	20.935031
875.265013	-2.986800	3.509700	-10.482000	23.680260	3.602215E-5	20.939016
876.263872	-2.997100	3.509800	-10.518000	23.706696	3.443803E-5	20.922373
877.265357	-3.016700	3.510600	-10.590000	23.659776	3.400900E-5	20.922749
878.264924	-3.015400	3.507500	-10.576000	23.660968	3.556011E-5	20.915411
879.264713	-3.009600	3.508100	-10.557000	23.667619	3.450404E-5	20.913069
880.264902	-2.997100	3.508000	-10.513000	23.691008	3.559312E-5	20.909018
881.265939	-3.020100	3.508400	-10.595000	23.704358	3.671520E-5	20.919082
882.267470	-2.988600	3.508400	-10.484000	23.721915	3.430602E-5	20.918192
883.266384	-3.006500	3.507400	-10.545000	23.715616	3.410801E-5	20.910455
884.267446	-2.989400	3.507300	-10.483000	23.708894	3.569212E-5	20.919361
885.266808	-2.989100	3.506500	-10.481000	23.710344	3.615416E-5	20.927927
886.266057	-3.013500	3.506500	-10.566000	23.718886	3.625317E-5	20.948343
887.266997	-3.002100	3.506100	-10.525000	23.734891	3.625317E-5	20.915080
888.268483	-3.000700	3.506300	-10.521000	23.717102	3.315094E-5	20.914315
889.270297	-3.021400	3.505100	-10.590000	23.727907	3.473505E-5	20.921829
890.271679	-2.994400	3.506200	-10.498000	23.700350	3.486706E-5	20.924071
891.273745	-2.980900	3.505600	-10.448000	23.736400	3.278791E-5	20.929868
892.273251	-2.977900	3.505500	-10.438000	23.740923	3.146781E-5	20.925395
893.275235	-3.008700	3.504400	-10.543000	23.717701	3.354697E-5	20.900218
894.274422	-3.011600	3.504200	-10.552000	23.720095	3.556011E-5	20.910678
895.275478	-2.990400	3.504500	-10.478000	23.680739	3.216086E-5	20.927170
896.273731	-2.997500	3.503600	-10.501000	23.681375	3.169883E-5	20.923540
897.277889	-2.992300	3.503700	-10.482000	23.688290	3.183084E-5	20.907715
898.277152	-2.992300	3.502300	-10.479000	23.681355	3.216086E-5	20.930158
899.276576	-3.004900	3.502700	-10.525000	23.698596	3.156682E-5	20.895764
900.278125	-3.000900	3.503700	-10.513000	23.723610	3.093978E-5	20.893341
901.279071	-3.014800	3.501200	-10.555000	23.723039	3.239188E-5	20.895613
902.275859	-3.000500	3.501500	-10.505000	23.773171	3.054375E-5	20.901779
903.277802	-3.009700	3.501200	-10.536000	23.769127	2.938866E-5	20.909578
904.279058	-2.998800	3.501900	-10.500000	23.761067	3.209486E-5	20.901498
905.278464	-2.992700	3.500900	-10.477000	23.751691	3.087377E-5	20.911062
906.281128	-2.991300	3.501400	-10.472000	23.745839	3.133580E-5	20.906618
907.278405	-3.017700	3.501000	-10.564000	23.747052	2.952067E-5	20.900722
908.277775	-3.023200	3.498400	-10.575000	23.741879	3.090677E-5	20.902648
909.279612	-3.005900	3.498800	-10.516000	23.733527	3.080777E-5	20.905653
910.279024	-3.004100	3.499100	-10.511000	23.715875	3.051074E-5	20.903603
911.279232	-3.002600	3.499400	-10.507000	23.713122	3.117079E-5	20.900369
912.279130	-3.002700	3.498100	-10.503000	23.753506	3.249089E-5	20.888702
913.283280	-3.006200	3.497100	-10.512000	23.785041	3.090677E-5	20.896612
914.281406	-3.009100	3.498100	-10.524000	23.797917	3.268890E-5	20.890082
915.283682	-3.007400	3.498200	-10.520000	23.805751	3.008171E-5	20.898410
916.284359	-3.004400	3.498600	-10.510000	23.821043	3.084077E-5	20.886243
917.283101	-3.007200	3.497400	-10.517000	23.823724	3.080777E-5	20.876604
918.281984	-3.006700	3.498000	-10.516000	23.811543	2.938866E-5	20.891416
919.284818	-3.006200	3.495600	-10.508000	23.805186	3.140181E-5	20.882198
920.283249	-2.973900	3.495600	-10.394000	23.815619	2.985070E-5	20.904985
921.283506	-3.011700	3.495400	-10.526000	23.795657	3.093978E-5	20.882601
922.282415	-2.989500	3.495800	-10.450000	23.802493	3.087377E-5	20.885661
923.283059	-2.988300	3.494800	-10.441000	23.809668	2.886062E-5	20.892380
924.282720	-3.001400	3.494400	-10.487000	23.774076	2.988370E-5	20.885619
925.283615	-2.995200	3.495100	-10.468000	23.749145	2.971869E-5	20.900924
926.283976	-3.007400	3.494000	-10.506000	23.758976	3.027973E-5	20.904142
927.283782	-2.996100	3.494000	-10.467000	23.765472	2.816757E-5	20.876519
928.284435	-3.007500	3.493400	-10.506000	23.757410	3.037873E-5	20.898305
929.286671	-3.015400	3.492900	-10.531000	23.775407	2.628643E-5	20.885056
930.284620	-3.027500	3.492000	-10.572000	23.814243	2.717750E-5	20.873262
931.284940	-3.011500	3.493300	-10.520000	23.811807	2.671546E-5	20.888362
932.285896	-2.993000	3.493100	-10.453000	23.796179	2.651745E-5	20.896399
933.284757	-2.997200	3.493100	-10.468000	23.789092	2.734251E-5	20.896406
934.284767	-3.050400	3.489400	-10.643000	23.763510	2.734251E-5	20.878344
935.284178	-3.015500	3.490400	-10.525000	23.751984	2.767254E-5	20.881012
936.284964	-2.991100	3.491500	-10.443000	23.760973	2.694648E-5	20.891446
937.284034	-2.994400	3.491000	-10.453000	23.769149	2.902563E-5	20.878309
938.288995	-2.992200	3.491000	-10.444000	23.764896	2.430629E-5	20.884950
939.285911	-3.002300	3.490900	-10.479000	23.786765	2.427329E-5	20.876530
940.286275	-2.978800	3.490000	-10.394000	23.798825	2.800256E-5	20.864442
941.292068	-2.970400	3.491100	-10.368000	23.788272	2.678147E-5	20.889894
942.288851	-3.005300	3.488200	-10.482000	23.736203	2.493333E-5	20.860924
943.288278	-2.997600	3.489100	-10.458000	23.732374	2.674847E-5	20.868939
944.291672	-2.997200	3.489100	-10.456000	23.747384	2.453730E-5	20.869289
945.289046	-2.988700	3.488600	-10.426000	23.748229	2.608842E-5	20.878670
946.290067	-2.984900	3.488700	-10.413000	23.749022	2.526336E-5	20.873776
947.294240	-3.017900	3.487800	-10.525000	23.755072	2.443830E-5	20.883160
948.290441	-2.994600	3.487500	-10.443000	23.768738	2.361324E-5	20.861302
949.291012	-3.001000	3.487000	-10.464000	23.762939	2.473532E-5	20.845532
950.294685	-2.980900	3.486700	-10.393000	23.786827	2.298619E-5	20.854783
951.290771	-3.011800	3.486800	-10.501000	23.785884	2.285418E-5	20.866639
952.292043	-2.978200	3.487200	-10.385000	23.775246	2.460331E-5	20.860240
953.291298	-2.994300	3.487000	-10.441000	23.753998	2.232614E-5	20.859325
954.292146	-2.996200	3.486400	-10.446000	23.788292	2.463631E-5	20.856252
955.292022	-2.999000	3.486100	-10.454000	23.801481	2.318421E-5	20.859045
956.292919	-3.008500	3.484600	-10.482000	23.814469	2.292019E-5	20.851204
957.292944	-3.018100	3.483000	-10.511000	23.779556	2.394326E-5	20.847493
958.292526	-3.013200	3.484600	-10.499000	23.797507	2.285418E-5	20.858853
959.295058	-3.003400	3.483900	-10.462000	23.789866	2.490033E-5	20.847873
960.292017	-3.010000	3.484800	-10.488000	23.806659	2.262316E-5	20.847167
961.292875	-3.010200	3.483700	-10.485000	23.823687	2.509835E-5	20.843378
962.297598	-3.009900	3.483800	-10.485000	23.854722	2.143508E-5	20.876865
963.293726	-3.008400	3.482500	-10.476000	23.858348	2.242515E-5	20.861536
964.292153	-2.978700	3.483400	-10.376000	23.910109	2.295319E-5	20.851800
965.294575	-2.997700	3.481400	-10.435000	23.907279	2.183111E-5	20.814824
966.293751	-2.990600	3.482800	-10.415000	23.872448	2.249115E-5	20.847226
967.295199	-2.996100	3.482800	-10.434000	23.871562	2.206212E-5	20.839225
968.297991	-2.987400	3.481000	-10.399000	23.860060	2.397626E-5	20.843339
969.297811	-2.975200	3.482400	-10.360000	23.846089	2.202912E-5	20.855883
970.295963	-2.995300	3.479900	-10.423000	23.850040	2.140207E-5	20.849887
971.298336	-3.013600	3.480800	-10.489000	23.841215	2.391026E-5	20.839616
972.297861	-3.006400	3.479800	-10.461000	23.813765	2.473532E-5	20.860456
973.299404	-2.979200	3.482000	-10.372000	23.819578	1.998297E-5	20.834991
974.298167	-3.004800	3.479000	-10.453000	23.793784	2.103905E-5	20.834259
975.299656	-2.982700	3.480100	-10.379000	23.804639	2.100605E-5	20.843245
976.299772	-2.981900	3.480100	-10.377000	23.828365	2.249115E-5	20.844275
977.297864	-3.006200	3.478200	-10.455000	23.878233	2.179810E-5	20.810354
978.302469	-3.024900	3.478700	-10.522000	23.889771	2.123706E-5	20.828087
979.299515	-2.985900	3.479700	-10.389000	23.884205	2.027999E-5	20.843842
980.299982	-3.005000	3.478700	-10.453000	23.839733	2.133607E-5	20.825328
981.301915	-3.008600	3.478500	-10.465000	23.846807	2.070902E-5	20.839534
982.300035	-3.002500	3.477600	-10.440000	23.856428	1.981796E-5	20.806034
983.302031	-2.993000	3.478800	-10.411000	23.895390	2.001597E-5	20.836566
984.303106	-2.994200	3.477300	-10.410000	23.901436	1.744178E-5	20.815603
985.302058	-3.010200	3.476700	-10.465000	23.872253	1.839885E-5	20.815263
986.302936	-3.010500	3.476300	-10.464000	23.862513	1.879488E-5	20.849591
987.302398	-3.002300	3.476900	-10.438000	23.863987	1.503261E-5	20.837320
988.302800	-3.002300	3.476600	-10.437000	23.824451	2.061002E-5	20.833713
989.303176	-2.982900	3.477100	-10.371000	23.816945	1.833285E-5	20.834722
990.303373	-2.994000	3.475800	-10.405000	23.856168	1.879488E-5	20.817152
991.303048	-3.007400	3.476000	-10.452000	23.897024	1.674873E-5	20.826825
992.303420	-3.023600	3.475000	-10.506000	23.914762	1.869588E-5	20.827542
993.302708	-3.003700	3.474200	-10.435000	23.908511	2.084103E-5	20.830283
994.303133	-3.014400	3.473800	-10.471000	23.889704	1.740878E-5	20.823753
995.302050	-3.000900	3.473800	-10.424000	23.850464	1.971895E-5	20.822338
996.302913	-3.021300	3.473100	-10.493000	23.859873	1.645171E-5	20.826557
997.302500	-2.993300	3.473200	-10.396000	23.869130	1.820084E-5	20.822562
998.303352	-2.999600	3.473800	-10.420000	23.857576	1.826684E-5	20.836581
999.303368	-2.998200	3.473200	-10.413000	23.883535	1.952094E-5	20.821835
1000.305099	-2.994400	3.472600	-10.398000	23.898380	1.664973E-5	20.822021
1001.304054	-2.992300	3.471700	-10.388000	23.900935	1.829985E-5	20.805143
1002.304238	-2.987000	3.472500	-10.371000	23.877035	1.872888E-5	20.791609
1003.305759	-3.015700	3.471900	-10.469000	23.873021	1.641871E-5	20.810818
1004.305116	-2.997700	3.472300	-10.407000	23.876626	1.763980E-5	20.798311
1005.305659	-3.007900	3.471300	-10.440000	23.860604	1.688074E-5	20.814488
1006.308725	-2.990600	3.471500	-10.380000	23.884754	1.754079E-5	20.800298
1007.305130	-2.994100	3.470700	-10.389000	23.899629	1.539563E-5	20.795299
1008.306643	-3.003000	3.470300	-10.419000	23.879590	1.691374E-5	20.806973
1009.309197	-3.024600	3.468900	-10.491000	23.887763	1.579166E-5	20.807108
1010.305534	-3.017000	3.470300	-10.469000	23.925070	1.466958E-5	20.795206
1011.309870	-3.012200	3.469100	-10.449000	23.873958	1.565965E-5	20.807963
1012.309880	-2.994800	3.470900	-10.394000	23.888881	1.783781E-5	20.801116
1013.307128	-3.013000	3.469200	-10.452000	23.893509	1.569265E-5	20.820456
1014.309371	-3.008100	3.468800	-10.433000	23.888081	1.704575E-5	20.790831
1015.308589	-2.991200	3.468500	-10.373000	23.890002	1.358050E-5	20.787542
1016.305850	-3.022000	3.468100	-10.480000	23.904639	1.407554E-5	20.777563
1017.309244	-2.995700	3.468600	-10.390000	23.928628	1.457057E-5	20.802092
1018.310683	-2.982900	3.466700	-10.340000	23.914424	1.506561E-5	20.785953
1019.308111	-2.980600	3.466800	-10.333000	23.918293	1.136934E-5	20.781297
1020.308119	-3.021900	3.467100	-10.476000	23.940126	1.183137E-5	20.783751
1021.311892	-2.977300	3.466900	-10.321000	23.934828	1.552764E-5	20.800724
1022.310462	-3.007100	3.467000	-10.425000	23.940328	1.371251E-5	20.784428
1023.310734	-3.013100	3.465700	-10.441000	23.959406	1.427355E-5	20.797394
1024.312666	-2.978200	3.466800	-10.323000	23.957362	1.206239E-5	20.781595
1025.311263	-2.998700	3.465400	-10.391000	23.945601	1.361350E-5	20.795880
1026.310578	-2.979100	3.466800	-10.327000	23.947002	1.301946E-5	20.772628
1027.311985	-3.008000	3.464600	-10.421000	23.951552	1.315147E-5	20.787622
1028.313229	-2.998600	3.465000	-10.389000	23.941001	1.183137E-5	20.797431
1029.312418	-3.015400	3.463400	-10.443000	23.916995	1.410854E-5	20.780944
1030.313062	-3.025000	3.462600	-10.474000	23.923653	1.275544E-5	20.783827
1031.315467	-2.990500	3.463500	-10.356000	23.914464	1.285445E-5	20.782200
1032.313412	-2.999900	3.463900	-10.390000	23.942895	1.311847E-5	20.784157
1033.314031	-3.001500	3.464300	-10.397000	23.943662	1.331648E-5	20.789194
1034.314595	-3.004700	3.462800	-10.404000	23.940860	1.160035E-5	20.782116
1035.313303	-2.995000	3.461900	-10.367000	23.955001	1.288745E-5	20.785391
1036.314395	-2.984200	3.463300	-10.335000	23.960657	9.884227E-6	20.789166
1037.317176	-2.996600	3.463000	-10.376000	23.938520	1.364650E-5	20.785460
1038.314019	-2.995000	3.462300	-10.369000	23.899707	1.282144E-5	20.790161
1039.311988	-2.978700	3.461600	-10.310000	23.892939	1.259043E-5	20.772943
1040.313759	-3.014800	3.460500	-10.432000	23.889499	1.064328E-5	20.773287
1041.313636	-3.005300	3.461200	-10.401000	23.929153	9.752218E-6	20.768479
1042.313665	-2.985800	3.461000	-10.333000	23.945736	1.064328E-5	20.764721
1043.313177	-3.011000	3.459600	-10.416000	23.927859	1.024725E-5	20.761492
1044.315092	-3.018400	3.460000	-10.443000	23.934852	1.061028E-5	20.763763
1045.315702	-3.006100	3.459400	-10.398000	23.904650	9.719215E-6	20.752444
1046.315340	-3.008800	3.460500	-10.411000	23.910359	1.021425E-5	20.759591
1047.318529	-2.995200	3.459800	-10.361000	23.923659	1.100631E-5	20.750642
1048.314803	-2.995500	3.460400	-10.364000	23.935879	1.057728E-5	20.776173
1049.316652	-2.990400	3.458900	-10.342000	23.954641	1.107231E-5	20.763692
1050.321044	-2.993700	3.458100	-10.352000	24.001402	9.422193E-6	20.755109
1051.319726	-3.020000	3.457000	-10.440000	24.007587	1.130333E-5	20.752777
1052.318833	-2.999300	3.458000	-10.371000	24.026556	1.074229E-5	20.743825
1053.318890	-3.024300	3.457300	-10.455000	24.033682	8.201104E-6	20.774680
1054.319821	-2.997900	3.457200	-10.363000	24.033500	9.917230E-6	20.765488
1055.318852	-2.994700	3.458100	-10.355000	24.052429	1.150135E-5	20.779731
1056.319813	-2.971700	3.457700	-10.274000	24.072681	1.008224E-5	20.757367
1057.322148	-2.983200	3.455900	-10.308000	24.021181	1.183137E-5	20.779213
1058.322256	-2.994200	3.456900	-10.349000	23.984675	9.158174E-6	20.740231
1059.322608	-3.010800	3.456200	-10.405000	23.999055	9.719215E-6	20.738056
1060.324880	-3.008100	3.455700	-10.394000	24.032264	1.133633E-5	20.745282
1061.323728	-2.991900	3.456300	-10.340000	24.027722	8.696140E-6	20.743572
1062.323598	-3.009900	3.453600	-10.393000	24.018670	9.290184E-6	20.744451
1063.324175	-3.018600	3.453700	-10.425000	24.017021	9.290184E-6	20.743746
1064.324284	-3.001000	3.454900	-10.368000	24.020526	8.432121E-6	20.759115
1065.325761	-3.006800	3.455100	-10.388000	24.014150	8.069094E-6	20.750824
1066.325415	-3.009800	3.453600	-10.394000	24.008880	8.399118E-6	20.755970
1067.324167	-2.995600	3.454400	-10.346000	24.023337	8.894155E-6	20.735381
1068.325924	-2.993200	3.454300	-10.338000	24.023979	7.310038E-6	20.766846
1069.327682	-2.981900	3.453600	-10.297000	24.016419	6.914009E-6	20.752151
1070.325459	-2.996800	3.453400	-10.348000	24.041829	6.848004E-6	20.738753
1071.327692	-2.994500	3.453400	-10.340000	24.054768	7.805075E-6	20.754575
1072.326369	-2.973200	3.453900	-10.268000	24.032447	7.904082E-6	20.732189
1073.325599	-3.003100	3.452400	-10.366000	24.027728	8.729143E-6	20.738836
1074.325606	-2.974500	3.453300	-10.271000	24.012161	9.818223E-6	20.762580
1075.326643	-2.982200	3.452100	-10.293000	24.021517	6.649990E-6	20.733081
1076.325803	-2.991200	3.452700	-10.326000	24.016356	5.890934E-6	20.745924
1077.327687	-2.983100	3.451400	-10.295000	23.985892	6.947011E-6	20.757574
1078.328084	-2.995800	3.451400	-10.339000	23.980648	7.013016E-6	20.739038
1079.324172	-2.981500	3.451200	-10.288000	23.999518	6.220958E-6	20.740891
1080.325917	-2.999300	3.450700	-10.348000	24.035512	6.715994E-6	20.740004
1081.326093	-3.001600	3.450400	-10.356000	24.046365	8.003089E-6	20.718170
1082.327469	-3.011300	3.449400	-10.387000	24.019086	7.706067E-6	20.758146
1083.327245	-3.001800	3.450100	-10.356000	24.013391	5.923936E-6	20.747692
1084.329099	-2.990600	3.451400	-10.321000	23.975944	7.178028E-6	20.743329
1085.328386	-3.001900	3.448000	-10.350000	23.968882	6.781999E-6	20.746679
1086.327818	-2.996900	3.449100	-10.336000	23.986495	4.240812E-6	20.737314
1087.332193	-3.020400	3.446800	-10.410000	23.985641	5.725922E-6	20.729345
1088.330672	-2.998000	3.448200	-10.337000	23.998073	6.022943E-6	20.726165
1089.331434	-3.003200	3.449100	-10.357000	24.045228	5.989941E-6	20.729833
1090.333524	-3.025200	3.447000	-10.427000	24.052568	6.616987E-6	20.731030
1091.331115	-2.979300	3.448700	-10.274000	24.076954	5.032870E-6	20.743159
1092.331159	-3.010000	3.447400	-10.376000	24.106561	6.649990E-6	20.731127
1093.334761	-3.015800	3.446100	-10.391000	24.061158	6.154953E-6	20.758612
1094.332260	-2.993800	3.446700	-10.318000	24.047352	4.471829E-6	20.744767
1095.333068	-2.996300	3.446600	-10.327000	24.038322	6.649990E-6	20.740926
1096.333742	-2.974300	3.445900	-10.248000	24.077022	4.207810E-6	20.719044
1097.332388	-3.009000	3.445600	-10.367000	24.101273	3.712773E-6	20.748583
1098.333598	-3.002500	3.444300	-10.340000	24.104015	6.154953E-6	20.748963
1099.337498	-3.000600	3.445300	-10.337000	24.088262	4.108802E-6	20.715618
1100.333159	-3.002300	3.445700	-10.345000	24.083366	5.692919E-6	20.737262
1101.335790	-3.013900	3.444300	-10.380000	24.073282	4.405824E-6	20.728097
1102.335225	-3.005800	3.443300	-10.349000	24.057321	7.145026E-6	20.748126
1103.336145	-3.000500	3.444200	-10.332000	24.079733	3.613766E-6	20.751163
1104.335804	-2.998200	3.444900	-10.328000	24.051818	4.108802E-6	20.743081
1105.336357	-2.996200	3.443400	-10.316000	23.997455	2.425679E-6	20.749729
1106.338794	-2.968500	3.443600	-10.222000	24.035970	2.854710E-6	20.749947
1107.338163	-2.984800	3.443500	-10.278000	24.064524	3.877785E-6	20.766730
1108.342579	-2.994300	3.443000	-10.307000	24.061120	3.547761E-6	20.750514
1109.341459	-2.988400	3.443000	-10.288000	24.072788	2.953717E-6	20.726179
1110.339071	-2.993100	3.442700	-10.304000	24.099923	2.953717E-6	20.751972
1111.341788	-2.999400	3.442100	-10.323000	24.095075	4.702846E-6	20.739523
1112.343494	-2.998700	3.441000	-10.318000	24.076164	2.161659E-6	20.750903
1113.340384	-3.017200	3.441600	-10.382000	24.107533	2.557688E-6	20.748698
1114.343846	-3.014200	3.441000	-10.371000	24.041748	1.815134E-7	20.752423
1115.345879	-3.007400	3.439900	-10.345000	24.059319	2.854710E-6	20.739698
1116.342966	-3.012200	3.441300	-10.365000	24.059776	4.471829E-6	20.737311
1117.342377	-2.983400	3.440500	-10.264000	24.037482	9.405693E-7	20.743876
1118.342633	-2.988500	3.441400	-10.284000	24.019811	2.656696E-6	20.745121
1119.345850	-3.035100	3.439300	-10.437000	24.012698	3.349747E-6	20.765963
1120.342124	-2.993800	3.440800	-10.301000	24.036867	2.194662E-6	20.744683
1121.343884	-3.021500	3.438000	-10.386000	24.036088	2.128657E-6	20.745797
1122.347566	-2.992100	3.438500	-10.288000	24.021337	2.689698E-6	20.767989
1123.344792	-3.001600	3.438700	-10.320000	24.062106	2.788705E-6	20.766675
1124.345970	-3.013700	3.437900	-10.360000	24.088378	2.425679E-6	20.759359
1125.347548	-2.993100	3.438300	-10.291000	24.117227	1.765630E-6	20.743247
1126.345688	-3.011000	3.437900	-10.350000	24.148542	1.666623E-6	20.766596
1127.344038	-2.996600	3.438200	-10.302000	24.145893	1.171586E-6	20.761567
1128.350055	-2.984400	3.437700	-10.258000	24.119615	2.986720E-6	20.748488
1129.345755	-3.006600	3.437200	-10.333000	24.111401	2.722700E-6	20.760165
1130.345859	-2.991300	3.436800	-10.279000	24.131033	2.887713E-6	20.755198
1131.349204	-2.998500	3.437300	-10.306000	24.100994	1.666623E-6	20.762529
1132.344989	-3.003500	3.436800	-10.321000	24.078290	2.887713E-6	20.759199
1133.346024	-3.012500	3.435700	-10.349000	24.103253	2.805207E-7	20.754363
1134.350037	-3.000900	3.435200	-10.308000	24.105939	2.128657E-6	20.749944
1135.347492	-2.995100	3.435600	-10.289000	24.156507	1.171586E-6	20.761308
1136.346816	-3.009800	3.434600	-10.337000	24.184934	2.491683E-6	20.763267
1137.350691	-2.972300	3.434700	-10.208000	24.193089	2.145158E-7	20.754851
1138.346721	-2.989200	3.435900	-10.269000	24.217940	1.501611E-6	20.729517
1139.346854	-2.971000	3.435000	-10.205000	24.203504	-1.650122E-8	20.760556
1140.352191	-2.989600	3.434500	-10.267000	24.168511	6.105450E-7	20.761020
1141.348570	-2.972900	3.434500	-10.209000	24.145040	1.402603E-6	20.750755
1142.348068	-2.998700	3.433500	-10.295000	24.159180	6.765498E-7	20.753558
1143.350401	-3.010700	3.434100	-10.338000	24.163570	7.755571E-7	20.763651
1144.347751	-2.999900	3.432700	-10.297000	24.161326	1.699625E-6	20.744803
1145.347927	-3.023200	3.432500	-10.376000	24.124643	2.524686E-6	20.741677
1146.352062	-3.023600	3.432200	-10.377000	24.091924	-4.455328E-7	20.762915
1147.349197	-3.024500	3.432000	-10.379000	24.093950	9.735717E-7	20.765422
1148.348979	-3.002600	3.432400	-10.305000	24.124456	9.735717E-7	20.763775
1149.350963	-2.996100	3.431700	-10.281000	24.130160	1.485109E-7	20.756219
1150.348642	-2.992700	3.433000	-10.273000	24.146634	5.115377E-7	20.740024
1151.350144	-2.984800	3.431600	-10.242000	24.187164	1.171586E-6	20.782100
1152.351666	-2.992200	3.432100	-10.269000	24.186489	9.735717E-7	20.778104
1153.348559	-3.015500	3.430600	-10.344000	24.179481	9.405693E-7	20.758746
1154.349139	-2.994300	3.431800	-10.274000	24.179174	1.650122E-8	20.761758
1155.350323	-2.985500	3.431100	-10.243000	24.127152	1.600618E-6	20.757944
1156.348401	-2.993600	3.429100	-10.264000	24.119956	1.501611E-6	20.759262
1157.353111	-3.003900	3.429400	-10.300000	24.121910	1.963645E-6	20.767859
1158.356152	-3.007400	3.429200	-10.312000	24.125858	-1.402603E-6	20.776561
1159.350471	-3.004800	3.428600	-10.301000	24.142768	-4.950365E-8	20.769813
1160.351214	-2.980200	3.429700	-10.221000	24.188011	-1.072579E-6	20.745490
1161.352760	-2.997600	3.429400	-10.279000	24.205159	1.039577E-6	20.773122
1162.351490	-3.009400	3.427500	-10.313000	24.229226	-8.415620E-7	20.759330
1163.353180	-2.992800	3.427900	-10.258000	24.251786	-1.963645E-6	20.774847
1164.355855	-2.998500	3.428100	-10.278000	24.229205	-3.465255E-7	20.769740
1165.353231	-2.985400	3.427900	-10.233000	24.217917	-7.425547E-7	20.765530
1166.353127	-3.000900	3.428700	-10.289000	24.195491	5.115377E-7	20.793297
1167.353372	-2.980900	3.427100	-10.215000	24.231397	-1.006574E-6	20.786164
1168.353223	-3.013100	3.427700	-10.327000	24.256430	-1.039577E-6	20.782350
1169.354099	-3.014500	3.425600	-10.326000	24.289420	-8.250608E-8	20.783200
1170.354591	-2.998100	3.426600	-10.272000	24.276662	-1.633620E-6	20.764712
1171.355082	-3.017800	3.425500	-10.337000	24.281426	-8.250608E-8	20.777551
1172.354197	-3.016300	3.425700	-10.332000	24.278278	9.075668E-7	20.785774
1173.355020	-3.008000	3.425200	-10.302000	24.234244	-3.135231E-7	20.786649
1174.355046	-3.017700	3.424800	-10.334000	24.194463	-9.405693E-7	20.779464
1175.354153	-3.018600	3.424300	-10.335000	24.161476	-5.775425E-7	20.789525
1176.354053	-2.971600	3.425100	-10.178000	24.213170	4.785352E-7	20.774045
1177.355831	-3.006800	3.424800	-10.296000	24.245958	-3.795279E-7	20.783700
1178.355824	-2.984800	3.424600	-10.220000	24.262295	-8.415620E-7	20.793449
1179.358070	-3.007600	3.423200	-10.295000	24.253922	-1.039577E-6	20.768929
1180.358207	-2.981900	3.424100	-10.209000	24.287909	-8.085595E-7	20.787374
1181.355870	-2.995700	3.423600	-10.255000	24.291073	-5.115377E-7	20.796711
1182.359556	-2.992000	3.424100	-10.243000	24.318987	-1.072579E-6	20.797686
1183.356616	-3.021900	3.421400	-10.338000	24.308100	-4.455328E-7	20.782023
1184.355806	-2.987000	3.422900	-10.224000	24.297208	-1.699625E-6	20.786270
1185.361270	-3.015200	3.420800	-10.313000	24.249560	3.465255E-7	20.782097
1186.357595	-2.993400	3.422200	-10.243000	24.239030	-1.600618E-6	20.781967
1187.356866	-2.996900	3.420900	-10.251000	24.248729	-7.425547E-7	20.805919
1188.360461	-2.995700	3.421100	-10.248000	24.291360	-1.666623E-6	20.802689
1189.358464	-3.020600	3.420500	-10.331000	24.283932	8.415620E-7	20.797609
1190.360019	-3.011200	3.421100	-10.301000	24.278270	-1.963645E-6	20.797620
1191.361741	-3.003100	3.421400	-10.274000	24.295480	-2.458681E-6	20.770312
1192.360441	-3.010500	3.419600	-10.294000	24.271799	-1.303596E-6	20.787809
1193.360280	-3.005400	3.419900	-10.277000	24.285434	-3.778778E-6	20.790107
1194.362335	-3.003700	3.420600	-10.273000	24.305189	-1.270594E-6	20.801862
1195.363063	-2.978400	3.419700	-10.184000	24.270979	-2.260666E-6	20.797892
1196.361792	-2.989300	3.419500	-10.221000	24.269696	-2.656696E-6	20.791390
1197.364822	-3.007700	3.418400	-10.281000	24.280282	-2.227664E-6	20.808173
1198.363749	-3.001100	3.418400	-10.257000	24.319604	-7.755571E-7	20.803046
1199.362809	-2.990200	3.417700	-10.219000	24.339539	-2.722700E-6	20.801233
1200.362759	-2.990200	3.417600	-10.218000	24.344084	-1.336598E-6	20.810059
1201.364347	-2.999400	3.418200	-10.252000	24.332221	-3.877786E-6	20.791995
1202.362829	-3.001600	3.418200	-10.259000	24.320461	-2.953718E-6	20.829510
1203.363568	-3.009800	3.416700	-10.283000	24.318202	-3.316744E-6	20.799743
1204.363859	-2.990500	3.416800	-10.217000	24.287431	-5.775425E-7	20.797800
1205.361698	-2.989600	3.416800	-10.214000	24.338226	-4.240812E-6	20.816037
1206.362908	-3.008600	3.416300	-10.278000	24.340699	-2.656696E-6	20.795758
1207.366211	-2.995500	3.415300	-10.229000	24.360732	-3.052725E-6	20.805898
1208.363595	-3.011000	3.416000	-10.285000	24.329490	-3.481756E-6	20.800161
1209.363911	-3.027400	3.415300	-10.338000	24.314234	-6.220958E-6	20.825161
1210.365529	-3.017600	3.414000	-10.302000	24.309513	-4.669844E-6	20.801459
1211.364736	-3.009500	3.414900	-10.276000	24.339141	-4.603839E-6	20.803679
1212.363881	-3.000000	3.415900	-10.247000	24.289380	-2.854710E-6	20.819196
1213.364568	-3.011500	3.413700	-10.278000	24.252381	-5.362895E-6	20.796780
1214.365143	-2.999600	3.414900	-10.243000	24.267720	-3.712773E-6	20.824969
1215.364809	-2.970300	3.415500	-10.144000	24.300845	-5.989941E-6	20.794186
1216.364251	-2.995400	3.413200	-10.223000	24.309114	-3.349747E-6	20.820499
1217.366825	-2.983500	3.414500	-10.186000	24.317795	-4.570837E-6	20.806921
1218.364893	-3.007400	3.413000	-10.263000	24.333419	-3.943790E-6	20.808370
1219.364812	-2.987000	3.414000	-10.197000	24.320849	-4.735849E-6	20.817098
1220.366387	-2.991000	3.412400	-10.205000	24.369202	-3.448754E-6	20.816291
1221.365048	-3.002900	3.412900	-10.248000	24.349070	-4.999868E-6	20.819803
1222.364281	-3.018700	3.411900	-10.299000	24.346266	-4.702846E-6	20.834059
1223.367614	-2.996900	3.411600	-10.224000	24.407165	-5.989941E-6	20.832564
1224.366612	-2.992000	3.411300	-10.206000	24.410568	-6.319965E-6	20.807529
1225.368092	-2.984900	3.411000	-10.181000	24.421553	-5.560910E-6	20.843205
1226.367762	-3.003900	3.410800	-10.245000	24.427418	-8.003089E-6	20.815424
1227.370539	-3.012300	3.411000	-10.274000	24.401273	-5.428900E-6	20.820015
1228.368459	-3.012800	3.410500	-10.274000	24.393353	-5.527907E-6	20.847156
1229.369034	-3.020900	3.411600	-10.305000	24.398272	-4.900861E-6	20.828384
1230.371960	-3.015300	3.410600	-10.283000	24.411128	-4.108803E-6	20.818522
1231.367769	-3.018800	3.409700	-10.293000	24.401894	-5.791927E-6	20.853827
1232.370455	-3.000000	3.409600	-10.227000	24.395184	-4.240812E-6	20.836192
1233.370862	-2.984900	3.410100	-10.178000	24.373661	-5.923936E-6	20.844471
1234.371368	-3.000400	3.408600	-10.226000	24.366978	-5.923936E-6	20.836818
1235.371484	-3.001100	3.409800	-10.232000	24.355671	-5.065873E-6	20.831640
1236.370943	-3.014200	3.408200	-10.272000	24.398901	-7.838077E-6	20.825696
1237.370737	-2.988500	3.408100	-10.185000	24.431498	-7.013017E-6	20.833268
1238.370833	-3.021500	3.407100	-10.294000	24.443221	-5.263888E-6	20.836968
1239.371273	-3.005200	3.407800	-10.240000	24.432907	-6.451975E-6	20.835629
1240.371793	-3.000500	3.407600	-10.224000	24.433682	-4.933863E-6	20.829769
1241.372006	-3.030600	3.406200	-10.322000	24.424345	-8.564131E-6	20.841738
1242.372644	-2.988500	3.407700	-10.183000	24.417183	-5.659917E-6	20.835976
1243.372123	-2.988900	3.405600	-10.178000	24.419474	-5.131878E-6	20.839697
1244.372215	-3.001000	3.406100	-10.221000	24.463517	-6.451975E-6	20.844527
1245.371833	-2.993300	3.406600	-10.197000	24.472321	-6.187956E-6	20.855256
1246.374700	-3.023500	3.405400	-10.295000	24.392661	-6.022944E-6	20.855944
1247.374077	-3.004200	3.405200	-10.229000	24.421425	-6.881007E-6	20.852559
1248.372554	-2.993300	3.405200	-10.192000	24.412529	-8.630136E-6	20.849798
1249.373986	-3.006600	3.405800	-10.239000	24.434327	-4.504832E-6	20.847959
1250.373750	-3.011100	3.405400	-10.252000	24.423411	-7.343041E-6	20.850758
1251.374174	-2.992600	3.405700	-10.191000	24.446918	-8.036092E-6	20.832616
1252.374409	-2.996000	3.404400	-10.198000	24.476122	-8.432121E-6	20.839156
1253.374273	-3.001700	3.404300	-10.217000	24.483398	-8.003089E-6	20.860680
1254.374151	-2.989800	3.403800	-10.176000	24.479462	-7.508053E-6	20.846774
1255.373383	-3.011100	3.404000	-10.248000	24.470546	-7.970087E-6	20.836880
1256.373164	-3.002000	3.402700	-10.214000	24.454612	-8.432121E-6	20.851715
1257.373877	-2.984100	3.402800	-10.153000	24.455745	-7.442048E-6	20.852377
1258.372114	-3.007300	3.402800	-10.232000	24.479174	-7.574058E-6	20.837476
1259.371981	-2.983700	3.403700	-10.155000	24.448543	-5.857931E-6	20.848471
1260.373881	-3.022400	3.400400	-10.277000	24.467240	-4.108803E-6	20.848737
1261.373391	-3.013400	3.400400	-10.246000	24.503974	-8.135099E-6	20.858564
1262.377172	-2.993800	3.401500	-10.183000	24.506420	-7.475051E-6	20.875716
1263.375082	-3.013100	3.401300	-10.247000	24.516693	-8.828150E-6	20.860420
1264.379401	-3.008800	3.399900	-10.228000	24.513417	-7.343041E-6	20.864719
1265.376830	-2.994700	3.400600	-10.183000	24.484989	-7.343041E-6	20.857535
1266.374420	-2.970700	3.400700	-10.102000	24.506127	-7.310038E-6	20.865465
1267.379863	-2.982900	3.400900	-10.143000	24.500409	-9.224179E-6	20.873004
1268.378790	-2.998500	3.400000	-10.194000	24.499574	-1.054428E-5	20.871692
1269.376467	-2.999900	3.400400	-10.199000	24.489862	-8.861153E-6	20.866691
1270.376675	-3.020200	3.399000	-10.264000	24.488243	-6.980014E-6	20.876445
1271.377848	-2.992100	3.398700	-10.168000	24.488508	-7.838077E-6	20.863436
1272.375650	-2.991000	3.399300	-10.167000	24.451780	-7.541055E-6	20.883010
1273.377947	-2.982600	3.399200	-10.137000	24.484396	-5.659917E-6	20.854569
1274.378344	-2.994800	3.398400	-10.176000	24.511288	-9.026165E-6	20.875858
1275.379653	-3.008200	3.398500	-10.223000	24.495465	-1.041227E-5	20.869941
1276.376966	-2.953800	3.399300	-10.040000	24.471440	-8.003089E-6	20.880449
1277.377193	-2.998500	3.398000	-10.188000	24.433663	-5.692919E-6	20.886171
1278.379719	-2.997600	3.397000	-10.182000	24.463288	-9.752218E-6	20.872271
1279.378397	-3.011500	3.396200	-10.227000	24.516412	-8.894155E-6	20.881947
1280.378804	-2.987800	3.397100	-10.149000	24.520562	-7.409046E-6	20.880421
1281.380631	-2.996800	3.395100	-10.174000	24.500117	-9.686214E-6	20.885986
1282.378135	-3.006500	3.396500	-10.210000	24.494296	-1.094031E-5	20.872087
1283.379641	-3.000600	3.396000	-10.189000	24.525052	-9.983235E-6	20.874021
1284.383601	-3.011300	3.395700	-10.225000	24.552597	-1.156735E-5	20.871786
1285.380836	-3.000600	3.395800	-10.188000	24.538037	-1.143534E-5	20.877566
1286.381597	-3.011700	3.394500	-10.223000	24.551502	-1.097331E-5	20.898187
1287.382228	-3.006600	3.395000	-10.206000	24.552990	-1.143534E-5	20.889723
1288.381090	-3.012500	3.394900	-10.226000	24.595895	-8.531128E-6	20.896736
1289.379424	-3.025200	3.393700	-10.266000	24.582903	-1.252442E-5	20.879434
1290.382509	-2.994700	3.394100	-10.162000	24.572700	-9.257182E-6	20.853551
1291.380028	-2.998300	3.393700	-10.174000	24.571055	-9.818223E-6	20.888408
1292.380811	-2.992900	3.394000	-10.157000	24.572219	-1.384452E-5	20.881517
1293.381773	-3.005500	3.393200	-10.197000	24.596346	-1.196338E-5	20.894344
1294.383127	-3.016400	3.392300	-10.231000	24.575643	-1.064328E-5	20.863142
1295.382854	-2.994500	3.392600	-10.157000	24.578090	-1.084130E-5	20.875079
1296.383618	-3.002200	3.392700	-10.185000	24.574056	-1.252442E-5	20.882885
1297.383277	-3.006700	3.391300	-10.195000	24.575932	-1.074229E-5	20.881923
1298.383183	-3.018100	3.391900	-10.236000	24.608305	-1.100631E-5	20.900179
1299.385592	-3.000400	3.391400	-10.174000	24.640263	-1.179837E-5	20.900951
1300.386816	-3.013700	3.390100	-10.216000	24.615832	-1.262343E-5	20.887344
1301.384861	-3.025500	3.389600	-10.255000	24.656211	-1.219440E-5	20.917901
1302.384338	-3.005300	3.391300	-10.191000	24.665985	-1.249142E-5	20.899735
1303.386147	-3.017000	3.390500	-10.228000	24.690562	-1.328348E-5	20.889311
1304.384095	-3.022800	3.389900	-10.246000	24.690859	-1.202939E-5	20.891031
1305.386712	-2.975700	3.389700	-10.085000	24.716011	-1.443856E-5	20.895408
1306.390126	-3.005700	3.389400	-10.186000	24.692871	-1.272244E-5	20.914859
1307.386234	-2.987300	3.389200	-10.124000	24.670092	-1.153435E-5	20.916657
1308.385656	-3.011100	3.388200	-10.201000	24.640142	-1.199638E-5	20.897985
1309.386644	-2.996800	3.388000	-10.152000	24.650524	-1.519762E-5	20.883748
1310.386260	-2.983500	3.387600	-10.106000	24.641920	-1.334948E-5	20.912097
1311.388622	-2.990900	3.387100	-10.129000	24.625653	-1.572566E-5	20.911895
1312.389888	-2.959700	3.388700	-10.029000	24.663805	-1.193038E-5	20.889014
1313.388428	-2.994700	3.386800	-10.141000	24.705314	-1.259043E-5	20.900321
1314.387347	-3.010200	3.386700	-10.193000	24.699650	-1.417454E-5	20.920713
1315.390423	-2.986300	3.387000	-10.114000	24.710323	-1.628670E-5	20.911510
1316.390347	-3.007700	3.386300	-10.183000	24.689513	-1.519762E-5	20.892999
1317.390080	-2.987100	3.388000	-10.120000	24.728109	-1.351450E-5	20.934097
1318.392897	-3.009700	3.386400	-10.192000	24.704516	-1.318447E-5	20.923699
1319.391664	-2.991700	3.387800	-10.134000	24.693790	-1.674873E-5	20.928582
1320.391514	-3.035200	3.385400	-10.274000	24.704456	-1.371251E-5	20.910838
1321.392574	-3.002200	3.385600	-10.163000	24.734495	-1.516462E-5	20.932919
1322.389827	-2.980000	3.385100	-10.087000	24.722695	-1.612169E-5	20.914916
1323.390701	-2.997300	3.385600	-10.146000	24.660938	-1.503261E-5	20.910317
1324.392748	-2.970100	3.386000	-10.055000	24.663203	-1.437256E-5	20.921124
1325.390852	-2.997400	3.383200	-10.140000	24.669488	-1.473559E-5	20.923637
1326.392698	-3.000100	3.383800	-10.151000	24.682517	-1.417454E-5	20.894514
1327.395812	-2.991400	3.384500	-10.123000	24.690453	-1.397653E-5	20.911011
1328.391619	-3.012200	3.383600	-10.191000	24.735450	-1.651772E-5	20.885519
1329.392156	-3.002700	3.383600	-10.159000	24.751928	-1.645171E-5	20.904424
1330.397851	-3.023700	3.381900	-10.225000	24.787688	-1.678174E-5	20.897637
1331.392281	-2.999900	3.381100	-10.142000	24.779157	-1.767280E-5	20.916101
1332.393491	-3.010400	3.382200	-10.181000	24.762555	-1.704576E-5	20.913191
1333.398295	-2.998700	3.382300	-10.142000	24.746575	-1.664973E-5	20.890044
1334.395546	-3.010600	3.380800	-10.177000	24.749163	-1.905890E-5	20.890745
1335.395910	-2.987800	3.381800	-10.104000	24.743079	-1.714476E-5	20.878002
1336.397846	-2.993700	3.380900	-10.121000	24.715713	-1.684774E-5	20.878514
1337.397349	-2.994200	3.381300	-10.124000	24.736159	-1.668273E-5	20.892868
1338.395991	-2.973500	3.381700	-10.054000	24.750321	-1.833285E-5	20.908974
1339.403132	-3.003900	3.380100	-10.153000	24.781012	-1.622070E-5	20.884301
1340.397697	-2.992100	3.380400	-10.113000	24.784119	-1.876188E-5	20.881728
1341.398333	-3.003900	3.379000	-10.150000	24.807121	-1.912491E-5	20.895802
1342.404966	-3.020100	3.378600	-10.203000	24.781594	-1.628670E-5	20.867816
1343.399555	-2.999700	3.379500	-10.136000	24.747692	-1.952094E-5	20.867933
1344.400397	-3.017100	3.379300	-10.195000	24.697322	-1.763980E-5	20.874759
1345.401287	-3.037900	3.378200	-10.261000	24.725076	-1.866288E-5	20.862782
1346.398519	-3.000500	3.379100	-10.137000	24.732248	-1.994997E-5	20.879935
1347.401853	-3.020500	3.380000	-10.208000	24.788616	-1.800283E-5	20.874862
1348.402937	-3.028100	3.376900	-10.225000	24.814504	-1.899290E-5	20.876187
1349.400120	-3.008000	3.378200	-10.161000	24.802705	-1.869588E-5	20.867665
1350.402731	-2.987400	3.377700	-10.088000	24.808802	-2.024699E-5	20.878050
1351.402483	-3.001000	3.377500	-10.135000	24.751794	-2.094004E-5	20.886273
1352.399940	-3.012900	3.376600	-10.173000	24.762797	-2.051101E-5	20.884987
1353.402109	-3.016000	3.375900	-10.180000	24.782440	-1.889389E-5	20.879570
1354.402362	-3.025400	3.375500	-10.210000	24.753599	-2.173210E-5	20.865327
1355.400405	-3.010100	3.375700	-10.160000	24.789546	-2.084104E-5	20.845926
1356.400181	-2.999000	3.376700	-10.126000	24.828165	-2.004898E-5	20.860027
1357.399497	-3.010500	3.375000	-10.160000	24.778770	-2.166610E-5	20.864982
1358.403616	-3.006200	3.375400	-10.146000	24.785650	-2.189711E-5	20.860033
1359.401864	-3.019900	3.374400	-10.190000	24.784576	-2.179811E-5	20.872230
1360.403019	-3.017400	3.374400	-10.181000	24.764369	-2.275518E-5	20.860013
1361.405401	-2.999400	3.375000	-10.122000	24.814438	-2.156709E-5	20.885603
1362.403449	-2.986800	3.374400	-10.078000	24.853832	-2.061002E-5	20.849751
1363.404211	-2.986500	3.375000	-10.079000	24.852732	-2.295319E-5	20.873776
1364.407166	-3.000200	3.373200	-10.119000	24.848047	-2.193012E-5	20.866229
1365.404265	-2.996300	3.374200	-10.110000	24.823790	-2.160009E-5	20.885031
1366.404168	-3.005100	3.372800	-10.134000	24.789281	-2.235915E-5	20.870788
1367.405813	-2.998100	3.372000	-10.109000	24.781883	-2.189711E-5	20.857675
1368.405414	-2.981300	3.374100	-10.058000	24.813829	-2.305220E-5	20.853226
1369.405564	-3.008800	3.372200	-10.145000	24.816095	-2.202912E-5	20.865456
1370.410488	-3.012300	3.371700	-10.155000	24.795733	-2.226014E-5	20.861617
1371.408367	-2.980700	3.373400	-10.053000	24.775864	-2.275518E-5	20.855428
1372.408360	-2.986100	3.371000	-10.065000	24.765657	-2.325021E-5	20.853720
1373.407967	-2.992700	3.370800	-10.087000	24.793565	-2.285418E-5	20.860864
1374.409163	-2.999800	3.370600	-10.110000	24.810781	-2.437230E-5	20.862494
1375.408197	-2.995500	3.371000	-10.097000	24.853994	-2.470232E-5	20.843276
1376.409636	-3.015700	3.369300	-10.160000	24.924418	-2.460331E-5	20.848049
1377.411975	-2.991400	3.370500	-10.082000	24.951196	-2.179811E-5	20.860702
1378.410517	-2.993000	3.369400	-10.084000	24.987150	-2.358024E-5	20.860753
1379.409677	-2.965600	3.368600	-9.989200	24.958949	-2.344823E-5	20.850940
1380.412504	-3.001600	3.368900	-10.112000	24.931763	-2.437230E-5	20.859214
1381.409795	-2.986700	3.368000	-10.059000	24.906783	-2.631944E-5	20.861643
1382.413786	-3.006300	3.368700	-10.127000	24.920224	-2.572540E-5	20.806858
1383.411922	-2.973900	3.367900	-10.015000	24.936539	-2.437230E-5	20.851206
1384.412564	-3.017200	3.368600	-10.162000	24.885809	-2.513135E-5	20.853869
1385.412160	-2.997600	3.367500	-10.093000	24.899749	-2.367925E-5	20.848420
1386.412764	-3.003300	3.367500	-10.113000	24.902875	-2.836559E-5	20.830221
1387.413595	-2.980000	3.367000	-10.033000	24.877746	-2.645145E-5	20.847199
1388.414011	-2.995400	3.367300	-10.086000	24.833576	-2.414128E-5	20.841275
1389.413086	-3.000000	3.365500	-10.096000	24.905638	-2.523036E-5	20.870925
1390.415040	-2.983400	3.366100	-10.041000	24.938927	-2.499934E-5	20.838905
1391.413545	-2.987100	3.366000	-10.054000	24.927680	-2.549438E-5	20.844212
1392.415091	-3.018500	3.365200	-10.157000	24.924211	-2.509835E-5	20.835040
1393.414952	-3.006400	3.365800	-10.118000	24.915074	-2.546138E-5	20.822551
1394.416078	-3.014500	3.363600	-10.139000	24.950142	-2.503235E-5	20.825032
1395.416307	-2.985100	3.364900	-10.044000	24.957895	-2.569239E-5	20.814796
1396.419007	-2.992300	3.363600	-10.064000	24.911916	-2.645145E-5	20.841666
1397.415482	-2.989800	3.363500	-10.056000	24.901303	-2.651745E-5	20.840971
1398.417346	-2.981500	3.363900	-10.028000	24.874123	-2.671547E-5	20.822701
1399.421274	-2.995400	3.364000	-10.076000	24.871948	-2.509835E-5	20.834269
1400.418162	-2.999300	3.363700	-10.088000	24.878097	-2.668247E-5	20.839491
1401.418038	-3.001800	3.364000	-10.097000	24.884277	-2.671547E-5	20.817720
1402.419784	-2.996500	3.362700	-10.075000	24.906805	-2.598942E-5	20.822786
1403.418774	-2.997300	3.362500	-10.078000	24.930432	-2.595641E-5	20.824215
1404.418755	-3.004500	3.361600	-10.098000	24.965202	-2.526336E-5	20.830665
1405.423560	-2.999000	3.360600	-10.078000	24.955405	-2.717750E-5	20.829840
1406.420766	-3.000700	3.361500	-10.085000	24.974275	-2.757353E-5	20.831711
1407.424408	-3.030300	3.360200	-10.181000	24.973673	-2.701249E-5	20.831581
1408.424974	-2.988900	3.361300	-10.045000	25.008876	-2.625344E-5	20.830880
1409.422442	-2.973400	3.361400	-9.993700	25.025202	-2.727651E-5	20.834939
1410.424029	-2.966800	3.361100	-9.970200	24.994504	-2.701249E-5	20.837317
1411.424876	-3.001800	3.359700	-10.084000	24.971998	-2.886063E-5	20.820417
1412.422265	-2.992600	3.359700	-10.053000	24.933029	-2.585741E-5	20.835830
1413.425157	-2.999500	3.360000	-10.077000	24.983161	-2.684748E-5	20.809810
1414.424795	-3.018100	3.358800	-10.136000	24.949997	-2.879462E-5	20.811136
1415.422422	-3.029600	3.359100	-10.176000	24.952974	-2.694649E-5	20.824555
1416.423703	-2.979100	3.359100	-10.006000	25.026271	-2.892663E-5	20.830797
1417.424370	-2.992500	3.358900	-10.051000	24.995159	-2.767254E-5	20.833707
1418.425538	-2.982200	3.357300	-10.011000	25.007293	-2.734252E-5	20.813170
1419.424229	-2.997200	3.357200	-10.062000	24.981163	-2.569239E-5	20.824400
1420.422644	-2.994100	3.358100	-10.053000	24.991957	-2.968569E-5	20.825277
1421.425889	-3.003700	3.357800	-10.085000	24.993776	-2.958668E-5	20.821413
1422.423204	-2.996500	3.356700	-10.058000	24.976518	-2.721051E-5	20.809306
1423.424869	-3.009100	3.356400	-10.099000	24.975037	-3.255690E-5	20.812561
1424.425827	-3.008600	3.357300	-10.099000	24.982214	-3.027973E-5	20.806963
1425.423514	-2.999700	3.354900	-10.063000	24.993901	-2.981770E-5	20.787399
1426.423397	-2.996800	3.355200	-10.054000	24.952861	-2.859661E-5	20.813062
1427.424286	-3.018600	3.355000	-10.126000	24.987489	-2.800256E-5	20.804197
1428.423978	-2.984700	3.354800	-10.012000	25.015793	-2.994971E-5	20.822650
1429.422649	-2.998500	3.353500	-10.054000	24.999066	-3.222688E-5	20.822456
1430.427263	-3.022500	3.353800	-10.136000	25.016894	-3.021373E-5	20.816169
1431.424900	-2.986700	3.354100	-10.017000	24.993437	-2.932266E-5	20.823918
1432.424017	-2.999300	3.353700	-10.058000	24.993535	-2.994971E-5	20.796042
1433.428119	-3.009300	3.353400	-10.091000	24.970104	-3.453705E-5	20.816619
1434.424937	-2.998200	3.353100	-10.052000	24.973754	-3.130281E-5	20.841144
1435.424770	-3.016400	3.352200	-10.110000	24.952794	-3.291993E-5	20.809676
1436.424273	-2.999200	3.352300	-10.053000	25.009229	-3.258990E-5	20.806104
1437.425392	-3.015900	3.352700	-10.110000	24.985487	-3.242489E-5	20.814990
1438.423904	-3.004100	3.352400	-10.071000	25.000559	-3.143482E-5	20.816368
1439.425365	-3.012200	3.352000	-10.096000	25.032325	-3.272191E-5	20.806528
1440.425670	-3.031100	3.350100	-10.153000	25.061404	-3.424002E-5	20.805372
1441.425797	-2.965200	3.350500	-9.933800	25.063792	-3.258990E-5	20.799708
1442.425325	-2.999100	3.350400	-10.047000	25.052126	-3.361298E-5	20.804593
1443.431559	-3.018700	3.350200	-10.112000	25.069422	-3.410802E-5	20.816265
1444.428068	-3.006300	3.350000	-10.070000	25.084576	-3.466906E-5	20.797813
1445.427817	-3.016900	3.349600	-10.105000	25.085023	-3.291993E-5	20.800632
1446.429549	-2.997700	3.350000	-10.042000	25.123178	-3.427303E-5	20.796261
1447.429057	-3.001800	3.348400	-10.051000	25.170572	-3.189685E-5	20.796424
1448.428917	-2.993100	3.349000	-10.023000	25.130005	-3.235889E-5	20.800743
1449.429499	-2.973500	3.348400	-9.955700	25.122927	-3.420702E-5	20.800750
1450.432782	-2.979800	3.349000	-9.979000	25.077589	-3.216087E-5	20.812136
1451.430829	-3.005600	3.348400	-10.063000	25.113642	-3.318395E-5	20.806602
1452.432591	-3.004100	3.347600	-10.055000	25.094128	-3.334896E-5	20.814988
1453.433417	-3.035300	3.346200	-10.155000	25.092368	-3.450404E-5	20.789514
1454.432388	-3.008200	3.346700	-10.067000	25.109405	-3.457005E-5	20.805668
1455.433215	-2.992500	3.347300	-10.016000	25.143361	-3.829932E-5	20.792814
1456.435833	-2.979000	3.346100	-9.966600	25.122165	-3.384400E-5	20.806149
1457.433247	-2.973200	3.346500	-9.949100	25.092013	-3.556012E-5	20.796744
1458.434051	-2.985300	3.346600	-9.988800	25.099965	-3.331596E-5	20.790502
1459.439179	-3.003600	3.345300	-10.047000	25.126681	-3.648419E-5	20.793139
1460.434120	-2.994100	3.345400	-10.015000	25.127315	-3.453705E-5	20.806578
1461.437033	-2.971100	3.345500	-9.939300	25.112984	-3.470206E-5	20.808786
1462.437909	-3.012100	3.345100	-10.075000	25.139648	-3.523010E-5	20.807104
1463.435177	-3.004000	3.344700	-10.047000	25.146810	-3.750727E-5	20.783000
1464.435462	-3.012600	3.343700	-10.072000	25.148441	-3.407501E-5	20.801707
1465.434305	-2.988000	3.344100	-9.991700	25.149909	-3.605516E-5	20.801284
1466.436031	-3.019000	3.343400	-10.092000	25.177439	-3.539511E-5	20.796206
1467.435622	-2.997100	3.344600	-10.023000	25.201080	-3.579114E-5	20.784378
1468.436819	-3.013700	3.343000	-10.074000	25.180170	-3.714424E-5	20.809378
1469.437095	-2.990000	3.342700	-9.994000	25.180797	-3.711124E-5	20.790568
1470.437191	-2.967500	3.343300	-9.920300	25.202245	-3.730925E-5	20.792186
1471.438820	-2.992000	3.340500	-9.993600	25.219409	-3.773828E-5	20.797564
1472.437085	-3.005200	3.340100	-10.036000	25.245469	-3.655020E-5	20.827046
1473.440492	-2.997400	3.340700	-10.012000	25.263622	-3.968543E-5	20.805917
1474.439354	-2.997700	3.340400	-10.013000	25.253899	-3.866235E-5	20.788569
1475.439650	-3.008600	3.339800	-10.047000	25.228843	-3.998245E-5	20.779060
1476.439375	-3.001300	3.340900	-10.026000	25.201483	-4.027947E-5	20.803275
1477.440751	-3.012500	3.340000	-10.060000	25.272144	-3.648419E-5	20.798351
1478.441736	-3.012700	3.339400	-10.060000	25.212146	-3.922339E-5	20.788375
1479.441056	-3.002900	3.339000	-10.026000	25.228605	-3.938841E-5	20.788304
1480.440488	-3.002600	3.339800	-10.027000	25.239390	-3.952041E-5	20.778269
1481.443007	-3.023800	3.339000	-10.096000	25.265088	-4.057649E-5	20.805018
1482.441016	-3.003600	3.338600	-10.027000	25.262151	-3.869535E-5	20.774568
1483.440468	-3.011200	3.337200	-10.048000	25.277587	-3.952041E-5	20.781531
1484.441156	-3.009300	3.337300	-10.041000	25.281081	-3.968543E-5	20.791203
1485.441181	-3.007200	3.338900	-10.040000	25.301944	-3.919039E-5	20.787021
1486.442679	-3.003100	3.336500	-10.018000	25.301582	-4.034548E-5	20.777648
1487.446333	-2.978800	3.337700	-9.941600	25.341419	-3.836533E-5	20.802948
1488.444246	-3.002600	3.337300	-10.020000	25.362411	-4.001545E-5	20.758118
1489.444449	-2.992800	3.337800	-9.988600	25.358983	-4.183059E-5	20.777436
1490.448598	-3.029700	3.335100	-10.104000	25.362794	-4.126954E-5	20.781262
1491.444460	-2.960400	3.336600	-9.876900	25.384723	-4.130255E-5	20.827936
1492.444548	-3.006500	3.335800	-10.029000	25.401005	-4.192959E-5	20.773163
1493.445158	-3.011000	3.335000	-10.041000	25.357388	-4.324969E-5	20.781998
1494.446047	-3.022400	3.333000	-10.072000	25.330504	-4.357971E-5	20.780134
1495.446342	-3.005200	3.334500	-10.020000	25.274941	-4.308468E-5	20.762279
1496.445428	-2.993100	3.334000	-9.978100	25.282220	-4.291967E-5	20.769587
1497.445618	-3.001500	3.333500	-10.004000	25.291575	-4.390974E-5	20.775187
1498.445937	-3.015100	3.333800	-10.051000	25.307768	-4.225962E-5	20.781488
1499.445265	-3.029700	3.331800	-10.093000	25.295386	-4.410775E-5	20.749141
1500.446620	-2.990300	3.332700	-9.964700	25.273566	-4.315068E-5	20.789348
1501.446161	-3.008200	3.331800	-10.022000	25.273282	-4.163257E-5	20.767252
1502.448278	-3.002600	3.331200	-10.002000	25.292419	-4.357971E-5	20.762283
1503.447618	-2.980200	3.331200	-9.926600	25.300694	-4.235862E-5	20.754470
1504.447249	-2.987900	3.330900	-9.950500	25.285763	-4.315068E-5	20.776938
1505.450103	-3.002600	3.330500	-9.999100	25.305637	-4.348071E-5	20.767020
1506.450458	-3.000200	3.330900	-9.992000	25.299634	-4.390974E-5	20.755303
1507.447880	-2.998700	3.329900	-9.984200	25.322723	-4.301867E-5	20.774218
1508.450538	-3.011600	3.330100	-10.029000	25.327142	-4.348071E-5	20.779604
1509.446588	-3.016300	3.329300	-10.041000	25.367126	-4.374473E-5	20.747205
1510.447131	-3.001900	3.328800	-9.992200	25.376946	-4.252364E-5	20.768920
1511.448226	-3.002800	3.330000	-9.998100	25.423049	-4.410775E-5	20.765426
1512.446880	-3.001500	3.330100	-9.994000	25.390913	-4.549386E-5	20.759236
1513.450160	-3.001200	3.327600	-9.986000	25.317803	-4.470180E-5	20.762640
1514.448936	-3.008100	3.326600	-10.006000	25.300525	-4.476780E-5	20.770897
1515.449631	-3.000400	3.328800	-9.987300	25.300816	-4.671495E-5	20.751274
1516.453928	-3.002600	3.327700	-9.990800	25.289205	-4.324969E-5	20.753841
1517.449136	-3.018700	3.326700	-10.041000	25.302591	-4.740800E-5	20.776764
1518.452001	-2.990700	3.326700	-9.948300	25.339768	-4.671495E-5	20.751977
1519.454683	-2.983700	3.327000	-9.925700	25.331696	-4.569187E-5	20.753355
1520.450088	-3.009300	3.325900	-10.008000	25.333514	-4.387674E-5	20.745224
1521.450864	-2.985200	3.326400	-9.928300	25.291518	-4.796904E-5	20.754266
1522.455338	-3.016600	3.325600	-10.031000	25.337126	-4.635192E-5	20.773981
1523.452283	-3.050100	3.324900	-10.140000	25.337391	-4.796904E-5	20.741530
1524.455405	-3.028200	3.324500	-10.066000	25.316251	-4.635192E-5	20.751598
1525.455241	-3.010600	3.324000	-10.006000	25.378256	-4.608790E-5	20.744630
1526.451382	-2.992600	3.324700	-9.948000	25.319202	-4.579088E-5	20.746975
1527.454879	-3.010800	3.325000	-10.010000	25.332646	-4.595589E-5	20.756680
1528.454804	-2.990700	3.324200	-9.940300	25.358574	-4.549386E-5	20.754739
1529.452867	-3.004400	3.323600	-9.984500	25.389611	-4.704497E-5	20.739435
1530.455986	-2.998300	3.322300	-9.960700	25.419522	-4.691296E-5	20.740072
1531.456831	-3.013000	3.321700	-10.008000	25.435111	-4.575788E-5	20.774694
1532.454037	-3.009300	3.321700	-9.995100	25.457577	-4.694596E-5	20.726128
1533.455647	-2.992100	3.321700	-9.937100	25.480927	-4.932214E-5	20.720653
1534.455513	-2.989400	3.321300	-9.928300	25.471026	-4.711098E-5	20.751963
1535.455281	-3.004900	3.322000	-9.981400	25.452688	-4.585688E-5	20.760102
1536.455451	-2.989100	3.321300	-9.927000	25.440050	-4.499882E-5	20.747410
1537.456238	-2.988700	3.320000	-9.921400	25.503406	-4.876110E-5	20.731373
1538.455740	-2.982700	3.320500	-9.904200	25.485652	-4.810105E-5	20.737726
1539.455802	-3.003200	3.318800	-9.966300	25.443311	-4.787003E-5	20.744520
1540.458171	-3.004300	3.318800	-9.969700	25.427264	-4.892611E-5	20.761124
1541.456042	-3.018000	3.317400	-10.012000	25.442484	-4.919013E-5	20.738000
1542.458064	-3.005500	3.318400	-9.972300	25.448578	-4.836507E-5	20.727998
1543.458091	-2.991400	3.318000	-9.925000	25.477001	-4.767202E-5	20.724771
1544.459047	-3.011400	3.317100	-9.987600	25.489845	-4.843107E-5	20.732928
1545.458932	-3.021800	3.315800	-10.019000	25.537282	-4.862909E-5	20.744531
1546.460489	-2.996700	3.318000	-9.942400	25.546286	-4.955316E-5	20.723226
1547.459983	-2.997500	3.316300	-9.939900	25.502737	-4.648393E-5	20.747772
1548.460283	-3.013300	3.316800	-9.994200	25.524412	-5.027921E-5	20.728760
1549.461124	-2.997800	3.317000	-9.943200	25.469486	-4.707797E-5	20.749943
1550.460814	-3.015000	3.316000	-9.997200	25.424053	-4.720998E-5	20.736088
1551.460782	-3.014200	3.315300	-9.991400	25.384318	-5.070824E-5	20.727008
1552.460373	-3.009200	3.314300	-9.972800	25.419003	-4.803504E-5	20.738603
1553.460284	-2.993000	3.315600	-9.922200	25.393744	-5.080725E-5	20.737896
1554.460032	-2.998500	3.315900	-9.941100	25.374545	-5.021321E-5	20.750861
1555.461884	-2.982400	3.314200	-9.883400	25.414982	-5.255638E-5	20.751161
1556.466961	-3.018800	3.313200	-10.001000	25.489347	-4.925613E-5	20.752343
1557.462839	-2.985700	3.313800	-9.893300	25.524500	-4.902512E-5	20.735962
1558.461315	-3.012700	3.312400	-9.977900	25.557531	-4.942115E-5	20.749694
1559.466591	-3.007000	3.312300	-9.959300	25.531176	-5.008120E-5	20.727493
1560.464246	-2.990600	3.311400	-9.902400	25.530918	-4.856308E-5	20.747623
1561.464755	-2.974800	3.312200	-9.852500	25.508683	-4.707797E-5	20.731931
1562.468755	-2.998400	3.311300	-9.928100	25.538642	-4.935514E-5	20.729300
1563.465920	-3.009200	3.312500	-9.966700	25.557133	-4.770502E-5	20.722740
1564.465486	-3.007700	3.311300	-9.958800	25.496344	-4.958616E-5	20.736135
1565.466720	-3.008400	3.311200	-9.959700	25.529712	-4.866209E-5	20.755421
1566.468454	-3.007200	3.310700	-9.955100	25.516052	-4.971817E-5	20.717046
1567.467436	-3.008200	3.309200	-9.953800	25.503396	-5.024621E-5	20.732312
1568.467782	-3.030100	3.307400	-10.021000	25.553787	-5.150030E-5	20.717483
1569.469927	-2.992800	3.309600	-9.904100	25.591410	-5.186333E-5	20.739621
1570.467728	-2.993000	3.309200	-9.904100	25.577323	-5.169831E-5	20.720731
1571.468125	-2.997800	3.309300	-9.920000	25.604301	-5.087325E-5	20.744981
1572.470357	-2.992800	3.308300	-9.900800	25.580075	-5.216035E-5	20.735349
1573.468847	-2.989000	3.308300	-9.888200	25.534886	-5.179732E-5	20.746867
1574.469708	-3.000100	3.309000	-9.925400	25.556192	-5.242437E-5	20.740287
1575.471716	-2.973600	3.307200	-9.833100	25.533957	-5.285340E-5	20.752571
1576.469922	-2.999200	3.307600	-9.919400	25.509671	-5.242437E-5	20.723439
1577.470387	-3.007600	3.305400	-9.941200	25.512854	-5.080725E-5	20.737542
1578.471023	-2.978900	3.306600	-9.848900	25.509161	-5.483355E-5	20.724350
1579.471892	-2.987900	3.306200	-9.877100	25.533411	-5.295241E-5	20.706502
1580.471153	-2.992400	3.304800	-9.888500	25.545616	-5.357945E-5	20.742469
1581.473323	-2.999100	3.305600	-9.913200	25.589842	-5.420650E-5	20.729985
1582.473174	-3.006200	3.303400	-9.929100	25.621249	-5.430551E-5	20.740191
1583.473582	-3.034800	3.304600	-10.027000	25.664431	-5.397548E-5	20.721446
1584.473945	-3.005700	3.304800	-9.932300	25.660731	-5.407449E-5	20.738120
1585.471586	-3.006600	3.303400	-9.931000	25.625726	-5.420650E-5	20.731886
1586.474102	-3.001000	3.303800	-9.914000	25.627648	-5.410749E-5	20.736661
1587.474163	-2.986200	3.302800	-9.862000	25.612437	-5.374447E-5	20.726125
1588.474847	-2.974600	3.302500	-9.822800	25.593696	-5.390948E-5	20.710622
1589.475517	-2.969000	3.302100	-9.803300	25.605060	-5.414050E-5	20.761392
1590.474623	-3.005500	3.302000	-9.922800	25.534034	-5.585662E-5	20.741743
1591.475352	-3.011300	3.301300	-9.940400	25.542806	-5.618665E-5	20.741069
1592.475707	-3.018300	3.299600	-9.958400	25.549184	-5.800178E-5	20.737517
1593.476527	-2.989900	3.300400	-9.867100	25.530254	-5.763875E-5	20.726092
1594.477027	-2.990400	3.300000	-9.867900	25.534887	-5.724273E-5	20.737384
1595.480063	-2.993800	3.300200	-9.878900	25.604161	-5.579062E-5	20.752428
1596.477833	-3.008500	3.297700	-9.919900	25.618771	-5.536159E-5	20.758566
1597.478622	-2.998100	3.299000	-9.889700	25.630039	-5.483355E-5	20.741433
1598.480844	-3.001200	3.297400	-9.895900	25.666681	-5.658268E-5	20.743148
1599.477463	-2.999600	3.297700	-9.889700	25.728117	-5.734173E-5	20.755543
1600.477488	-3.003200	3.297500	-9.902600	25.696419	-5.727573E-5	20.742196
1601.481442	-2.989800	3.297400	-9.857600	25.698813	-5.872783E-5	20.753136
1602.478359	-3.013400	3.296200	-9.931500	25.722003	-5.720972E-5	20.742763
1603.480394	-3.010100	3.296600	-9.922400	25.714561	-5.674769E-5	20.745245
1604.482561	-2.984500	3.296800	-9.838600	25.760553	-5.595563E-5	20.743553
1605.480851	-2.995300	3.295800	-9.871000	25.761815	-5.918987E-5	20.734388
1606.479488	-3.005800	3.295800	-9.905600	25.727886	-5.658268E-5	20.736818
1607.483734	-3.013400	3.296000	-9.930600	25.664669	-5.915687E-5	20.751084
1608.480112	-3.013700	3.295500	-9.930400	25.601466	-6.008094E-5	20.751618
1609.482104	-2.998100	3.293600	-9.872800	25.619414	-5.707771E-5	20.742616
1610.483594	-3.009800	3.293800	-9.913100	25.622210	-5.773776E-5	20.724087
1611.480845	-3.008800	3.294400	-9.910400	25.576371	-5.948689E-5	20.723094
1612.482145	-3.013200	3.294000	-9.924500	25.567047	-5.882684E-5	20.748344
1613.485665	-2.984500	3.293800	-9.829600	25.596617	-5.892585E-5	20.757180
1614.482606	-2.978800	3.291900	-9.805400	25.604865	-5.595563E-5	20.747919
1615.484829	-2.996900	3.291800	-9.864600	25.609062	-5.806779E-5	20.746919
1616.481192	-3.009100	3.291700	-9.904200	25.615285	-5.905786E-5	20.736572
1617.483853	-3.000200	3.291400	-9.873600	25.657387	-5.991592E-5	20.761789
1618.484262	-3.013700	3.290400	-9.914500	25.662038	-5.978391E-5	20.756503
1619.483082	-3.014900	3.290000	-9.918100	25.654285	-5.876084E-5	20.765786
1620.485844	-3.007000	3.291100	-9.893800	25.651719	-5.971791E-5	20.723377
1621.484746	-3.022900	3.289300	-9.942200	25.670378	-6.011394E-5	20.757292
1622.485191	-2.979900	3.290400	-9.804400	25.626978	-5.975091E-5	20.754007
1623.487419	-3.022900	3.288100	-9.937700	25.607106	-5.975091E-5	20.755859
1624.484230	-2.996600	3.287500	-9.849500	25.582186	-5.955290E-5	20.771136
1625.485233	-3.018100	3.288500	-9.923000	25.564983	-6.328217E-5	20.749117
1626.488764	-3.013400	3.287200	-9.904800	25.621276	-5.826580E-5	20.744013
1627.485515	-3.017400	3.289600	-9.925300	25.655164	-5.958590E-5	20.749599
1628.486836	-3.020400	3.286600	-9.925900	25.678013	-5.810079E-5	20.760694
1629.488572	-2.998000	3.287500	-9.855000	25.696542	-5.961890E-5	20.745640
1630.486173	-3.033800	3.285400	-9.966500	25.717811	-5.968491E-5	20.767003
1631.484100	-2.993300	3.286500	-9.836500	25.745198	-5.978391E-5	20.750415
1632.488222	-2.978800	3.286000	-9.787100	25.786395	-5.998193E-5	20.760976
1633.485973	-2.981900	3.285800	-9.797500	25.794479	-6.027895E-5	20.772416
1634.488152	-3.002700	3.285000	-9.862500	25.809592	-6.153304E-5	20.758198
1635.491037	-3.007800	3.284500	-9.878300	25.830995	-6.199508E-5	20.751723
1636.487237	-3.007200	3.283200	-9.871000	25.844167	-6.047696E-5	20.748834
1637.488471	-2.994500	3.283700	-9.832300	25.890191	-6.054297E-5	20.744807
1638.491200	-3.020300	3.284200	-9.918600	25.851804	-6.050997E-5	20.763144
1639.488703	-3.017500	3.281900	-9.902700	25.785471	-6.216009E-5	20.757203
1640.489276	-3.008800	3.281900	-9.874300	25.778870	-6.014694E-5	20.755788
1641.494958	-2.990100	3.282700	-9.815100	25.813620	-6.017994E-5	20.748968
1642.491668	-2.995500	3.280900	-9.826900	25.772270	-6.308416E-5	20.764331
1643.490043	-2.977800	3.281500	-9.770200	25.752193	-6.308416E-5	20.756493
1644.492563	-2.992900	3.280500	-9.817300	25.736487	-6.301815E-5	20.766321
1645.490633	-2.981400	3.279700	-9.777500	25.714573	-6.384321E-5	20.765173
1646.491417	-3.011500	3.282900	-9.885800	25.692179	-6.173106E-5	20.771130
1647.492806	-2.990600	3.280900	-9.810300	25.660738	-6.136803E-5	20.740024
1648.489532	-3.005200	3.279000	-9.853000	25.701706	-6.219309E-5	20.752723
1649.491853	-3.000900	3.279900	-9.841700	25.740268	-6.123602E-5	20.776283
1650.493596	-2.998200	3.277700	-9.826400	25.801169	-6.156604E-5	20.779610
1651.492187	-2.995300	3.277700	-9.816300	25.866650	-5.905786E-5	20.782325
1652.493582	-2.995500	3.277400	-9.816000	25.868786	-6.189607E-5	20.774513
1653.494302	-3.008600	3.275900	-9.854400	25.906829	-6.268813E-5	20.772428
1654.497205	-3.000600	3.276200	-9.829500	25.892522	-6.093900E-5	20.778444
1655.496801	-2.989700	3.277000	-9.796500	25.912869	-6.255612E-5	20.748149
1656.497871	-3.016900	3.275000	-9.880000	25.935900	-6.054297E-5	20.761330
1657.498077	-3.000700	3.276300	-9.830300	25.865574	-6.232510E-5	20.757063
1658.497370	-3.025400	3.275300	-9.908400	25.833143	-6.255612E-5	20.759571
1659.498339	-3.011400	3.274000	-9.858300	25.797380	-6.295215E-5	20.779123
1660.498104	-3.015200	3.273200	-9.868900	25.764028	-6.397522E-5	20.774544
1661.498167	-2.994000	3.274400	-9.802300	25.733300	-6.021294E-5	20.768810
1662.498836	-2.994200	3.273400	-9.800500	25.785466	-6.377721E-5	20.772371
1663.499086	-2.998500	3.273100	-9.813500	25.800743	-6.150004E-5	20.787717
1664.497561	-2.992500	3.273100	-9.794100	25.755546	-6.255612E-5	20.775983
1665.504602	-3.021200	3.273100	-9.886000	25.746663	-6.324917E-5	20.769430
1666.501474	-2.990800	3.272600	-9.787400	25.795806	-6.126902E-5	20.785603
1667.501380	-3.037400	3.270500	-9.932800	25.808301	-6.064198E-5	20.792464
1668.500844	-2.979500	3.271100	-9.744700	25.866281	-6.324917E-5	20.762988
1669.500834	-3.010100	3.270600	-9.843200	25.884730	-6.255612E-5	20.781048
1670.500300	-3.005900	3.270900	-9.831300	25.894531	-6.255612E-5	20.795635
1671.501623	-3.013400	3.268800	-9.849200	25.849158	-6.371120E-5	20.780875
1672.502720	-3.005700	3.269500	-9.826100	25.802067	-6.348019E-5	20.779563
1673.503136	-3.014900	3.269100	-9.855300	25.787604	-6.258912E-5	20.795382
1674.501672	-2.992700	3.268500	-9.779800	25.788969	-6.136803E-5	20.773519
1675.502698	-3.013000	3.268300	-9.845700	25.785466	-6.308416E-5	20.791811
1676.502232	-3.014800	3.268000	-9.852000	25.805549	-6.354619E-5	20.778794
1677.501374	-3.014300	3.266600	-9.845600	25.813777	-6.295215E-5	20.780421
1678.500015	-2.985900	3.267300	-9.755300	25.844809	-6.532832E-5	20.786938
1679.501905	-3.002700	3.265400	-9.804200	25.878621	-6.361220E-5	20.796248
1680.502505	-2.986600	3.265900	-9.752900	25.915709	-6.582336E-5	20.790358
1681.503284	-2.988600	3.265300	-9.757800	25.857629	-6.318316E-5	20.764254
1682.502859	-3.003000	3.264700	-9.803100	25.842849	-6.437125E-5	20.821005
1683.503030	-3.006100	3.263700	-9.809700	25.894759	-6.315016E-5	20.792545
1684.503538	-3.019800	3.264300	-9.855600	25.860776	-6.579036E-5	20.790649
1685.504324	-3.000600	3.262700	-9.789200	25.849437	-6.562535E-5	20.797277
1686.505451	-3.001500	3.265100	-9.799600	25.797755	-6.549334E-5	20.812217
1687.504143	-2.971400	3.262800	-9.693800	25.805950	-6.625239E-5	20.807646
1688.504418	-2.991700	3.260700	-9.754600	25.839866	-6.711046E-5	20.797145
1689.506166	-3.008800	3.261000	-9.810900	25.858566	-6.555934E-5	20.780368
1690.505025	-3.004300	3.260600	-9.794600	25.893922	-6.598837E-5	20.817308
1691.504209	-2.987000	3.260100	-9.737400	25.949656	-6.381021E-5	20.799332
1692.509477	-3.019200	3.260600	-9.843800	25.956976	-6.588937E-5	20.800996
1693.505779	-3.003900	3.260000	-9.792100	25.961231	-6.654941E-5	20.806219
1694.506368	-3.026800	3.260000	-9.865500	25.927523	-6.786951E-5	20.804124
1695.510064	-2.997600	3.259000	-9.767400	25.922494	-6.615338E-5	20.791011
1696.507576	-3.024300	3.259300	-9.856600	25.921378	-6.684644E-5	20.802217
1697.506764	-2.979300	3.259300	-9.709400	25.974537	-6.750648E-5	20.791138
1698.509245	-2.993900	3.259500	-9.757700	25.944177	-6.701145E-5	20.809000
1699.507118	-2.989700	3.257400	-9.737900	25.961578	-6.819954E-5	20.835491
1700.508923	-3.003400	3.257900	-9.783800	25.940639	-6.661542E-5	20.807343
1701.513377	-3.011100	3.256200	-9.804100	25.912612	-6.879358E-5	20.803368
1702.508774	-3.000200	3.256800	-9.770000	25.943642	-6.869457E-5	20.802773
1703.512267	-3.007500	3.256000	-9.791300	25.942842	-6.786951E-5	20.797228
1704.515055	-2.999500	3.255400	-9.763400	25.930613	-6.773750E-5	20.806279
1705.512222	-3.005200	3.253400	-9.775900	25.928338	-6.823254E-5	20.789769
1706.512402	-2.992200	3.254900	-9.738400	25.912848	-6.968465E-5	20.808821
1707.512607	-3.000900	3.252800	-9.760600	25.910393	-6.800152E-5	20.817734
1708.514229	-2.982200	3.254400	-9.703600	25.926552	-6.925561E-5	20.805044
1709.513375	-2.994200	3.253100	-9.739200	25.970675	-6.965164E-5	20.794370
1710.513763	-2.993200	3.253200	-9.736700	26.008155	-6.654941E-5	20.786507
1711.513659	-3.008900	3.253400	-9.788100	26.062202	-6.687944E-5	20.805248
1712.515290	-3.011500	3.251200	-9.790000	26.050910	-6.777050E-5	20.800540
1713.514558	-3.007700	3.252100	-9.780700	26.039772	-6.961864E-5	20.789824
1714.513347	-2.986600	3.250400	-9.705900	26.016604	-6.823254E-5	20.810169
1715.514247	-3.001200	3.250200	-9.753000	26.039899	-6.843055E-5	20.809866
1716.516704	-2.986300	3.251800	-9.709900	26.020455	-6.895859E-5	20.824943
1717.516708	-3.006900	3.248700	-9.768000	25.986621	-6.876058E-5	20.805175
1718.515906	-2.987300	3.248800	-9.704500	25.973594	-7.083973E-5	20.820062
1719.517776	-3.008800	3.249100	-9.774800	25.944633	-6.846356E-5	20.801872
1720.516571	-2.993800	3.249300	-9.727500	25.932738	-7.130177E-5	20.820268
1721.516751	-2.988600	3.247600	-9.705200	25.936943	-6.826554E-5	20.794146
1722.516574	-3.001900	3.248500	-9.751100	25.957957	-6.909060E-5	20.807672
1723.520062	-3.010900	3.245900	-9.772600	25.972493	-6.862857E-5	20.828439
1724.517926	-3.001600	3.245800	-9.741300	25.975564	-6.625239E-5	20.813033
1725.518260	-2.993500	3.246700	-9.718400	25.967369	-6.932162E-5	20.833248
1726.519084	-3.016600	3.244900	-9.787700	25.997290	-6.905760E-5	20.819213
1727.517802	-3.003800	3.244800	-9.746100	25.991034	-6.915661E-5	20.812928
1728.517315	-3.011400	3.244700	-9.770700	25.960417	-6.829854E-5	20.821996
1729.517096	-3.000100	3.244000	-9.731800	25.989111	-7.093874E-5	20.815263
1730.516086	-3.009000	3.244300	-9.761200	26.039608	-6.961864E-5	20.833280
1731.518218	-2.981100	3.244100	-9.670300	26.086155	-6.915661E-5	20.798969
1732.519329	-3.006200	3.243400	-9.748600	26.123340	-6.945363E-5	20.805986
1733.519797	-2.965200	3.243000	-9.615500	26.135454	-6.902460E-5	20.802037
1734.519848	-3.016400	3.241400	-9.776400	26.156852	-6.869457E-5	20.809787
1735.522324	-3.023400	3.239900	-9.794500	26.133403	-7.021269E-5	20.824631
1736.522646	-3.002800	3.240600	-9.730500	26.128426	-7.314990E-5	20.812519
1737.521847	-3.010200	3.239400	-9.750500	26.155572	-7.156579E-5	20.824148
1738.526710	-3.012400	3.239900	-9.758600	26.145980	-6.942063E-5	20.832053
1739.522654	-2.994500	3.240800	-9.704400	26.159535	-6.998167E-5	20.838087
1740.522664	-2.993200	3.239400	-9.695400	26.197403	-6.988266E-5	20.840578
1741.524264	-2.980300	3.239000	-9.652700	26.168474	-6.945363E-5	20.836638
1742.523190	-3.032100	3.237300	-9.814900	26.114894	-7.209382E-5	20.828792
1743.525002	-3.011900	3.237500	-9.749600	26.146123	-6.879358E-5	20.847370
1744.527625	-3.031500	3.235600	-9.807100	26.155543	-6.975065E-5	20.820800
1745.526361	-3.011200	3.236700	-9.745900	26.161206	-7.024569E-5	20.820326
1746.526664	-2.973800	3.237100	-9.625700	26.156890	-6.869457E-5	20.828317
1747.526484	-2.984500	3.237900	-9.663100	26.137491	-6.790251E-5	20.837748
1748.525812	-2.988400	3.235300	-9.667800	26.117732	-7.103775E-5	20.852980
1749.524130	-3.002500	3.234700	-9.711900	26.128928	-6.951963E-5	20.845265
1750.527251	-2.998200	3.234700	-9.697200	26.117697	-7.153278E-5	20.852945
1751.527602	-3.012600	3.233100	-9.739000	26.086448	-7.031169E-5	20.849048
1752.526142	-3.009200	3.234200	-9.731400	26.097903	-7.021269E-5	20.848704
1753.528741	-2.989900	3.232600	-9.664600	26.086946	-6.902460E-5	20.827264
1754.529419	-2.976000	3.233400	-9.621500	26.085196	-7.222583E-5	20.866281
1755.529691	-3.003600	3.232100	-9.707400	26.037677	-7.318291E-5	20.864056
1756.530074	-3.004900	3.231800	-9.710700	26.049364	-7.318291E-5	20.853039
1757.529335	-3.001100	3.230800	-9.695200	26.076503	-7.143378E-5	20.852806
1758.530604	-2.976600	3.231000	-9.615700	26.045280	-6.895859E-5	20.850832
1759.530758	-2.981400	3.229200	-9.626200	26.087185	-7.001467E-5	20.862590
1760.531415	-3.020200	3.228900	-9.750900	26.123890	-7.262186E-5	20.837832
1761.535492	-3.006200	3.229600	-9.707900	26.136459	-7.070772E-5	20.863736
1762.530843	-2.993000	3.227600	-9.659400	26.081221	-7.093874E-5	20.860391
1763.530231	-2.998600	3.228400	-9.679800	26.120183	-7.107075E-5	20.845960
1764.534445	-3.022600	3.225800	-9.749800	26.079556	-7.041070E-5	20.836434
1765.532379	-3.008600	3.226800	-9.706800	26.083932	-7.123576E-5	20.860270
1766.534546	-3.008100	3.226200	-9.704100	26.116132	-7.021269E-5	20.846632
1767.537374	-2.999900	3.228100	-9.683500	26.121220	-6.951963E-5	20.841313
1768.534705	-2.983600	3.225100	-9.621600	26.140687	-7.225884E-5	20.877941
1769.535745	-2.995200	3.225100	-9.659300	26.156963	-7.027869E-5	20.863002
1770.536570	-2.991200	3.224500	-9.643900	26.203745	-7.103775E-5	20.849320
1771.534956	-3.022500	3.222900	-9.740700	26.204689	-7.110375E-5	20.845053
1772.537226	-2.989000	3.225500	-9.640800	26.241972	-7.215983E-5	20.874932
1773.539567	-3.003400	3.224100	-9.682500	26.211912	-7.262186E-5	20.852785
1774.538280	-2.994900	3.224300	-9.655000	26.194985	-7.255586E-5	20.847630
1775.540358	-3.014500	3.220900	-9.708500	26.213601	-7.156579E-5	20.870129
1776.540926	-3.001100	3.223100	-9.672100	26.270658	-7.371094E-5	20.857767
1777.539134	-3.009600	3.222400	-9.697700	26.302355	-7.087273E-5	20.874921
1778.540062	-3.010900	3.220600	-9.696400	26.324873	-7.331492E-5	20.880481
1779.541902	-3.030000	3.220000	-9.755700	26.293691	-7.314990E-5	20.865740
1780.539253	-2.997400	3.219700	-9.650000	26.248644	-7.182980E-5	20.887799
1781.541266	-2.985700	3.220600	-9.614900	26.250797	-7.351293E-5	20.880481
1782.541098	-2.981800	3.217500	-9.593100	26.212295	-7.608712E-5	20.894893
1783.543522	-2.996300	3.218200	-9.641800	26.203398	-7.232484E-5	20.880264
1784.543434	-3.014800	3.217500	-9.699200	26.245169	-7.357893E-5	20.866764
1785.544479	-2.989200	3.220600	-9.626400	26.245417	-7.513005E-5	20.885031
1786.542585	-3.005100	3.215600	-9.662200	26.227341	-7.407397E-5	20.883461
1787.544771	-2.986700	3.216800	-9.606200	26.171062	-7.532806E-5	20.875272
1788.546266	-3.009100	3.214300	-9.671200	26.173352	-7.423898E-5	20.852445
1789.543304	-3.003500	3.214200	-9.653300	26.171824	-7.770424E-5	20.878409
1790.544716	-2.970300	3.213700	-9.544800	26.211160	-7.447000E-5	20.864831
1791.545805	-2.991400	3.214200	-9.614300	26.207411	-7.331492E-5	20.874814
1792.542223	-3.000700	3.213000	-9.640800	26.221686	-7.595511E-5	20.860710
1793.546247	-3.001500	3.213300	-9.643100	26.231208	-7.463501E-5	20.874072
1794.545258	-3.021600	3.211800	-9.704100	26.263541	-7.450300E-5	20.889967
1795.546751	-3.023600	3.212300	-9.711800	26.233190	-7.562509E-5	20.885071
1796.548369	-3.003100	3.210700	-9.640900	26.203635	-7.668116E-5	20.878605
1797.547083	-2.967600	3.212500	-9.532500	26.201515	-7.694518E-5	20.868890
1798.547549	-2.961400	3.210400	-9.507000	26.206800	-7.513005E-5	20.900751
1799.549319	-2.997600	3.211500	-9.626200	26.224001	-7.730821E-5	20.888165
1800.548703	-2.989400	3.209600	-9.594300	26.242659	-7.707719E-5	20.885104
1801.550036	-3.004200	3.208300	-9.637500	26.247987	-7.720920E-5	20.871967
1802.551546	-3.004100	3.207700	-9.635400	26.267237	-7.486603E-5	20.903163
1803.551248	-2.996600	3.208200	-9.612500	26.262664	-7.404097E-5	20.872492
1804.551053	-2.982400	3.206700	-9.562000	26.280344	-7.707719E-5	20.876983
1805.551039	-3.007800	3.205600	-9.641200	26.242006	-7.645015E-5	20.881603
1806.551776	-3.013600	3.205200	-9.658400	26.266704	-7.691218E-5	20.871810
1807.551388	-3.001700	3.204000	-9.616500	26.275025	-7.648315E-5	20.872112
1808.553394	-3.014900	3.203900	-9.658600	26.318080	-7.499804E-5	20.867491
1809.552407	-3.018500	3.203400	-9.669100	26.386292	-7.902434E-5	20.863026
1810.553072	-3.006400	3.203700	-9.631000	26.393402	-7.674717E-5	20.858793
1811.552756	-3.001100	3.203400	-9.613300	26.334052	-7.720920E-5	20.856043
1812.552735	-3.006900	3.204000	-9.632900	26.361793	-7.522906E-5	20.872542
1813.552963	-2.997000	3.203600	-9.600500	26.338032	-7.470102E-5	20.857672
1814.553274	-2.997000	3.201300	-9.593700	26.364246	-7.826528E-5	20.860310
1815.553578	-2.995400	3.199300	-9.582800	26.416630	-7.575710E-5	20.859853
1816.556100	-3.000900	3.199600	-9.600400	26.459010	-7.542707E-5	20.873050
1817.554327	-2.998900	3.199800	-9.595300	26.427651	-7.480003E-5	20.849120
1818.554318	-3.001900	3.197900	-9.598900	26.409184	-7.707719E-5	20.856637
1819.557631	-3.013800	3.198000	-9.636700	26.392475	-7.522906E-5	20.864499
1820.555334	-3.004900	3.199000	-9.611700	26.373029	-7.565809E-5	20.845430
1821.555091	-3.008000	3.195400	-9.610700	26.364383	-7.615313E-5	20.851439
1822.558259	-3.033800	3.194900	-9.692100	26.358859	-7.430499E-5	20.856318
1823.554188	-3.010000	3.195600	-9.617800	26.431888	-7.384295E-5	20.857645
1824.558033	-3.010000	3.194600	-9.615300	26.426956	-7.493203E-5	20.855533
1825.554450	-3.017700	3.195600	-9.642000	26.444394	-7.585610E-5	20.864999
1826.555439	-3.007700	3.193000	-9.602700	26.459044	-7.625213E-5	20.859809
1827.555478	-3.009400	3.192400	-9.606500	26.443733	-7.608712E-5	20.854378
1828.557910	-3.002500	3.192100	-9.583900	26.398007	-7.621913E-5	20.862947
1829.555824	-3.010400	3.191600	-9.607800	26.433715	-7.427199E-5	20.851895
1830.556808	-2.995700	3.190700	-9.557900	26.403703	-7.542707E-5	20.850654
1831.557703	-3.023700	3.189200	-9.642700	26.369315	-7.796826E-5	20.873938
1832.559126	-2.977100	3.189900	-9.495900	26.354638	-7.476702E-5	20.834533
1833.558131	-3.000900	3.189000	-9.569000	26.369555	-7.539407E-5	20.838620
1834.559495	-3.006900	3.186300	-9.579400	26.356268	-7.737422E-5	20.841861
1835.558336	-3.031000	3.186700	-9.658200	26.356011	-7.539407E-5	20.820266
1836.558642	-2.992200	3.188200	-9.538900	26.406808	-7.384295E-5	20.818688
1837.560080	-3.005700	3.185800	-9.574800	26.372557	-7.542707E-5	20.834051
1838.557719	-3.010700	3.184700	-9.587500	26.340845	-7.866131E-5	20.833473
1839.558415	-3.014100	3.185200	-9.599200	26.329419	-7.645015E-5	20.844275
1840.559711	-3.013800	3.184700	-9.597500	26.352991	-7.661516E-5	20.831456
1841.558392	-3.007100	3.183600	-9.572800	26.340673	-7.602112E-5	20.837094
1842.560046	-2.996900	3.182800	-9.538000	26.401516	-7.513005E-5	20.836128
1843.562427	-3.006700	3.182000	-9.566700	26.354784	-7.767124E-5	20.834206
1844.561004	-2.995700	3.181500	-9.530200	26.333348	-7.744022E-5	20.824042
1845.560859	-2.985100	3.181200	-9.495900	26.310178	-7.734121E-5	20.817826
1846.563118	-3.009200	3.180400	-9.569500	26.339146	-7.684618E-5	20.848835
1847.563315	-2.999700	3.178600	-9.534200	26.371108	-7.869431E-5	20.808886
1848.559700	-3.011700	3.179900	-9.575800	26.358867	-7.928836E-5	20.831671
1849.561968	-2.990600	3.176800	-9.499800	26.372789	-7.750623E-5	20.833809
1850.563257	-2.995400	3.176500	-9.513700	26.399809	-7.714320E-5	20.833938
1851.560775	-3.007100	3.175200	-9.547700	26.434933	-8.047645E-5	20.840318
1852.561465	-2.989200	3.175200	-9.490500	26.462534	-7.720920E-5	20.839137
1853.563596	-2.990500	3.174600	-9.493400	26.474808	-7.816627E-5	20.823499
1854.561915	-2.985500	3.173300	-9.473200	26.453880	-7.836429E-5	20.824275
1855.562548	-3.015400	3.172800	-9.567100	26.451067	-7.846330E-5	20.818602
1856.567178	-2.996500	3.173200	-9.507500	26.494681	-7.806727E-5	20.813602
1857.568012	-3.012900	3.172400	-9.557300	26.494972	-7.876032E-5	20.832387
1858.564446	-2.992200	3.171800	-9.489300	26.501268	-7.915635E-5	20.817378
1859.563515	-2.997000	3.170600	-9.501000	26.556012	-7.839729E-5	20.841585
1860.567042	-3.012700	3.169900	-9.548400	26.558979	-7.806727E-5	20.829395
1861.565090	-3.013400	3.167500	-9.544100	26.554502	-7.602112E-5	20.819680
1862.565207	-3.018800	3.168000	-9.561900	26.531783	-7.975039E-5	20.807274
1863.568179	-2.993500	3.167600	-9.480700	26.520651	-7.651615E-5	20.825008
1864.565320	-3.018000	3.165400	-9.551900	26.503746	-7.697819E-5	20.813231
1865.566809	-2.995200	3.166100	-9.481800	26.538799	-7.744022E-5	20.828551
1866.567603	-3.006800	3.164700	-9.514900	26.591131	-7.879332E-5	20.828999
1867.564727	-3.016000	3.162700	-9.537600	26.602031	-7.720920E-5	20.811033
1868.565928	-3.001600	3.163600	-9.494500	26.544305	-8.037744E-5	20.798998
1869.567186	-3.015800	3.162500	-9.535700	26.505428	-7.727521E-5	20.792162
1870.565678	-2.979500	3.162500	-9.421900	26.520257	-7.925536E-5	20.825085
1871.568330	-3.013600	3.159400	-9.520000	26.546887	-7.866131E-5	20.830990
1872.571114	-3.005500	3.159500	-9.495300	26.571972	-8.024543E-5	20.803576
1873.568088	-3.003200	3.159400	-9.487000	26.561046	-7.638414E-5	20.798283
1874.572302	-3.025900	3.158200	-9.555700	26.573396	-7.961838E-5	20.822551
1875.569170	-3.018400	3.155700	-9.524300	26.627827	-7.833129E-5	20.815628
1876.568277	-2.988800	3.157700	-9.437300	26.626069	-7.895833E-5	20.790628
1877.569820	-3.010400	3.156500	-9.501800	26.534528	-8.047645E-5	20.837060
1878.570287	-3.001400	3.155900	-9.471400	26.536750	-8.070746E-5	20.811792
1879.570157	-2.991900	3.154200	-9.436300	26.496723	-8.110349E-5	20.812335
1880.569561	-3.019000	3.154400	-9.522200	26.485255	-7.859531E-5	20.797964
1881.570285	-2.992000	3.153800	-9.435000	26.526707	-7.882632E-5	20.815922
1882.573154	-2.998200	3.152900	-9.451600	26.584837	-7.654915E-5	20.814138
1883.570626	-3.017100	3.150500	-9.504100	26.606937	-7.899134E-5	20.804586
1884.570719	-2.998300	3.149700	-9.442600	26.632382	-7.872732E-5	20.806931
1885.573127	-3.007100	3.148800	-9.467500	26.699442	-8.126850E-5	20.782361
1886.570494	-2.964300	3.148900	-9.333600	26.727096	-7.664816E-5	20.810164
1887.570537	-3.014100	3.146400	-9.481900	26.762090	-7.971739E-5	20.805043
1888.573448	-3.015200	3.147300	-9.488800	26.767733	-7.846330E-5	20.790801
1889.571961	-3.010700	3.146100	-9.471200	26.727054	-7.945337E-5	20.785465
1890.572224	-2.978200	3.145400	-9.366900	26.725065	-7.744022E-5	20.817130
1891.575835	-3.015100	3.144300	-9.479900	26.714964	-8.077347E-5	20.789905
1892.571801	-2.997000	3.142200	-9.416800	26.688252	-7.687918E-5	20.789604
1893.573046	-3.003900	3.141700	-9.436700	26.698406	-7.829828E-5	20.797915
1894.574305	-2.998200	3.142000	-9.419800	26.627770	-8.143352E-5	20.791389
1895.574667	-2.986100	3.139400	-9.373900	26.609958	-7.727521E-5	20.783440
1896.572105	-3.005200	3.140000	-9.435600	26.608560	-7.829828E-5	20.775871
1897.578806	-2.986900	3.139100	-9.375100	26.587755	-7.760523E-5	20.794312
1898.576076	-2.999300	3.138800	-9.413700	26.554206	-7.674717E-5	20.790458
1899.577673	-3.008800	3.137200	-9.438600	26.608612	-7.813327E-5	20.791097
1900.578769	-2.984500	3.137400	-9.363400	26.673659	-8.074047E-5	20.805752
1901.577106	-3.003800	3.134600	-9.414900	26.679456	-7.480003E-5	20.791666
1902.576495	-3.007300	3.135100	-9.426100	26.630267	-7.892533E-5	20.772088
1903.576900	-3.016100	3.133400	-9.449200	26.563383	-8.047645E-5	20.778347
1904.578141	-3.005400	3.132900	-9.414400	26.610603	-7.991540E-5	20.785511
1905.577731	-2.995900	3.132600	-9.383700	26.615277	-7.796826E-5	20.785468
1906.581098	-2.995400	3.131400	-9.378400	26.589722	-7.879332E-5	20.772580
1907.577168	-3.011800	3.130100	-9.426200	26.573119	-7.595511E-5	20.764425
1908.576738	-3.003200	3.128100	-9.393500	26.569620	-7.922235E-5	20.778452
1909.579379	-2.995100	3.127700	-9.367100	26.622062	-7.783625E-5	20.788970
1910.577812	-2.963400	3.128800	-9.270400	26.700048	-7.678017E-5	20.774909
1911.576469	-2.963700	3.128400	-9.270600	26.736406	-7.790225E-5	20.779694
1912.576480	-2.994300	3.126600	-9.361100	26.704653	-7.757223E-5	20.772901
1913.578745	-2.998900	3.126000	-9.373600	26.632843	-7.773724E-5	20.802653
1914.577903	-2.992100	3.125200	-9.350100	26.644832	-7.734121E-5	20.756858
1915.578527	-3.015000	3.122200	-9.412400	26.644318	-7.753923E-5	20.777204
1916.580540	-3.000900	3.122500	-9.369900	26.627905	-7.879332E-5	20.777774
1917.579928	-3.002400	3.119900	-9.366300	26.604785	-7.872732E-5	20.763541
1918.579523	-2.990600	3.121000	-9.332900	26.609219	-7.618613E-5	20.767998
1919.579160	-3.012700	3.119100	-9.396100	26.601578	-7.819928E-5	20.775964
1920.579884	-2.975900	3.118200	-9.279300	26.570850	-7.912335E-5	20.783008
1921.580044	-2.986400	3.117000	-9.307100	26.597316	-7.767124E-5	20.776422
1922.580539	-3.003700	3.115500	-9.357400	26.640573	-7.948637E-5	20.778655
1923.580177	-2.984900	3.115900	-9.299700	26.621690	-7.925536E-5	20.785277
1924.579718	-2.983300	3.115700	-9.293800	26.674842	-7.852930E-5	20.771380
1925.581899	-2.983000	3.114100	-9.288400	26.698810	-7.704419E-5	20.761337
1926.580944	-3.007700	3.113200	-9.361800	26.656920	-7.661516E-5	20.760475
1927.580105	-3.006500	3.111000	-9.351900	26.649039	-7.810027E-5	20.776735
1928.580339	-3.001800	3.110300	-9.335600	26.689061	-7.757223E-5	20.766709
1929.581338	-2.976300	3.110500	-9.256400	26.712806	-7.882632E-5	20.762605
1930.581768	-2.998700	3.109300	-9.322900	26.763467	-7.826528E-5	20.759959
1931.581801	-2.995100	3.109100	-9.311100	26.713159	-8.047645E-5	20.759167
1932.581616	-3.037700	3.106500	-9.435900	26.724170	-7.833129E-5	20.760754
1933.581332	-2.991100	3.106900	-9.291800	26.773192	-7.711020E-5	20.776850
1934.582944	-2.980100	3.106400	-9.256800	26.756043	-7.895833E-5	20.767669
1935.582749	-2.997300	3.104300	-9.303000	26.686106	-7.770424E-5	20.764687
1936.584314	-3.013900	3.104400	-9.356000	26.694210	-7.760523E-5	20.780421
1937.583923	-2.965200	3.104400	-9.204200	26.689297	-7.717620E-5	20.759834
1938.586569	-2.994500	3.102400	-9.289600	26.659490	-7.598811E-5	20.748359
1939.585263	-3.007300	3.101300	-9.325200	26.724036	-7.767124E-5	20.763939
1940.588568	-2.976200	3.101300	-9.229200	26.776952	-7.658216E-5	20.757870
1941.587391	-3.014800	3.100200	-9.346000	26.777946	-7.621913E-5	20.760767
1942.585354	-2.983400	3.098300	-9.242200	26.757025	-7.486603E-5	20.747792
1943.585329	-2.984300	3.097500	-9.243200	26.790938	-7.668116E-5	20.744905
1944.586926	-2.977500	3.098400	-9.224700	26.815264	-7.740722E-5	20.754191
1945.584743	-2.998500	3.095800	-9.281900	26.784242	-7.760523E-5	20.764251
1946.584352	-2.995300	3.095200	-9.269600	26.748177	-7.661516E-5	20.750751
1947.585032	-2.999300	3.095200	-9.282800	26.700501	-7.793526E-5	20.732690
1948.589632	-3.000000	3.092600	-9.276400	26.705827	-7.493203E-5	20.759856
1949.585936	-3.014600	3.091000	-9.317100	26.719658	-7.734121E-5	20.746260
1950.588736	-3.027600	3.092200	-9.361000	26.725894	-7.463501E-5	20.763909
1951.589038	-3.005600	3.091000	-9.289500	26.722557	-7.635114E-5	20.760081
1952.585851	-2.974400	3.089600	-9.188900	26.791918	-7.638414E-5	20.743994
1953.586362	-2.988700	3.089100	-9.232300	26.796763	-7.628514E-5	20.770677
1954.586551	-2.996800	3.086000	-9.246900	26.813732	-7.536107E-5	20.746961
1955.586636	-2.998900	3.086300	-9.254000	26.740180	-7.928836E-5	20.741762
1956.587592	-2.978200	3.086700	-9.191700	26.719703	-7.826528E-5	20.733029
1957.588630	-3.010700	3.084300	-9.284200	26.778295	-7.803426E-5	20.755902
1958.588629	-3.013500	3.083300	-9.289500	26.832553	-7.843029E-5	20.746918
1959.587596	-3.007100	3.082400	-9.267800	26.872757	-7.671417E-5	20.755575
1960.590737	-2.999900	3.080200	-9.239000	26.878708	-7.800126E-5	20.744014
1961.590575	-2.989600	3.079800	-9.206400	26.899430	-7.833129E-5	20.742091
1962.590383	-2.989200	3.079500	-9.204500	26.930141	-7.747322E-5	20.735988
1963.592518	-3.001800	3.078000	-9.238500	26.929790	-7.549308E-5	20.744171
1964.592175	-3.004500	3.077600	-9.245500	26.897854	-7.555908E-5	20.754257
1965.590905	-2.975400	3.075700	-9.150900	26.861262	-7.720920E-5	20.752077
1966.594523	-3.005000	3.075200	-9.240100	26.803190	-7.595511E-5	20.735886
1967.590948	-3.014700	3.074600	-9.268400	26.846232	-7.852930E-5	20.753560
1968.590766	-2.990000	3.074500	-9.191900	26.864135	-7.704419E-5	20.736947
1969.593579	-2.998300	3.072000	-9.210200	26.884626	-7.786925E-5	20.746172
1970.592104	-3.015000	3.070800	-9.257600	26.817776	-7.780325E-5	20.741543
1971.591776	-2.978700	3.070700	-9.146100	26.841973	-7.671417E-5	20.745010
1972.595601	-2.977000	3.070800	-9.141000	26.788976	-7.691218E-5	20.747674
1973.593400	-2.975200	3.068100	-9.127600	26.837575	-7.724221E-5	20.735845
1974.591722	-3.004900	3.067900	-9.218100	26.820299	-7.575710E-5	20.715629
1975.591044	-2.995800	3.064500	-9.179400	26.856010	-7.740722E-5	20.725458
1976.595758	-3.026800	3.064400	-9.274700	26.883927	-7.687918E-5	20.728399
1977.597200	-2.983500	3.063700	-9.140200	26.970474	-7.344692E-5	20.741460
1978.596982	-2.991900	3.064300	-9.167600	26.988041	-7.909034E-5	20.735417
1979.598407	-3.008400	3.061900	-9.211200	27.002821	-7.651615E-5	20.721830
1980.598759	-2.991900	3.060400	-9.155000	27.024237	-7.895833E-5	20.742419
1981.598471	-3.008000	3.060300	-9.204800	26.975544	-7.813327E-5	20.741816
1982.599748	-3.022700	3.058400	-9.243900	26.943112	-7.935436E-5	20.727694
1983.598520	-3.016400	3.056800	-9.219700	26.915634	-7.780325E-5	20.743687
1984.598677	-2.999400	3.056200	-9.166400	26.928435	-7.889233E-5	20.731902
1985.599261	-3.007100	3.055300	-9.186700	26.945933	-8.093848E-5	20.731480
1986.598561	-2.995700	3.054900	-9.150800	26.915524	-7.833129E-5	20.742153
1987.602627	-3.023900	3.053000	-9.231200	26.951909	-7.922235E-5	20.725635
1988.599279	-3.013900	3.052200	-9.197000	26.991637	-7.879332E-5	20.727179
1989.598032	-2.994400	3.050500	-9.133500	27.041898	-7.899134E-5	20.720825
1990.601566	-2.981100	3.050500	-9.093000	26.994184	-7.856230E-5	20.730214
1991.600948	-2.994700	3.048000	-9.126700	27.019859	-7.661516E-5	20.722843
1992.604045	-3.011100	3.047200	-9.174700	26.997605	-8.008042E-5	20.729388
1993.606195	-2.997500	3.046600	-9.130900	26.944924	-7.909034E-5	20.728568
1994.601125	-2.992700	3.045400	-9.112900	26.939172	-7.714320E-5	20.712826
1995.601023	-2.997800	3.044400	-9.125000	26.899727	-7.978339E-5	20.734803
1996.605123	-3.021200	3.042100	-9.188700	26.917414	-7.961838E-5	20.731251
1997.603786	-2.990500	3.042100	-9.096200	26.876896	-7.839729E-5	20.713267
1998.602657	-3.001400	3.039200	-9.120800	26.920673	-8.004741E-5	20.724096
1999.605748	-3.021500	3.038100	-9.178500	26.966969	-8.021243E-5	20.710431
2000.606281	-3.005100	3.039400	-9.132900	26.918308	-7.668116E-5	20.723140
2001.605231	-3.003200	3.036200	-9.117600	26.951632	-7.816627E-5	20.726305
2002.607653	-3.009200	3.034900	-9.131100	26.946480	-7.740722E-5	20.722072
2003.609864	-3.008700	3.034700	-9.130400	26.902114	-7.889233E-5	20.728194
2004.607433	-3.020700	3.033900	-9.163000	26.912616	-7.905734E-5	20.728798
2005.607124	-3.001200	3.031800	-9.098600	26.964442	-7.724221E-5	20.738239
2006.610351	-3.023200	3.031600	-9.164000	27.013857	-7.701119E-5	20.716332
2007.607260	-3.026800	3.029500	-9.168700	26.973728	-7.942037E-5	20.710116
2008.609262	-3.005100	3.028700	-9.100700	27.004222	-7.885933E-5	20.717548
2009.607766	-3.010200	3.029000	-9.117600	26.993505	-7.737422E-5	20.713410
2010.608441	-3.001800	3.027600	-9.087900	26.989460	-7.899134E-5	20.722619
2011.610003	-2.990800	3.026300	-9.050400	27.024685	-7.843029E-5	20.712997
2012.610791	-2.984900	3.025500	-9.029900	27.018616	-7.793526E-5	20.698832
2013.612991	-2.994200	3.022900	-9.050600	27.006100	-7.800126E-5	20.720860
2014.612832	-3.000300	3.021800	-9.065200	26.978959	-7.852930E-5	20.679812
2015.612812	-3.010000	3.020900	-9.092500	26.976242	-7.932136E-5	20.706006
2016.613696	-3.006300	3.019400	-9.076300	26.989341	-7.826528E-5	20.710170
2017.614403	-3.007500	3.019800	-9.081000	26.950103	-7.638414E-5	20.718128
2018.614840	-2.991200	3.017300	-9.024400	26.918639	-7.945337E-5	20.705454
2019.615526	-3.003900	3.015900	-9.058800	26.970583	-7.800126E-5	20.711696
2020.613061	-2.992000	3.015800	-9.022100	26.927418	-7.780325E-5	20.699109
2021.613963	-2.957300	3.014500	-8.914100	26.899632	-7.658216E-5	20.724750
2022.616640	-3.028700	3.011800	-9.121400	26.850238	-7.816627E-5	20.703531
2023.614750	-3.014900	3.012200	-9.080400	26.873851	-7.800126E-5	20.720637
2024.615455	-3.020600	3.011000	-9.094100	26.909259	-7.961838E-5	20.715464
2025.615240	-3.014300	3.009500	-9.071000	26.945542	-7.869431E-5	20.733457
2026.615671	-3.042700	3.006500	-9.147700	26.981017	-7.922235E-5	20.704170
2027.618153	-3.002900	3.006700	-9.028600	26.996045	-7.869431E-5	20.703635
2028.617718	-2.988800	3.005200	-8.981700	27.047857	-7.810027E-5	20.714964
2029.621902	-2.975200	3.005800	-8.941900	27.088619	-7.777025E-5	20.711386
2030.618071	-3.006100	3.002300	-9.024700	27.085960	-7.885933E-5	20.686425
2031.618139	-2.980200	3.002600	-8.947600	27.101691	-7.892533E-5	20.711731
2032.618829	-2.997400	3.001500	-8.995000	27.137537	-7.704419E-5	20.697522
2033.617584	-2.967500	3.000400	-8.902600	27.087512	-7.816627E-5	20.684193
2034.617837	-2.993800	2.998000	-8.974000	27.069468	-7.938737E-5	20.693073
2035.623468	-2.990400	2.997600	-8.962800	27.054166	-8.004741E-5	20.710877
2036.620002	-3.013100	2.995500	-9.024900	27.022885	-7.889233E-5	20.699332
2037.620592	-3.007800	2.994200	-9.004900	26.986092	-8.146652E-5	20.718757
2038.623775	-2.990900	2.992700	-8.949700	26.967754	-7.819928E-5	20.682296
2039.620879	-3.024400	2.992700	-9.050500	26.993995	-7.750623E-5	20.713903
2040.622002	-2.975900	2.990500	-8.898900	27.012865	-7.839729E-5	20.703006
2041.622058	-2.982100	2.989400	-8.914200	27.062027	-7.819928E-5	20.702186
2042.622418	-2.977900	2.989300	-8.900600	27.084315	-7.786925E-5	20.689512
2043.623528	-2.980800	2.988500	-8.907200	27.131777	-7.882632E-5	20.710696
2044.624600	-2.996400	2.986700	-8.948600	27.119863	-7.823228E-5	20.702031
2045.625042	-2.989100	2.985400	-8.922900	27.099462	-7.895833E-5	20.718499
2046.624626	-2.978100	2.984700	-8.887700	27.078599	-8.014642E-5	20.706998
2047.624342	-3.005700	2.982500	-8.964000	27.022673	-7.793526E-5	20.698170
2048.626138	-2.979600	2.980500	-8.879900	27.073653	-8.074047E-5	20.714353
2049.624491	-3.000000	2.980100	-8.939800	27.118990	-7.658216E-5	20.709214
2050.626050	-3.002300	2.978200	-8.941000	27.166811	-8.014642E-5	20.698515
2051.624268	-3.009700	2.978000	-8.961400	27.191308	-8.179654E-5	20.710353
2052.626343	-2.989000	2.976100	-8.894100	27.174808	-7.730821E-5	20.698498
2053.625950	-2.973100	2.975100	-8.844300	27.217733	-7.918935E-5	20.698050
2054.626772	-3.001100	2.973700	-8.923700	27.200291	-7.793526E-5	20.689514
2055.627679	-2.992000	2.971600	-8.890000	27.203625	-7.876032E-5	20.702827
2056.628534	-3.011100	2.969700	-8.940700	27.139803	-7.928836E-5	20.694585
2057.627154	-3.004000	2.968900	-8.917400	27.120971	-7.879332E-5	20.714052
2058.626478	-2.982500	2.967100	-8.848400	27.111517	-7.968439E-5	20.683678
2059.626696	-3.022600	2.966000	-8.963500	27.102440	-7.856230E-5	20.700630
2060.626258	-2.985000	2.965400	-8.850800	27.109306	-7.852930E-5	20.692362
2061.628177	-3.017300	2.962900	-8.939400	27.082837	-7.928836E-5	20.699406
2062.627450	-2.998700	2.962600	-8.883200	27.056768	-7.958538E-5	20.701165
2063.628153	-3.003100	2.961200	-8.891900	27.111811	-7.981640E-5	20.689190
2064.629379	-2.977800	2.959700	-8.812800	27.108212	-7.803426E-5	20.676086
2065.627044	-3.023600	2.958400	-8.944100	27.113561	-7.895833E-5	20.689528
2066.631812	-3.033400	2.956600	-8.968000	27.079574	-7.859531E-5	20.697073
2067.627333	-3.028600	2.954500	-8.947400	27.112079	-7.773724E-5	20.673811
2068.627353	-2.987000	2.953900	-8.822600	27.136629	-7.625213E-5	20.693289
2069.627743	-2.999400	2.953500	-8.858500	27.163295	-7.786925E-5	20.713472
2070.627411	-2.975800	2.952000	-8.783600	27.177027	-7.915635E-5	20.701204
2071.628657	-2.990200	2.949400	-8.818100	27.220253	-7.757223E-5	20.706275
2072.630176	-2.997100	2.948600	-8.836400	27.271420	-7.671417E-5	20.690411
2073.629934	-3.021500	2.945600	-8.899100	27.283393	-8.087248E-5	20.694394
2074.629109	-2.994000	2.946800	-8.821700	27.248408	-7.750623E-5	20.686230
2075.632448	-3.007300	2.944600	-8.853900	27.288244	-7.899134E-5	20.676987
2076.630762	-2.984000	2.944000	-8.784400	27.290919	-7.678017E-5	20.677781
2077.630760	-2.974300	2.942700	-8.751600	27.287388	-7.988240E-5	20.700310
2078.630347	-3.030900	2.939200	-8.907600	27.272227	-7.730821E-5	20.699284
2079.630977	-2.991700	2.939700	-8.792700	27.210423	-8.008042E-5	20.703974
2080.631020	-3.019700	2.937000	-8.868000	27.275604	-8.140051E-5	20.722123
2081.631842	-2.959600	2.936600	-8.690300	27.275639	-7.793526E-5	20.683274
2082.633398	-2.997200	2.933500	-8.791400	27.326024	-8.017942E-5	20.699345
2083.631875	-2.970200	2.933500	-8.712100	27.292643	-7.998141E-5	20.695638
2084.631083	-2.957300	2.932500	-8.671400	27.290235	-7.753923E-5	20.702226
2085.633215	-3.005700	2.929600	-8.804200	27.291187	-7.988240E-5	20.702235
2086.632251	-2.997100	2.929000	-8.777600	27.278091	-7.806727E-5	20.712296
2087.634772	-3.007900	2.925300	-8.798500	27.288317	-7.968439E-5	20.670421
2088.631513	-2.993900	2.925100	-8.757000	27.297950	-7.714320E-5	20.710461
2089.632337	-3.008700	2.923400	-8.795000	27.320841	-7.810027E-5	20.698873
2090.631582	-3.027700	2.922700	-8.848700	27.342360	-7.783625E-5	20.708193
2091.632139	-2.972500	2.922000	-8.685000	27.387413	-8.011342E-5	20.693770
2092.631573	-3.029000	2.917800	-8.837400	27.415692	-7.826528E-5	20.713212
2093.632830	-2.989800	2.917800	-8.722900	27.431143	-8.123550E-5	20.730179
2094.632277	-3.008500	2.915600	-8.771000	27.427141	-7.882632E-5	20.707186
2095.630169	-2.997800	2.915100	-8.738500	27.449636	-7.740722E-5	20.713221
2096.631786	-3.020800	2.911500	-8.794000	27.451049	-8.014642E-5	20.719860
2097.631588	-2.997000	2.910300	-8.721300	27.456637	-7.800126E-5	20.703669
2098.632195	-2.984100	2.909000	-8.679600	27.498137	-7.661516E-5	20.685202
2099.632726	-2.977100	2.907200	-8.654200	27.502404	-7.747322E-5	20.707515
2100.632147	-3.007400	2.906400	-8.740100	27.417339	-7.770424E-5	20.694479
2101.635679	-3.016400	2.904400	-8.760400	27.331402	-7.912335E-5	20.703808
2102.637160	-3.002400	2.902000	-8.712300	27.279604	-7.711020E-5	20.696747
2103.634105	-3.010300	2.901200	-8.732800	27.340598	-7.773724E-5	20.715430
2104.635643	-3.009300	2.899500	-8.724600	27.399131	-7.668116E-5	20.719785
2105.634947	-2.995200	2.896800	-8.675800	27.423347	-7.753923E-5	20.707637
2106.636212	-2.973200	2.895700	-8.608800	27.447205	-7.796826E-5	20.715991
2107.635746	-2.993500	2.894100	-8.662800	27.351680	-7.704419E-5	20.712827
2108.640666	-3.012600	2.892400	-8.712100	27.340008	-7.790225E-5	20.713414
2109.636625	-3.004600	2.891000	-8.685500	27.367054	-7.750623E-5	20.721182
2110.637766	-2.987900	2.890800	-8.636600	27.363361	-7.744022E-5	20.731691
2111.641572	-3.019100	2.886200	-8.712900	27.439878	-7.681317E-5	20.707198
2112.641726	-2.972400	2.887600	-8.582300	27.369677	-7.565809E-5	20.722398
2113.642865	-3.019600	2.883500	-8.706200	27.389242	-7.460201E-5	20.730226
2114.641593	-3.026000	2.882200	-8.721200	27.372909	-7.645015E-5	20.719959
2115.643245	-3.003400	2.879900	-8.649000	27.370860	-7.499804E-5	20.713630
2116.645376	-2.991100	2.878100	-8.608200	27.352212	-7.678017E-5	20.709569
2117.644419	-2.999100	2.877900	-8.630100	27.373663	-7.628514E-5	20.717398
2118.645972	-2.960600	2.876500	-8.515000	27.361468	-7.595511E-5	20.728839
2119.645310	-2.995200	2.874200	-8.608100	27.416973	-7.711020E-5	20.695059
2120.644198	-2.990800	2.871900	-8.588300	27.451799	-7.674717E-5	20.733891
2121.645662	-2.992700	2.870500	-8.589100	27.494420	-7.872732E-5	20.726036
2122.644846	-2.983600	2.867600	-8.555000	27.552027	-7.539407E-5	20.735632
2123.646966	-3.015100	2.866500	-8.641900	27.593497	-7.575710E-5	20.736581
2124.644903	-2.999900	2.863700	-8.589900	27.629515	-7.460201E-5	20.711656
2125.644146	-2.993200	2.862900	-8.568700	27.586351	-7.364494E-5	20.716113
2126.644752	-2.990500	2.860200	-8.552700	27.643463	-7.546007E-5	20.734700
2127.643983	-3.003800	2.860000	-8.588900	27.638795	-7.668116E-5	20.735694
2128.648100	-3.020600	2.856600	-8.627700	27.639994	-7.645015E-5	20.719355
2129.646556	-2.978100	2.856600	-8.506800	27.600540	-7.711020E-5	20.728968
2130.645721	-3.002400	2.852900	-8.565100	27.562343	-7.773724E-5	20.716613
2131.646883	-3.014300	2.851500	-8.594700	27.490848	-7.826528E-5	20.748996
2132.645884	-2.992700	2.848200	-8.523300	27.459743	-7.922235E-5	20.747574
2133.646085	-3.021100	2.848000	-8.603200	27.514027	-7.440400E-5	20.744341
2134.647258	-3.010700	2.845000	-8.565300	27.638032	-7.618613E-5	20.745832
2135.645710	-2.970600	2.843800	-8.446600	27.671626	-7.546007E-5	20.736961
2136.649786	-2.998900	2.839800	-8.514800	27.631307	-7.654915E-5	20.737642
2137.646125	-3.008600	2.840600	-8.545200	27.662176	-7.753923E-5	20.733142
2138.651154	-3.000500	2.837400	-8.512100	27.726944	-7.803426E-5	20.725771
2139.646779	-2.994900	2.836100	-8.492400	27.727098	-7.767124E-5	20.722607
2140.647609	-3.021600	2.832800	-8.558400	27.633672	-7.509705E-5	20.732910
2141.647808	-3.000300	2.830300	-8.490800	27.563407	-7.727521E-5	20.728590
2142.648083	-3.004000	2.829200	-8.498000	27.528569	-7.582310E-5	20.755179
2143.648118	-3.016100	2.826800	-8.524700	27.565455	-7.737422E-5	20.740609
2144.650965	-3.011700	2.824600	-8.506300	27.576586	-7.648315E-5	20.742799
2145.647024	-2.997600	2.821800	-8.457900	27.557127	-7.608712E-5	20.736496
2146.648648	-2.973300	2.820100	-8.384200	27.504063	-7.750623E-5	20.756602
2147.652152	-3.021400	2.816700	-8.510200	27.519092	-7.473402E-5	20.734264
2148.650556	-2.973700	2.815400	-8.371700	27.596035	-7.615313E-5	20.736290
2149.648644	-3.000500	2.811900	-8.436100	27.677350	-7.750623E-5	20.752679
2150.649404	-3.007600	2.810300	-8.452000	27.703789	-7.631814E-5	20.763637
2151.651011	-3.021700	2.808200	-8.484700	27.693919	-7.882632E-5	20.757973
2152.650871	-3.010000	2.804200	-8.439900	27.668493	-7.905734E-5	20.752776
2153.652852	-2.994500	2.803400	-8.394200	27.618827	-7.711020E-5	20.740731
2154.652200	-2.990100	2.800600	-8.373200	27.559245	-7.572409E-5	20.766130
2155.651639	-2.981500	2.799500	-8.345800	27.656053	-7.579010E-5	20.770130
2156.651362	-2.998200	2.795700	-8.380900	27.643785	-7.645015E-5	20.763001
2157.651794	-2.982600	2.793700	-8.332000	27.671090	-7.648315E-5	20.750647
2158.655211	-3.010100	2.790100	-8.397400	27.661348	-7.691218E-5	20.760285
2159.651402	-3.014000	2.787600	-8.400500	27.641541	-7.532806E-5	20.774020
2160.651414	-2.995700	2.784400	-8.340700	27.618451	-7.509705E-5	20.759795
2161.655591	-2.989500	2.782600	-8.317800	27.658367	-7.621913E-5	20.761079
2162.652879	-3.023600	2.780100	-8.405000	27.690547	-7.714320E-5	20.766433
2163.654497	-3.026800	2.777300	-8.404900	27.734735	-7.730821E-5	20.756846
2164.654139	-2.986100	2.775200	-8.285800	27.741255	-7.711020E-5	20.766726
2165.653755	-2.997000	2.770600	-8.303100	27.797477	-7.612012E-5	20.751708
2166.654180	-3.009200	2.767500	-8.327400	27.764034	-7.813327E-5	20.755511
2167.655014	-2.995600	2.765100	-8.282400	27.777124	-7.496504E-5	20.755407
2168.659981	-2.963700	2.764500	-8.191900	27.772566	-7.542707E-5	20.777374
2169.656195	-2.984100	2.761100	-8.238800	27.771085	-7.440400E-5	20.754546
2170.656829	-3.034600	2.756900	-8.365200	27.766528	-7.555908E-5	20.748063
2171.657537	-3.003700	2.755100	-8.274600	27.840369	-7.654915E-5	20.761684
2172.658062	-2.991400	2.750600	-8.226900	27.884705	-7.638414E-5	20.772168
2173.657406	-2.998400	2.747900	-8.238300	27.969982	-7.641714E-5	20.765539
2174.659982	-3.011800	2.744000	-8.263400	27.995179	-7.615313E-5	20.757710
2175.659891	-2.988100	2.742000	-8.191800	27.991455	-7.645015E-5	20.766764
2176.658675	-3.022200	2.737900	-8.273700	28.038724	-7.681317E-5	20.777834
2177.658302	-2.981700	2.737000	-8.159800	28.085990	-7.628514E-5	20.760455
2178.658357	-3.011400	2.731600	-8.225400	28.017639	-7.687918E-5	20.753765
2179.662165	-2.984100	2.730600	-8.147900	28.008836	-7.602112E-5	20.764819
2180.660790	-3.013100	2.725900	-8.212400	27.983107	-7.730821E-5	20.762154
2181.659964	-3.018200	2.722100	-8.214500	28.006900	-7.753923E-5	20.793691
2182.664402	-2.989300	2.720200	-8.130800	28.049150	-7.621913E-5	20.776002
2183.659923	-3.023100	2.715700	-8.208700	28.051986	-7.701119E-5	20.770321
2184.663539	-3.016900	2.713000	-8.184200	28.066476	-7.717620E-5	20.792968
2185.659926	-3.024200	2.708800	-8.191500	28.044827	-7.453601E-5	20.792513
2186.660525	-3.032200	2.704800	-8.200900	28.080600	-7.585610E-5	20.776840
2187.659110	-3.002200	2.701800	-8.110400	28.137499	-7.546007E-5	20.760625
2188.659942	-3.021100	2.698600	-8.151500	28.165108	-7.447000E-5	20.775617
2189.662177	-2.996400	2.696200	-8.077700	28.129870	-7.572409E-5	20.765747
2190.661114	-2.990100	2.690700	-8.043800	28.150740	-7.473402E-5	20.788655
2191.660856	-2.997600	2.688200	-8.057800	28.113609	-7.625213E-5	20.794422
2192.662100	-2.989200	2.684200	-8.023000	28.162867	-7.562509E-5	20.761034
2193.659353	-2.983100	2.680200	-7.994600	28.202900	-7.645015E-5	20.777629
2194.664490	-3.017400	2.676300	-8.074700	28.202413	-7.615313E-5	20.788993
2195.662307	-2.959900	2.672200	-7.908100	28.163117	-7.687918E-5	20.773139
2196.660233	-2.976900	2.668400	-7.943000	28.175920	-7.645015E-5	20.788399
2197.661864	-3.003200	2.663100	-7.997000	28.176007	-7.641714E-5	20.762407
2198.662211	-2.980700	2.659700	-7.927100	28.146677	-7.618613E-5	20.796418
2199.664604	-2.950700	2.657000	-7.839100	28.154094	-7.697819E-5	20.780651
2200.665797	-3.014000	2.651800	-7.991800	28.134306	-7.612012E-5	20.784912
2201.660942	-2.971800	2.647900	-7.868500	28.177714	-7.509705E-5	20.771239
2202.663424	-2.982400	2.643500	-7.882600	28.208731	-7.344692E-5	20.795827
2203.662465	-3.012400	2.638600	-7.947500	28.135713	-7.595511E-5	20.783957
2204.662750	-3.004900	2.633800	-7.913500	28.088673	-7.466802E-5	20.786389
2205.664514	-3.019200	2.631000	-7.943100	28.046392	-7.588911E-5	20.794089
2206.662307	-3.022600	2.626000	-7.935900	28.072933	-7.529506E-5	20.784770
2207.664206	-3.020000	2.620100	-7.911500	28.094559	-7.588911E-5	20.808436
2208.663116	-3.008600	2.617000	-7.873300	28.111601	-7.493203E-5	20.785289
2209.662155	-3.001300	2.612500	-7.840100	28.103578	-7.460201E-5	20.771048
2210.664099	-2.979700	2.608600	-7.771600	28.077605	-7.658216E-5	20.802749
2211.662607	-2.990300	2.602600	-7.781700	28.096859	-7.265487E-5	20.784673
2212.664928	-2.981600	2.599400	-7.749700	28.160546	-7.707719E-5	20.799475
2213.666466	-2.991200	2.594000	-7.758300	28.199468	-7.486603E-5	20.793614
2214.664987	-3.002700	2.588100	-7.769800	28.240810	-7.374395E-5	20.778338
2215.667075	-2.992500	2.583600	-7.729900	28.251891	-7.394196E-5	20.793288
2216.665456	-3.001800	2.578600	-7.739700	28.329492	-7.463501E-5	20.797926
2217.665570	-3.008700	2.573500	-7.742000	28.354203	-7.480003E-5	20.801945
2218.665397	-3.011800	2.566900	-7.729900	28.405309	-7.453601E-5	20.795559
2219.667341	-3.023200	2.561800	-7.742800	28.423904	-7.466802E-5	20.803852
2220.669679	-2.998600	2.556800	-7.665800	28.444375	-7.440400E-5	20.783689
2221.671496	-2.989700	2.552600	-7.630900	28.357820	-7.321591E-5	20.803216
2222.669823	-3.012400	2.546900	-7.671000	28.390321	-7.377695E-5	20.794217
2223.672233	-2.995500	2.542800	-7.616100	28.465147	-7.417298E-5	20.804132
2224.673182	-2.983400	2.537300	-7.569000	28.489058	-7.275387E-5	20.794546
2225.672718	-2.950700	2.531700	-7.469400	28.450535	-7.453601E-5	20.804590
2226.672551	-2.995400	2.526300	-7.566100	28.449337	-7.427199E-5	20.805755
2227.674684	-2.997000	2.520500	-7.552800	28.407209	-7.377695E-5	20.814067
2228.673939	-3.025600	2.514100	-7.605800	28.344958	-7.404097E-5	20.807335
2229.674233	-2.976300	2.510600	-7.471100	28.381525	-7.285288E-5	20.802429
2230.673202	-2.992600	2.503900	-7.492800	28.366261	-7.394196E-5	20.806974
2231.676730	-2.992500	2.499200	-7.478100	28.330293	-7.265487E-5	20.825759
