LabVIEW Measurement	
Writer_Version	2
Reader_Version	2
Separator	Tab
Decimal_Separator	.
Multi_Headings	No
X_Columns	One
Time_Pref	Absolute
Operator	admin
Description	Clolumns are: time, Current, Voltage, Power, Battery Temp, and Chamber Temp
Date	2024/08/16
Time	13:07:17.8513970375061035156
***End_of_Header***	
	
Channels	6						
Samples	1	1	1	1	1	1	
Date	2024/09/02	2024/09/02	2024/09/02	2024/09/02	2024/09/02	2024/09/02	
Time	20:21:28.5936737060546875	20:21:28.5997433662414550781	20:21:28.6056966781616210937	20:21:28.5767536163330078125	20:21:28.5767536163330078125	20:21:28.5767536163330078125	
X_Dimension	Time	Time	Time	Time	Time	Time	
X0	0.0000000000000000E+0	0.0000000000000000E+0	0.0000000000000000E+0	0.0000000000000000E+0	0.0000000000000000E+0	0.0000000000000000E+0	
Delta_X	1.000000	1.000000	1.000000	1.000000	1.000000	1.000000	
***End_of_Header***							
X_Value	Untitled	Untitled 1	Untitled 2	Untitled 3	Untitled 4	Untitled 5	Comment
0.000000	-0.009755	4.087200	-0.039809	20.716213	0.000458	20.723800
0.998585	-2.995000	3.924200	-11.752000	20.729238	0.000458	20.735877
2.000516	-2.982500	3.919200	-11.688000	20.727040	0.000457	20.722772
3.002775	-2.978500	3.914800	-11.659000	20.727089	0.000459	20.738943
3.999671	-2.968200	3.912700	-11.613000	20.733629	0.000458	20.736948
5.002067	-3.001500	3.908500	-11.730000	20.751629	0.000457	20.722704
5.999998	-2.990500	3.905800	-11.679000	20.750724	0.000456	20.740766
6.999609	-3.016800	3.903100	-11.774000	20.769567	0.000456	20.718831
7.999525	-2.979900	3.903000	-11.630000	20.771809	0.000455	20.736720
9.003216	-2.997600	3.901100	-11.693000	20.759407	0.000454	20.729060
9.999201	-2.984500	3.899700	-11.638000	20.771957	0.000453	20.735446
11.000280	-3.015100	3.895900	-11.746000	20.799064	0.000453	20.728413
12.005411	-2.969100	3.895500	-11.566000	20.774130	0.000452	20.725765
13.002284	-2.987900	3.894800	-11.637000	20.807026	0.000452	20.747756
14.003836	-2.983100	3.893100	-11.613000	20.807716	0.000449	20.729478
15.007073	-3.012500	3.891300	-11.722000	20.818799	0.000451	20.744831
16.003131	-3.006800	3.892100	-11.702000	20.826035	0.000452	20.731677
17.002161	-2.988900	3.890600	-11.627000	20.819070	0.000449	20.745102
18.009583	-2.989800	3.889000	-11.626000	20.820247	0.000449	20.736320
19.003183	-2.994400	3.887700	-11.641000	20.851466	0.000450	20.734349
20.004041	-2.998700	3.887700	-11.657000	20.865911	0.000449	20.759228
21.005894	-2.991500	3.887700	-11.629000	20.852808	0.000448	20.772203
22.003537	-2.979000	3.885300	-11.574000	20.861946	0.000447	20.745305
23.002649	-2.980600	3.885700	-11.581000	20.885972	0.000446	20.737090
24.008405	-2.988600	3.884300	-11.608000	20.876890	0.000447	20.741758
25.004101	-2.999300	3.885100	-11.651000	20.898903	0.000445	20.737219
26.002687	-3.010900	3.883400	-11.692000	20.885276	0.000445	20.734497
27.011398	-2.979700	3.885000	-11.576000	20.891317	0.000445	20.734374
28.004723	-2.979100	3.883900	-11.570000	20.932810	0.000445	20.746001
29.004445	-2.992200	3.881900	-11.615000	20.920410	0.000444	20.762049
30.010839	-3.011000	3.881700	-11.686000	20.941867	0.000445	20.763120
31.004608	-3.008400	3.880500	-11.674000	20.953498	0.000445	20.758157
32.006291	-3.008800	3.882000	-11.679000	20.952550	0.000444	20.745354
33.010192	-2.988700	3.880200	-11.596000	20.973785	0.000446	20.778921
34.004901	-3.011000	3.879900	-11.681000	20.962450	0.000443	20.766636
35.007098	-2.980800	3.880000	-11.565000	20.975404	0.000445	20.759678
36.012989	-3.010800	3.878300	-11.676000	21.003504	0.000444	20.750798
37.004040	-3.010600	3.878600	-11.676000	20.970270	0.000445	20.754542
38.004814	-3.018500	3.878600	-11.707000	21.001811	0.000445	20.752898
39.008111	-2.998800	3.878700	-11.631000	20.994121	0.000445	20.750896
40.004938	-3.008600	3.878200	-11.667000	20.995993	0.000444	20.746604
41.007582	-2.994600	3.877100	-11.610000	21.015054	0.000442	20.741013
42.008420	-2.999500	3.877800	-11.631000	21.047241	0.000443	20.753292
43.005538	-2.994900	3.876500	-11.610000	21.022073	0.000444	20.738549
44.007574	-2.998500	3.876500	-11.623000	21.052240	0.000442	20.749757
45.006533	-2.981000	3.875800	-11.553000	21.056512	0.000441	20.755927
46.005225	-2.989000	3.876700	-11.586000	21.073424	0.000443	20.753403
47.008003	-3.008400	3.874900	-11.656000	21.076447	0.000443	20.755478
48.008062	-3.030700	3.874800	-11.741000	21.074797	0.000443	20.742447
49.006694	-2.991500	3.874000	-11.588000	21.083237	0.000442	20.762744
50.008282	-2.995600	3.873400	-11.603000	21.076878	0.000442	20.752590
51.011644	-3.016500	3.874600	-11.687000	21.105942	0.000442	20.762221
52.007378	-2.989300	3.874200	-11.580000	21.097034	0.000442	20.749517
53.010280	-2.998300	3.873800	-11.614000	21.121289	0.000440	20.759554
54.010692	-2.998100	3.874500	-11.614000	21.129624	0.000443	20.758883
55.013949	-2.990500	3.873600	-11.583000	21.131373	0.000443	20.750200
56.009577	-2.995600	3.873700	-11.603000	21.156926	0.000442	20.762011
57.009409	-3.013300	3.871500	-11.665000	21.138766	0.000440	20.761389
58.008390	-3.004900	3.872300	-11.634000	21.168031	0.000443	20.767905
59.010513	-2.979600	3.873800	-11.541000	21.183753	0.000441	20.762769
60.011149	-2.980100	3.873700	-11.543000	21.193750	0.000442	20.780830
61.009560	-2.996600	3.871800	-11.602000	21.206813	0.000443	20.756438
62.010093	-2.989100	3.871900	-11.572000	21.203390	0.000443	20.767240
63.020726	-3.018200	3.871800	-11.685000	21.250517	0.000441	20.794944
64.008922	-3.014100	3.870100	-11.665000	21.211903	0.000442	20.785239
65.008509	-3.009800	3.871700	-11.653000	21.211534	0.000439	20.763532
66.010223	-3.022700	3.870400	-11.698000	21.238674	0.000439	20.766501
67.011629	-3.004600	3.870500	-11.629000	21.232272	0.000441	20.785701
68.010936	-3.008000	3.870800	-11.642000	21.251089	0.000441	20.772757
69.014433	-2.992000	3.870300	-11.579000	21.260316	0.000442	20.778669
70.011594	-3.020400	3.870000	-11.687000	21.281731	0.000442	20.776384
71.012377	-2.997300	3.870500	-11.601000	21.273372	0.000445	20.765177
72.011541	-3.012900	3.869000	-11.656000	21.313110	0.000443	20.754671
73.013105	-2.993300	3.869600	-11.582000	21.292139	0.000442	20.752657
74.013886	-3.009300	3.868800	-11.641000	21.297002	0.000441	20.786920
75.015046	-3.016700	3.869800	-11.673000	21.312224	0.000442	20.793614
76.015428	-3.011000	3.869500	-11.649000	21.300800	0.000444	20.761796
77.014125	-2.996400	3.868000	-11.589000	21.303102	0.000442	20.778324
78.014332	-3.008000	3.868600	-11.636000	21.340894	0.000443	20.773933
79.016274	-3.021100	3.867500	-11.683000	21.347560	0.000442	20.773016
80.014693	-3.005300	3.867000	-11.620000	21.348987	0.000442	20.783454
81.014509	-2.997100	3.868500	-11.593000	21.362208	0.000443	20.771550
82.017462	-3.011200	3.866900	-11.643000	21.364756	0.000444	20.755607
83.019538	-3.001500	3.868500	-11.611000	21.401968	0.000445	20.787148
84.015492	-2.997900	3.867100	-11.592000	21.411323	0.000443	20.782758
85.018310	-2.999300	3.867200	-11.598000	21.394564	0.000444	20.761248
86.016963	-3.017100	3.866000	-11.663000	21.401623	0.000442	20.796287
87.016107	-2.999100	3.867500	-11.598000	21.422327	0.000445	20.767689
88.018083	-2.979600	3.866900	-11.521000	21.444151	0.000442	20.778620
89.018151	-2.996800	3.867000	-11.587000	21.420536	0.000443	20.781071
90.016934	-2.987000	3.867100	-11.550000	21.434131	0.000443	20.784242
91.018510	-2.975800	3.867700	-11.509000	21.448373	0.000443	20.789956
92.018094	-2.997600	3.866400	-11.589000	21.454312	0.000445	20.799692
93.019588	-3.019800	3.865500	-11.672000	21.456478	0.000446	20.791902
94.018109	-3.008800	3.864600	-11.627000	21.467402	0.000441	20.771538
95.018970	-2.995200	3.867400	-11.583000	21.476683	0.000444	20.785566
96.017229	-2.987700	3.866600	-11.550000	21.481421	0.000444	20.791256
97.018645	-3.007600	3.866300	-11.627000	21.510776	0.000446	20.774636
98.018988	-2.997200	3.863800	-11.579000	21.499884	0.000444	20.793608
99.020998	-3.016400	3.866300	-11.661000	21.534020	0.000444	20.795049
100.019392	-3.001700	3.864800	-11.600000	21.519312	0.000446	20.802617
101.018981	-2.994900	3.865300	-11.575000	21.559712	0.000446	20.802266
102.020032	-3.007500	3.865900	-11.626000	21.546242	0.000445	20.798744
103.023067	-3.021900	3.865100	-11.679000	21.570857	0.000445	20.785443
104.019962	-3.002200	3.863200	-11.597000	21.570186	0.000446	20.805160
105.026381	-2.992700	3.864000	-11.562000	21.571927	0.000444	20.773712
106.023793	-3.006800	3.864200	-11.618000	21.601760	0.000446	20.794082
107.019212	-2.994900	3.863600	-11.571000	21.573706	0.000444	20.797303
108.022518	-2.994300	3.863400	-11.567000	21.596198	0.000447	20.792783
109.021297	-2.990100	3.863300	-11.551000	21.600013	0.000447	20.785221
110.021154	-2.989600	3.864700	-11.553000	21.623304	0.000447	20.794778
111.020776	-2.990800	3.862500	-11.551000	21.613809	0.000447	20.801872
112.023277	-3.017700	3.862700	-11.655000	21.622756	0.000449	20.796601
113.021451	-3.003400	3.862500	-11.599000	21.633506	0.000449	20.793134
114.024509	-2.981600	3.862700	-11.516000	21.657442	0.000448	20.811398
115.022253	-3.007300	3.861900	-11.613000	21.661953	0.000446	20.804058
116.022644	-2.998300	3.862600	-11.581000	21.685224	0.000448	20.822605
117.026546	-3.017800	3.862400	-11.655000	21.675878	0.000449	20.783854
118.024094	-3.003800	3.862300	-11.601000	21.649659	0.000449	20.805031
119.021686	-2.989700	3.861400	-11.544000	21.680609	0.000449	20.814668
120.023691	-2.980000	3.862200	-11.509000	21.714051	0.000450	20.799772
121.022486	-3.007200	3.861000	-11.610000	21.721004	0.000449	20.822851
122.023828	-2.990800	3.862300	-11.551000	21.720659	0.000449	20.819662
123.024314	-2.988200	3.862400	-11.541000	21.728836	0.000450	20.827845
124.025254	-2.987200	3.862100	-11.536000	21.728264	0.000451	20.805936
125.023182	-3.001200	3.861000	-11.586000	21.735592	0.000450	20.799045
126.024913	-2.982000	3.861600	-11.514000	21.748205	0.000451	20.832057
127.026149	-2.982000	3.861100	-11.513000	21.737832	0.000452	20.817408
128.024129	-3.002300	3.859800	-11.588000	21.760831	0.000453	20.825253
129.024470	-3.016100	3.859300	-11.639000	21.745991	0.000450	20.818935
130.024315	-2.999900	3.859900	-11.578000	21.775665	0.000452	20.806909
131.024294	-3.015700	3.860100	-11.641000	21.772595	0.000452	20.825647
132.027654	-2.990500	3.859600	-11.541000	21.778157	0.000452	20.798972
133.027174	-2.997100	3.859300	-11.566000	21.797353	0.000453	20.835727
134.024902	-3.002500	3.859100	-11.586000	21.829690	0.000452	20.810721
135.029995	-2.991400	3.859900	-11.546000	21.794689	0.000452	20.822156
136.030923	-3.000600	3.859500	-11.580000	21.833529	0.000452	20.839692
137.026349	-2.987300	3.859200	-11.527000	21.839244	0.000454	20.807007
138.030587	-2.988000	3.859000	-11.530000	21.844031	0.000454	20.837402
139.030212	-2.981700	3.858600	-11.505000	21.836125	0.000453	20.843713
140.027640	-2.990300	3.859000	-11.538000	21.856821	0.000453	20.847359
141.029381	-3.006800	3.858800	-11.602000	21.869685	0.000453	20.830364
142.028893	-2.987100	3.858300	-11.524000	21.876742	0.000455	20.851176
143.028510	-2.999900	3.857800	-11.572000	21.887791	0.000456	20.821934
144.028085	-2.981900	3.856900	-11.500000	21.895346	0.000455	20.835185
145.028494	-3.018600	3.856700	-11.641000	21.900476	0.000454	20.833209
146.028380	-3.008300	3.856100	-11.599000	21.895272	0.000456	20.841275
147.029458	-2.974600	3.858100	-11.476000	21.915665	0.000456	20.836084
148.031349	-2.985300	3.856800	-11.513000	21.912694	0.000455	20.839274
149.029527	-3.012600	3.856800	-11.618000	21.944314	0.000457	20.813079
150.029934	-3.006400	3.855400	-11.590000	21.950620	0.000458	20.833615
151.032514	-3.032300	3.855600	-11.691000	21.948399	0.000456	20.865530
152.030457	-2.984800	3.857300	-11.513000	21.967974	0.000457	20.837710
153.029697	-3.000200	3.856100	-11.568000	21.965378	0.000458	20.843172
154.031156	-2.988600	3.856500	-11.525000	21.974703	0.000458	20.848239
155.032879	-2.998000	3.856600	-11.561000	21.989159	0.000457	20.856072
156.031654	-2.998100	3.856600	-11.561000	21.989338	0.000458	20.838707
157.037056	-2.994000	3.855900	-11.544000	21.978425	0.000458	20.869507
158.031991	-3.011100	3.855900	-11.609000	22.008807	0.000461	20.861515
159.032396	-3.006100	3.855400	-11.588000	22.027132	0.000461	20.867531
160.034307	-3.002200	3.855700	-11.575000	22.047302	0.000459	20.851688
161.031569	-3.016400	3.855400	-11.629000	22.066801	0.000460	20.848449
162.031374	-2.999900	3.854200	-11.561000	22.064432	0.000462	20.853664
163.033336	-3.001600	3.854800	-11.569000	22.051423	0.000462	20.839693
164.031971	-3.000800	3.854800	-11.566000	22.046114	0.000460	20.857137
165.032759	-3.001200	3.855600	-11.570000	22.065238	0.000462	20.848781
166.035766	-2.998100	3.853300	-11.551000	22.071992	0.000461	20.839422
167.032280	-3.002600	3.854100	-11.571000	22.078967	0.000461	20.857784
168.032619	-2.999800	3.854700	-11.563000	22.107249	0.000462	20.862864
169.038101	-2.997000	3.853400	-11.548000	22.096276	0.000463	20.847611
170.036253	-3.016400	3.852700	-11.621000	22.115049	0.000464	20.877783
171.032768	-3.007700	3.852500	-11.587000	22.121076	0.000462	20.860111
172.032318	-3.011200	3.853100	-11.601000	22.120886	0.000460	20.851386
173.036106	-3.001300	3.852500	-11.561000	22.130604	0.000463	20.880554
174.036650	-3.026400	3.852200	-11.657000	22.115178	0.000464	20.847568
175.033033	-3.001100	3.852900	-11.561000	22.153466	0.000464	20.851762
176.035758	-3.015900	3.852000	-11.616000	22.145335	0.000466	20.853104
177.032888	-3.011400	3.850700	-11.594000	22.138710	0.000465	20.875394
178.033845	-3.007000	3.851700	-11.581000	22.154690	0.000466	20.849668
179.036020	-2.986300	3.852000	-11.502000	22.135900	0.000468	20.860253
180.034160	-3.005200	3.851700	-11.573000	22.144996	0.000466	20.857981
181.034130	-2.997000	3.852200	-11.544000	22.169174	0.000467	20.876022
182.037412	-3.003400	3.851200	-11.565000	22.198690	0.000470	20.848677
183.034745	-2.985200	3.850500	-11.494000	22.226858	0.000467	20.863603
184.035841	-2.996500	3.851200	-11.539000	22.241735	0.000467	20.888928
185.036901	-3.014100	3.850500	-11.605000	22.243458	0.000468	20.882118
186.034482	-2.972000	3.850700	-11.443000	22.231914	0.000469	20.869612
187.036320	-2.998900	3.849400	-11.543000	22.227885	0.000469	20.882648
188.037122	-2.986700	3.849300	-11.495000	22.251914	0.000468	20.865456
189.035642	-2.957800	3.851100	-11.389000	22.246926	0.000470	20.890806
190.034628	-2.993900	3.849100	-11.522000	22.241938	0.000469	20.879175
191.043202	-2.995100	3.848700	-11.527000	22.262756	0.000471	20.881053
192.035833	-2.994600	3.849200	-11.525000	22.270635	0.000472	20.897001
193.035264	-2.993300	3.848900	-11.520000	22.274890	0.000472	20.891779
194.038700	-2.983600	3.848600	-11.482000	22.289632	0.000473	20.863868
195.037608	-2.990200	3.849300	-11.510000	22.304760	0.000471	20.876645
196.036938	-3.014100	3.848300	-11.597000	22.300222	0.000473	20.896280
197.038208	-2.997000	3.847600	-11.530000	22.314846	0.000474	20.877734
198.035386	-3.000200	3.847800	-11.543000	22.332717	0.000473	20.876189
199.040337	-3.012700	3.846600	-11.588000	22.328830	0.000473	20.872771
200.039372	-3.012300	3.848000	-11.590000	22.341695	0.000472	20.869533
201.036025	-3.013300	3.846800	-11.591000	22.352512	0.000474	20.880364
202.036999	-2.985300	3.847800	-11.486000	22.354000	0.000474	20.872845
203.038518	-3.010800	3.846600	-11.580000	22.373027	0.000475	20.883362
204.036163	-2.998900	3.846200	-11.534000	22.360642	0.000474	20.879970
205.035615	-2.990100	3.846600	-11.500000	22.374023	0.000472	20.887205
206.038503	-2.989500	3.846500	-11.498000	22.364805	0.000475	20.881768
207.037503	-2.997800	3.846000	-11.528000	22.386912	0.000476	20.884939
208.036943	-3.009900	3.845600	-11.574000	22.407819	0.000473	20.870789
209.037749	-2.997400	3.845900	-11.526000	22.399297	0.000475	20.883116
210.037985	-2.988800	3.846600	-11.496000	22.407629	0.000477	20.858745
211.039534	-2.996500	3.845800	-11.523000	22.376550	0.000477	20.863659
212.041227	-3.012600	3.843600	-11.578000	22.415500	0.000479	20.885591
213.038564	-2.998600	3.846300	-11.532000	22.403589	0.000480	20.882199
214.038640	-3.000800	3.844700	-11.537000	22.380615	0.000479	20.890013
215.040404	-3.001500	3.845600	-11.541000	22.392225	0.000479	20.867975
216.039519	-2.999600	3.844300	-11.530000	22.411546	0.000479	20.855556
217.037296	-2.995300	3.845800	-11.519000	22.413163	0.000477	20.860968
218.041056	-2.980500	3.843600	-11.455000	22.412641	0.000480	20.836738
219.038735	-3.004800	3.843600	-11.548000	22.425578	0.000480	20.867711
220.040430	-2.994500	3.845600	-11.516000	22.450697	0.000479	20.853037
221.041542	-2.999600	3.843200	-11.526000	22.459921	0.000480	20.841412
222.039647	-2.999700	3.843800	-11.529000	22.468966	0.000480	20.864693
223.040529	-2.968100	3.843700	-11.408000	22.448613	0.000481	20.854269
224.042106	-2.995100	3.841700	-11.505000	22.490923	0.000480	20.872932
225.041553	-3.013100	3.841700	-11.574000	22.513796	0.000480	20.870709
226.040294	-3.010100	3.842300	-11.565000	22.531443	0.000481	20.844288
227.043762	-2.986100	3.842600	-11.473000	22.560020	0.000480	20.852520
228.040602	-2.997100	3.841900	-11.513000	22.546549	0.000484	20.842822
229.042251	-2.988300	3.841800	-11.479000	22.564109	0.000484	20.847132
230.042165	-2.990700	3.840900	-11.486000	22.585567	0.000482	20.853924
231.043857	-2.988900	3.842500	-11.483000	22.580433	0.000482	20.848308
232.040530	-2.981400	3.841500	-11.452000	22.580089	0.000483	20.854602
233.041455	-2.964300	3.842300	-11.388000	22.609760	0.000484	20.859189
234.041421	-2.981800	3.842500	-11.456000	22.572391	0.000485	20.838358
235.042952	-3.006800	3.840000	-11.546000	22.556596	0.000484	20.841505
236.042768	-3.000800	3.840800	-11.524000	22.576105	0.000486	20.842551
237.042729	-2.989300	3.841300	-11.482000	22.559695	0.000484	20.856936
238.045313	-2.984100	3.840500	-11.460000	22.588174	0.000485	20.830932
239.043141	-3.013400	3.840200	-11.571000	22.567264	0.000486	20.855033
240.044895	-2.995400	3.839600	-11.500000	22.570756	0.000486	20.840039
241.045025	-3.007200	3.838900	-11.543000	22.582173	0.000486	20.849577
242.044221	-2.990300	3.840200	-11.482000	22.595552	0.000485	20.857287
243.042851	-2.990300	3.838700	-11.478000	22.592269	0.000485	20.831714
244.043800	-2.982000	3.839500	-11.448000	22.627153	0.000486	20.836308
245.042688	-2.994000	3.838500	-11.491000	22.656602	0.000487	20.834510
246.043850	-3.005200	3.837800	-11.531000	22.646070	0.000488	20.834393
247.042424	-3.043700	3.836500	-11.676000	22.652126	0.000488	20.842829
248.049277	-2.989900	3.838300	-11.475000	22.664791	0.000487	20.840342
249.046513	-3.006600	3.837200	-11.536000	22.678224	0.000488	20.821081
250.044185	-3.006400	3.836800	-11.534000	22.672494	0.000488	20.836204
251.046185	-2.991800	3.836800	-11.479000	22.678648	0.000489	20.838100
252.044869	-2.992100	3.836300	-11.478000	22.671677	0.000490	20.819264
253.044489	-2.989000	3.836300	-11.465000	22.696489	0.000489	20.826573
254.047461	-2.986600	3.837300	-11.459000	22.698290	0.000489	20.814628
255.043886	-2.995400	3.837000	-11.493000	22.695278	0.000488	20.822516
256.044114	-2.977700	3.837000	-11.425000	22.714587	0.000492	20.824788
257.047906	-2.988100	3.836400	-11.463000	22.759654	0.000491	20.833421
258.045134	-2.994100	3.835200	-11.482000	22.755376	0.000491	20.838618
259.043090	-2.996000	3.835700	-11.491000	22.730264	0.000490	20.821999
260.046969	-2.991200	3.834800	-11.470000	22.760336	0.000491	20.820829
261.044149	-3.023100	3.834300	-11.591000	22.748983	0.000491	20.810878
262.044146	-3.002000	3.834900	-11.511000	22.754564	0.000493	20.825478
263.047243	-3.008000	3.835300	-11.536000	22.740045	0.000493	20.824684
264.046914	-2.972600	3.834700	-11.398000	22.742344	0.000493	20.839789
265.046429	-3.019500	3.833900	-11.575000	22.740444	0.000493	20.827455
266.047729	-2.964400	3.834800	-11.367000	22.759188	0.000496	20.830109
267.045439	-2.994300	3.834300	-11.480000	22.749051	0.000493	20.830386
268.046203	-2.982700	3.834200	-11.434000	22.767861	0.000495	20.847332
269.048789	-3.013400	3.832100	-11.547000	22.748725	0.000493	20.826267
270.044874	-3.026900	3.832100	-11.598000	22.751768	0.000494	20.823151
271.048523	-2.996600	3.833900	-11.487000	22.809563	0.000496	20.841217
272.053930	-2.997200	3.833400	-11.488000	22.805058	0.000497	20.821057
273.048081	-2.997800	3.832600	-11.488000	22.842652	0.000496	20.812252
274.051032	-2.984600	3.833600	-11.441000	22.843304	0.000497	20.806267
275.053821	-3.008600	3.830700	-11.524000	22.862365	0.000497	20.819672
276.049235	-3.014000	3.831500	-11.547000	22.864529	0.000498	20.834167
277.049500	-2.986900	3.831800	-11.444000	22.838178	0.000501	20.818675
278.058111	-3.016400	3.830300	-11.553000	22.854989	0.000501	20.809912
279.049520	-3.010100	3.830800	-11.530000	22.862249	0.000499	20.820030
280.050242	-3.012200	3.829700	-11.534000	22.866355	0.000499	20.823669
281.054879	-3.011000	3.831200	-11.534000	22.880424	0.000501	20.836341
282.050865	-2.997200	3.830400	-11.479000	22.914925	0.000500	20.817800
283.051808	-3.025100	3.829100	-11.582000	22.914476	0.000500	20.797911
284.054622	-3.007600	3.830400	-11.520000	22.897020	0.000502	20.820251
285.051931	-3.010000	3.830400	-11.529000	22.916197	0.000498	20.820023
286.052167	-2.967300	3.830900	-11.366000	22.917144	0.000501	20.806747
287.056366	-2.991500	3.831500	-11.461000	22.925287	0.000501	20.822493
288.052025	-2.976400	3.830500	-11.399000	22.918349	0.000503	20.810325
289.056455	-2.964900	3.829300	-11.352000	22.920143	0.000500	20.798847
290.060682	-2.994600	3.830000	-11.468000	22.927279	0.000502	20.797935
291.054733	-2.978600	3.828500	-11.401000	22.936529	0.000502	20.802936
292.054254	-2.988900	3.829600	-11.445000	22.958699	0.000504	20.812819
293.056199	-3.027400	3.826900	-11.585000	22.978723	0.000502	20.820553
294.055392	-2.991600	3.828300	-11.452000	23.020626	0.000502	20.818441
295.056312	-2.972600	3.828600	-11.380000	23.006934	0.000503	20.805670
296.055958	-3.000200	3.828300	-11.485000	23.008949	0.000504	20.797733
297.054553	-2.992700	3.827800	-11.455000	23.023638	0.000505	20.825726
298.055942	-3.023700	3.826300	-11.569000	23.039832	0.000505	20.805442
299.057671	-3.016000	3.827000	-11.541000	23.017123	0.000505	20.803552
300.056990	-3.001400	3.826500	-11.484000	23.024720	0.000504	20.796939
301.058842	-2.985100	3.826600	-11.422000	23.044521	0.000504	20.800658
302.059440	-2.999800	3.826700	-11.479000	23.040883	0.000506	20.814556
303.058028	-2.985100	3.827000	-11.423000	23.044601	0.000508	20.798842
304.057570	-2.999700	3.827200	-11.480000	23.051995	0.000506	20.803879
305.060234	-3.009300	3.824900	-11.509000	23.061059	0.000505	20.811539
306.058941	-3.012900	3.824300	-11.520000	23.032371	0.000508	20.815985
307.062805	-2.995400	3.824000	-11.454000	23.034762	0.000506	20.788983
308.060981	-3.003300	3.824300	-11.485000	23.020922	0.000509	20.818738
309.060587	-3.023100	3.823400	-11.558000	23.028789	0.000507	20.793429
310.060992	-3.008400	3.824300	-11.504000	23.047373	0.000507	20.796403
311.061790	-3.000400	3.824600	-11.475000	23.070481	0.000508	20.797272
312.060630	-3.003100	3.823500	-11.481000	23.051983	0.000508	20.795806
313.063181	-3.004100	3.823800	-11.487000	23.039384	0.000507	20.805942
314.060593	-2.986500	3.823500	-11.418000	23.047982	0.000508	20.820247
315.061619	-2.994200	3.823800	-11.449000	23.069400	0.000509	20.797137
316.060135	-2.978200	3.822400	-11.384000	23.096624	0.000509	20.799760
317.060569	-2.994000	3.822000	-11.442000	23.104220	0.000510	20.795517
318.061596	-3.034000	3.821800	-11.595000	23.125514	0.000512	20.795991
319.061337	-2.998000	3.823800	-11.462000	23.133687	0.000512	20.806078
320.066198	-2.998100	3.821500	-11.457000	23.111865	0.000509	20.796539
321.061598	-2.987200	3.822900	-11.419000	23.147458	0.000511	20.791903
322.070045	-2.969300	3.822100	-11.348000	23.142180	0.000511	20.799889
323.067326	-2.996300	3.821700	-11.449000	23.135162	0.000513	20.795228
324.064584	-3.005900	3.820400	-11.483000	23.114016	0.000512	20.791109
325.069780	-3.010500	3.820600	-11.501000	23.128212	0.000510	20.803436
326.073102	-3.019000	3.821100	-11.535000	23.119375	0.000512	20.799797
327.066015	-2.970700	3.822100	-11.353000	23.093570	0.000512	20.811873
328.068223	-3.002500	3.819800	-11.467000	23.120174	0.000512	20.802495
329.068925	-2.999900	3.819400	-11.457000	23.136385	0.000513	20.792660
330.064581	-2.988200	3.820800	-11.416000	23.143139	0.000515	20.788048
331.067184	-3.014400	3.819200	-11.512000	23.147674	0.000511	20.806818
332.075448	-3.041400	3.817900	-11.610000	23.110225	0.000512	20.790155
333.065526	-3.004300	3.818600	-11.471000	23.123825	0.000512	20.781971
334.066818	-3.014400	3.816900	-11.505000	23.158938	0.000512	20.780173
335.072898	-3.007300	3.817100	-11.478000	23.164340	0.000514	20.798388
336.068600	-3.019900	3.817600	-11.528000	23.164647	0.000514	20.792058
337.071788	-2.988800	3.817800	-11.410000	23.170627	0.000514	20.784773
338.072216	-2.998000	3.816500	-11.442000	23.165078	0.000514	20.783954
339.072365	-2.995700	3.818200	-11.438000	23.178081	0.000515	20.790821
340.073386	-2.976100	3.818900	-11.364000	23.186555	0.000515	20.770863
341.088366	-3.002200	3.816400	-11.457000	23.184189	0.000513	20.795045
342.073132	-3.008000	3.817100	-11.481000	23.206010	0.000516	20.792256
343.074321	-3.007200	3.816400	-11.475000	23.250369	0.000515	20.785501
344.078148	-3.002000	3.816400	-11.456000	23.258461	0.000517	20.798827
345.073232	-3.013300	3.815400	-11.495000	23.279635	0.000515	20.778796
346.076604	-2.992600	3.815800	-11.418000	23.307899	0.000517	20.760654
347.080290	-2.997200	3.815900	-11.436000	23.326854	0.000517	20.786764
348.073549	-3.013600	3.816000	-11.499000	23.343020	0.000515	20.782577
349.076373	-3.016500	3.815700	-11.509000	23.342227	0.000517	20.768981
350.076801	-3.005900	3.815000	-11.467000	23.334191	0.000516	20.773255
351.073332	-3.003800	3.814700	-11.458000	23.362608	0.000519	20.777079
352.074352	-3.009800	3.813800	-11.478000	23.326333	0.000515	20.782923
353.075513	-3.007300	3.815200	-11.472000	23.303263	0.000517	20.764068
354.073912	-3.017400	3.812600	-11.504000	23.300252	0.000518	20.785233
355.074910	-3.014700	3.813300	-11.494000	23.335065	0.000519	20.770811
356.082818	-3.005600	3.813500	-11.461000	23.344736	0.000518	20.778134
357.075200	-3.012000	3.812400	-11.482000	23.369214	0.000517	20.788442
358.078816	-2.987100	3.814000	-11.392000	23.366855	0.000519	20.770430
359.077390	-3.005200	3.811200	-11.453000	23.348479	0.000516	20.781410
360.074061	-3.018500	3.812100	-11.506000	23.359071	0.000519	20.775431
361.075952	-2.985400	3.813400	-11.384000	23.327503	0.000519	20.753749
362.077530	-2.988300	3.812200	-11.391000	23.356712	0.000519	20.763109
363.075277	-2.999900	3.811200	-11.432000	23.362396	0.000519	20.762168
364.077920	-3.008400	3.811100	-11.465000	23.361954	0.000521	20.750345
365.078503	-2.973700	3.812200	-11.335000	23.376760	0.000520	20.768030
366.077732	-2.985100	3.811400	-11.376000	23.359515	0.000520	20.767815
367.080989	-2.965100	3.812400	-11.303000	23.330982	0.000520	20.765771
368.082094	-3.003800	3.810500	-11.445000	23.371023	0.000522	20.750899
369.079785	-3.022700	3.809800	-11.515000	23.390100	0.000520	20.763382
370.080380	-2.999000	3.809100	-11.422000	23.418312	0.000522	20.747562
371.081764	-3.019700	3.809900	-11.504000	23.442462	0.000522	20.770347
372.079045	-2.998200	3.810000	-11.422000	23.420063	0.000521	20.754533
373.080534	-3.004000	3.807200	-11.436000	23.412371	0.000521	20.749668
374.083109	-2.998400	3.809300	-11.421000	23.390666	0.000519	20.771536
375.078929	-3.032000	3.808500	-11.547000	23.414670	0.000521	20.765723
376.081795	-3.025200	3.808100	-11.520000	23.404434	0.000521	20.755464
377.079792	-2.993700	3.807400	-11.397000	23.391717	0.000523	20.765477
378.078905	-3.021100	3.807600	-11.502000	23.398739	0.000522	20.740746
379.081070	-2.993200	3.807100	-11.395000	23.413761	0.000523	20.768606
380.083702	-2.997200	3.807600	-11.411000	23.406388	0.000523	20.775441
381.080534	-3.018200	3.807300	-11.490000	23.392301	0.000522	20.758476
382.081544	-3.003600	3.806800	-11.433000	23.396885	0.000523	20.750267
383.082670	-2.988700	3.807700	-11.380000	23.435651	0.000524	20.740285
384.080914	-3.000500	3.807100	-11.422000	23.433906	0.000523	20.739959
385.080709	-3.011400	3.805800	-11.460000	23.457964	0.000524	20.743210
386.085146	-2.977500	3.806600	-11.333000	23.461454	0.000526	20.754295
387.081461	-3.010800	3.806100	-11.458000	23.464324	0.000524	20.736308
388.081335	-2.996000	3.804000	-11.396000	23.459772	0.000525	20.738858
389.082385	-2.986300	3.805900	-11.365000	23.497933	0.000525	20.760989
390.080360	-3.022500	3.804300	-11.498000	23.498935	0.000524	20.736388
391.082697	-2.972400	3.805900	-11.312000	23.467543	0.000525	20.737164
392.084991	-2.985600	3.804700	-11.358000	23.474541	0.000526	20.726160
393.081810	-3.004100	3.804300	-11.427000	23.428090	0.000524	20.753570
394.080894	-3.003000	3.803000	-11.419000	23.462598	0.000527	20.745010
395.081370	-2.998500	3.804800	-11.408000	23.444272	0.000528	20.728537
396.080375	-3.001800	3.803600	-11.417000	23.462101	0.000529	20.745460
397.083606	-3.002700	3.803800	-11.421000	23.474203	0.000530	20.723925
398.082854	-2.992700	3.803000	-11.380000	23.497609	0.000526	20.737904
399.085417	-2.996000	3.803300	-11.394000	23.527963	0.000528	20.714276
400.084305	-2.999800	3.803100	-11.407000	23.520671	0.000527	20.737788
401.084654	-2.983100	3.802000	-11.341000	23.536256	0.000529	20.733022
402.086397	-2.985800	3.802200	-11.352000	23.577506	0.000527	20.742604
403.086651	-2.983700	3.801700	-11.342000	23.583384	0.000529	20.733323
404.087487	-3.046500	3.800100	-11.576000	23.562450	0.000529	20.752167
405.086145	-3.012600	3.801200	-11.451000	23.557173	0.000528	20.708469
406.088372	-3.002000	3.800900	-11.408000	23.541399	0.000527	20.732013
407.089546	-3.008500	3.799800	-11.431000	23.513589	0.000530	20.726421
408.089474	-2.995800	3.800200	-11.384000	23.496020	0.000527	20.716870
409.091493	-3.000800	3.799900	-11.402000	23.527534	0.000528	20.708156
410.094987	-3.016500	3.798700	-11.458000	23.538924	0.000529	20.716729
411.090288	-2.987800	3.800600	-11.354000	23.541363	0.000530	20.718225
412.090680	-2.988000	3.800100	-11.354000	23.577139	0.000531	20.727537
413.092501	-3.000800	3.799400	-11.400000	23.570548	0.000530	20.710023
414.089730	-3.027500	3.796800	-11.493000	23.573534	0.000532	20.721551
415.090462	-2.995500	3.798700	-11.377000	23.606551	0.000530	20.702966
416.090118	-3.004700	3.798300	-11.412000	23.603278	0.000530	20.709643
417.092300	-3.000000	3.797700	-11.392000	23.603254	0.000529	20.703454
418.090481	-3.014600	3.797300	-11.447000	23.627326	0.000529	20.701982
419.092909	-2.999600	3.796100	-11.386000	23.639476	0.000529	20.722224
420.098495	-2.982000	3.798100	-11.325000	23.666011	0.000532	20.722748
421.091283	-2.980200	3.796700	-11.314000	23.676447	0.000531	20.705708
422.092393	-2.989900	3.796300	-11.349000	23.626572	0.000530	20.702648
423.095120	-3.014700	3.796300	-11.443000	23.654127	0.000530	20.691391
424.094285	-2.997500	3.796800	-11.380000	23.666879	0.000531	20.707021
425.095972	-3.001600	3.794900	-11.390000	23.664114	0.000530	20.717527
426.096610	-2.999400	3.796900	-11.387000	23.634153	0.000533	20.722577
427.095498	-3.029800	3.795700	-11.499000	23.643791	0.000530	20.705211
428.095631	-3.015200	3.794600	-11.440000	23.641432	0.000532	20.720392
429.100172	-3.005400	3.794000	-11.401000	23.611506	0.000531	20.714572
430.097100	-2.994900	3.793800	-11.361000	23.652734	0.000532	20.711807
431.097373	-2.997400	3.793800	-11.371000	23.660879	0.000532	20.716654
432.102235	-2.983200	3.794500	-11.319000	23.701879	0.000531	20.704652
433.097263	-3.000100	3.791800	-11.375000	23.705410	0.000533	20.708193
434.096319	-3.003600	3.794100	-11.395000	23.725827	0.000533	20.710170
435.101185	-2.976600	3.792900	-11.288000	23.738497	0.000533	20.710546
436.098745	-2.976700	3.794300	-11.294000	23.744074	0.000533	20.691006
437.098269	-3.003000	3.792200	-11.387000	23.736742	0.000531	20.693611
438.097466	-3.021500	3.791200	-11.454000	23.760885	0.000531	20.666132
439.098006	-3.005800	3.791800	-11.396000	23.727511	0.000532	20.700952
440.099873	-2.980100	3.792000	-11.300000	23.770859	0.000533	20.689411
441.101336	-2.992100	3.791000	-11.343000	23.767905	0.000534	20.687872
442.099552	-2.987600	3.792800	-11.331000	23.731571	0.000531	20.689375
443.101670	-2.982700	3.791400	-11.308000	23.725490	0.000533	20.686123
444.103187	-2.996600	3.791400	-11.361000	23.730275	0.000533	20.698982
445.100269	-2.990200	3.791000	-11.335000	23.739568	0.000533	20.698816
446.111431	-2.997200	3.791200	-11.362000	23.761925	0.000534	20.702739
447.106372	-3.000900	3.789200	-11.371000	23.750722	0.000534	20.682971
448.101766	-2.972800	3.791800	-11.272000	23.782978	0.000533	20.685915
449.104564	-2.995500	3.789900	-11.352000	23.762895	0.000533	20.667673
450.106707	-2.976000	3.789600	-11.277000	23.753787	0.000533	20.692209
451.103745	-3.001100	3.787700	-11.366000	23.733654	0.000533	20.680083
452.105939	-2.974000	3.791000	-11.274000	23.745116	0.000534	20.687782
453.106214	-2.988400	3.788600	-11.321000	23.741504	0.000533	20.704551
454.102943	-2.990200	3.789400	-11.330000	23.725050	0.000535	20.692321
455.107359	-3.015000	3.787700	-11.419000	23.747880	0.000535	20.700986
456.105825	-2.998800	3.789000	-11.362000	23.790750	0.000535	20.674265
457.104197	-2.997300	3.786900	-11.349000	23.785099	0.000534	20.690413
458.105470	-2.988700	3.787300	-11.318000	23.794957	0.000533	20.713100
459.104102	-2.992400	3.787400	-11.332000	23.776121	0.000535	20.710810
460.103933	-2.987100	3.785700	-11.307000	23.773732	0.000535	20.694188
461.106267	-2.999600	3.785600	-11.354000	23.814709	0.000533	20.689281
462.109628	-3.021100	3.784500	-11.431000	23.825186	0.000535	20.690777
463.105224	-3.001500	3.785700	-11.362000	23.847933	0.000536	20.677075
464.108350	-2.989300	3.784700	-11.313000	23.857373	0.000536	20.694602
465.111469	-3.000500	3.785600	-11.358000	23.874494	0.000535	20.682846
466.105494	-3.010500	3.785300	-11.394000	23.885279	0.000535	20.686073
467.108844	-2.986300	3.785700	-11.304000	23.889216	0.000537	20.705196
468.109812	-2.986100	3.785800	-11.304000	23.914498	0.000534	20.666533
469.105100	-3.011800	3.783400	-11.394000	23.926571	0.000535	20.688599
470.109737	-2.995900	3.784200	-11.335000	23.893576	0.000537	20.673529
471.110399	-3.007700	3.784200	-11.381000	23.882995	0.000537	20.671928
472.109312	-3.023400	3.782500	-11.435000	23.896070	0.000538	20.685040
473.111399	-2.984200	3.784300	-11.292000	23.913093	0.000537	20.684092
474.108499	-3.004600	3.782300	-11.363000	23.881884	0.000537	20.656588
475.109755	-3.023000	3.782100	-11.432000	23.885961	0.000536	20.679645
476.110094	-2.988000	3.782900	-11.302000	23.835746	0.000538	20.680027
477.111302	-2.997100	3.781800	-11.333000	23.856356	0.000537	20.692634
478.113220	-3.006900	3.780900	-11.367000	23.851946	0.000537	20.689634
479.109645	-3.018800	3.781000	-11.414000	23.881891	0.000535	20.691211
480.111427	-3.017200	3.779900	-11.404000	23.892367	0.000539	20.684646
481.112677	-3.014200	3.779300	-11.390000	23.894315	0.000538	20.681383
482.112520	-3.005800	3.780500	-11.363000	23.901825	0.000537	20.692708
483.113054	-2.984300	3.781300	-11.283000	23.926062	0.000537	20.691408
484.112351	-2.987300	3.781600	-11.296000	23.922550	0.000538	20.694050
485.113201	-2.998000	3.778900	-11.328000	23.915856	0.000536	20.682595
486.112747	-3.009400	3.780300	-11.375000	23.961010	0.000537	20.691366
487.113662	-2.995200	3.779600	-11.320000	23.957417	0.000538	20.674485
488.112139	-3.004700	3.780000	-11.357000	23.933929	0.000538	20.673216
489.113737	-3.003400	3.779700	-11.351000	23.933824	0.000538	20.679750
490.116364	-2.997900	3.779400	-11.329000	23.926732	0.000538	20.684966
491.113878	-2.983000	3.778800	-11.271000	23.924066	0.000538	20.700313
492.113523	-2.981300	3.779200	-11.266000	23.933603	0.000537	20.690435
493.112501	-3.005800	3.777000	-11.352000	23.951442	0.000537	20.681770
494.113723	-2.969100	3.777400	-11.214000	23.971700	0.000536	20.681222
495.113015	-2.998300	3.778100	-11.327000	23.961869	0.000538	20.666620
496.113853	-3.008200	3.775300	-11.355000	23.980413	0.000539	20.683322
497.113492	-2.975200	3.776500	-11.234000	23.938325	0.000539	20.696593
498.111965	-2.983100	3.776600	-11.266000	23.941316	0.000537	20.686315
499.114479	-3.006500	3.775700	-11.351000	23.951620	0.000536	20.690484
500.115951	-3.008400	3.777400	-11.364000	23.990017	0.000539	20.693902
501.114542	-3.007900	3.775300	-11.355000	24.015230	0.000537	20.689315
502.116757	-3.015600	3.775900	-11.386000	24.028689	0.000539	20.696649
503.116647	-2.993500	3.774800	-11.299000	24.015783	0.000536	20.705992
504.115288	-3.018600	3.775200	-11.394000	24.017398	0.000538	20.679634
505.116244	-3.000100	3.775500	-11.325000	24.023470	0.000539	20.689044
506.117038	-3.002800	3.775800	-11.336000	24.001777	0.000538	20.691945
507.118085	-3.004700	3.774000	-11.339000	23.983663	0.000540	20.707920
508.119730	-2.998900	3.775300	-11.321000	23.965794	0.000539	20.708967
509.116565	-2.995900	3.773100	-11.303000	23.989533	0.000537	20.696262
510.115608	-2.979000	3.774700	-11.244000	24.014224	0.000538	20.684512
511.116328	-2.988200	3.773700	-11.275000	24.011688	0.000537	20.695247
512.116512	-2.984800	3.771800	-11.257000	24.029679	0.000539	20.720877
513.116861	-2.984400	3.772600	-11.258000	24.065121	0.000539	20.701892
514.116087	-2.972800	3.773300	-11.216000	24.069450	0.000538	20.709079
515.119758	-3.023000	3.770800	-11.398000	24.067909	0.000539	20.680504
516.119001	-3.001700	3.772100	-11.322000	24.111631	0.000539	20.685000
517.120339	-3.013300	3.772300	-11.366000	24.084112	0.000537	20.697705
518.119608	-3.004200	3.772300	-11.332000	24.103177	0.000538	20.685530
519.119431	-2.992700	3.771600	-11.287000	24.104725	0.000540	20.712689
520.119139	-3.000300	3.770100	-11.311000	24.099353	0.000539	20.691652
521.120406	-2.988800	3.770000	-11.266000	24.070317	0.000539	20.710897
522.120825	-2.995700	3.770800	-11.295000	24.096639	0.000538	20.705053
523.119845	-3.004900	3.769300	-11.325000	24.047679	0.000537	20.703841
524.120278	-3.010600	3.769200	-11.346000	24.039169	0.000538	20.700047
525.119118	-2.999800	3.769900	-11.308000	24.076918	0.000537	20.699499
526.121241	-3.011600	3.767900	-11.346000	24.123852	0.000539	20.694413
527.120193	-3.015700	3.768900	-11.365000	24.131244	0.000539	20.698508
528.120165	-3.010700	3.768900	-11.346000	24.148743	0.000540	20.688083
529.122914	-3.017500	3.768100	-11.370000	24.163797	0.000540	20.676628
530.121523	-2.990500	3.768300	-11.268000	24.124166	0.000540	20.695677
531.121585	-3.034700	3.766200	-11.429000	24.126954	0.000539	20.698473
532.122550	-3.005400	3.767500	-11.322000	24.087746	0.000539	20.713678
533.122331	-3.000900	3.768200	-11.307000	24.087746	0.000540	20.719843
534.123348	-2.999600	3.767100	-11.299000	24.144053	0.000539	20.702821
535.122313	-3.011200	3.765600	-11.338000	24.137540	0.000541	20.692020
536.123009	-2.980500	3.766700	-11.225000	24.118882	0.000539	20.704602
537.121813	-3.019100	3.764600	-11.364000	24.123511	0.000538	20.705452
538.123473	-3.013900	3.765100	-11.347000	24.115149	0.000540	20.706548
539.125963	-3.000700	3.765600	-11.299000	24.137123	0.000540	20.694921
540.125024	-3.006100	3.765300	-11.318000	24.168632	0.000540	20.707085
541.125844	-2.999800	3.763900	-11.290000	24.113614	0.000540	20.711173
542.124405	-3.004200	3.764400	-11.308000	24.136909	0.000539	20.720313
543.125569	-3.005600	3.764600	-11.313000	24.163033	0.000541	20.725177
544.124863	-2.999000	3.763400	-11.285000	24.172389	0.000540	20.697102
545.124933	-2.971800	3.764700	-11.187000	24.157237	0.000541	20.684274
546.124500	-3.011600	3.763000	-11.332000	24.167073	0.000540	20.711211
547.125046	-2.992000	3.764200	-11.261000	24.139899	0.000538	20.728054
548.126415	-3.007200	3.762400	-11.314000	24.135743	0.000538	20.702546
549.128275	-2.988700	3.763200	-11.246000	24.144522	0.000539	20.712775
550.129412	-2.997000	3.762200	-11.274000	24.132304	0.000540	20.696252
551.127714	-2.998800	3.762000	-11.281000	24.157668	0.000540	20.704148
552.128975	-3.014100	3.762500	-11.340000	24.178339	0.000540	20.706863
553.128454	-3.000600	3.762300	-11.288000	24.169584	0.000539	20.725110
554.129601	-2.996600	3.761400	-11.270000	24.176896	0.000541	20.727229
555.129541	-3.002300	3.760900	-11.291000	24.164163	0.000540	20.724415
556.129795	-2.996800	3.761200	-11.270000	24.158557	0.000539	20.705989
557.128498	-2.985800	3.761600	-11.230000	24.170106	0.000538	20.714728
558.131300	-3.010200	3.760400	-11.319000	24.220534	0.000541	20.715996
559.132747	-2.986400	3.760900	-11.230000	24.216549	0.000541	20.717215
560.133097	-3.017700	3.760400	-11.347000	24.243574	0.000541	20.739108
561.132916	-2.997000	3.759100	-11.264000	24.248553	0.000542	20.714703
562.136438	-3.007500	3.759900	-11.307000	24.232628	0.000542	20.702522
563.135387	-2.985800	3.760000	-11.227000	24.215008	0.000542	20.727998
564.134393	-2.994700	3.758600	-11.255000	24.255017	0.000539	20.697952
565.138734	-2.972500	3.758300	-11.171000	24.250787	0.000539	20.721686
566.134945	-2.986000	3.759500	-11.225000	24.278792	0.000540	20.718957
567.135277	-2.984400	3.758900	-11.216000	24.317265	0.000540	20.712030
568.137590	-3.006200	3.757700	-11.296000	24.348160	0.000541	20.719789
569.135089	-3.018000	3.757600	-11.339000	24.279688	0.000540	20.728391
570.134551	-2.999500	3.756200	-11.265000	24.266761	0.000540	20.722062
571.138594	-3.005800	3.756800	-11.291000	24.240339	0.000539	20.712153
572.134277	-3.000900	3.757600	-11.275000	24.219035	0.000541	20.724925
573.136900	-2.996700	3.757600	-11.258000	24.225156	0.000541	20.744816
574.140921	-3.021400	3.755700	-11.347000	24.222768	0.000539	20.725350
575.137411	-3.016600	3.755800	-11.329000	24.180941	0.000541	20.719431
576.137751	-2.991800	3.755400	-11.234000	24.241897	0.000539	20.743116
577.140506	-3.010000	3.754700	-11.301000	24.214529	0.000540	20.729888
578.138815	-2.987600	3.754900	-11.216000	24.217445	0.000540	20.724752
579.138785	-3.006400	3.755000	-11.288000	24.197830	0.000539	20.740640
580.144203	-3.000800	3.755600	-11.269000	24.236722	0.000539	20.727492
581.138734	-3.009300	3.753600	-11.295000	24.283292	0.000542	20.722048
582.140353	-2.990800	3.754000	-11.226000	24.328889	0.000540	20.736969
583.143729	-3.011400	3.753100	-11.300000	24.315606	0.000540	20.746878
584.141729	-3.001700	3.753800	-11.267000	24.337464	0.000540	20.734665
585.140658	-3.013000	3.752000	-11.304000	24.310553	0.000538	20.710039
586.142020	-2.995600	3.752500	-11.239000	24.284237	0.000542	20.750499
587.141476	-2.998700	3.752100	-11.250000	24.321695	0.000539	20.739709
588.141477	-2.988700	3.753000	-11.216000	24.333242	0.000539	20.727584
589.141651	-2.999700	3.752700	-11.255000	24.311800	0.000541	20.762501
590.141715	-2.998400	3.752100	-11.250000	24.300977	0.000538	20.755437
591.141183	-2.980000	3.752500	-11.182000	24.336876	0.000538	20.737868
592.145332	-2.989300	3.751100	-11.212000	24.327115	0.000538	20.738982
593.141926	-2.982900	3.751400	-11.189000	24.386480	0.000539	20.758707
594.143469	-2.992000	3.750100	-11.220000	24.382692	0.000540	20.749691
595.147543	-2.981700	3.751100	-11.184000	24.380752	0.000541	20.755332
596.144389	-2.996600	3.750600	-11.239000	24.333812	0.000540	20.750917
597.146688	-2.993400	3.750600	-11.226000	24.290228	0.000539	20.724739
598.147093	-2.988200	3.751300	-11.209000	24.313211	0.000541	20.746372
599.146267	-3.002000	3.749400	-11.255000	24.323512	0.000540	20.756705
600.147977	-3.011100	3.748000	-11.285000	24.363191	0.000538	20.746249
601.149381	-2.983300	3.749900	-11.186000	24.342394	0.000541	20.759526
602.147241	-2.994100	3.748200	-11.221000	24.368863	0.000538	20.756681
603.147246	-2.989800	3.748900	-11.207000	24.388469	0.000538	20.748374
604.148942	-2.993200	3.748400	-11.217000	24.388910	0.000540	20.743601
605.146908	-2.987400	3.748000	-11.195000	24.418214	0.000539	20.742178
606.146734	-3.008400	3.747300	-11.273000	24.438389	0.000537	20.750092
607.151542	-3.011400	3.747900	-11.285000	24.469103	0.000536	20.744395
608.147306	-3.001400	3.746500	-11.244000	24.477665	0.000538	20.751563
609.150770	-2.999100	3.747900	-11.240000	24.451143	0.000538	20.757197
610.150107	-3.010300	3.746100	-11.276000	24.435921	0.000536	20.764686
611.149580	-3.008600	3.747000	-11.273000	24.429574	0.000539	20.753102
612.154754	-2.998600	3.747200	-11.236000	24.398332	0.000537	20.744044
613.152717	-3.013100	3.745400	-11.284000	24.436670	0.000537	20.761170
614.150617	-3.027200	3.744600	-11.334000	24.442335	0.000540	20.765430
615.150949	-3.011500	3.745600	-11.279000	24.421564	0.000536	20.764981
616.154527	-3.000800	3.746200	-11.240000	24.398934	0.000538	20.751286
617.151569	-3.005400	3.745100	-11.255000	24.394771	0.000539	20.765128
618.150860	-3.004000	3.745700	-11.251000	24.400614	0.000537	20.758188
619.160381	-2.992000	3.745300	-11.204000	24.424621	0.000536	20.754771
620.152592	-3.012400	3.745700	-11.283000	24.455187	0.000537	20.756513
621.152536	-2.992000	3.744300	-11.202000	24.455488	0.000536	20.766298
622.155026	-3.003500	3.743600	-11.243000	24.415641	0.000537	20.752400
623.153151	-3.020000	3.743400	-11.304000	24.386957	0.000536	20.759186
624.152452	-2.997200	3.743100	-11.218000	24.345983	0.000535	20.769291
625.154461	-2.995300	3.743100	-11.210000	24.355289	0.000535	20.768669
626.152342	-2.995200	3.742700	-11.210000	24.358223	0.000536	20.764974
627.151310	-2.981700	3.744300	-11.163000	24.398969	0.000535	20.784039
628.156762	-3.001300	3.743100	-11.233000	24.403328	0.000538	20.761384
629.153554	-2.976400	3.743100	-11.140000	24.405789	0.000537	20.761483
630.152622	-2.983700	3.742000	-11.164000	24.397803	0.000534	20.774334
631.155896	-2.999800	3.741200	-11.221000	24.403198	0.000535	20.770738
632.151358	-3.007400	3.741700	-11.252000	24.409815	0.000535	20.755564
633.151625	-3.022900	3.740800	-11.307000	24.464118	0.000534	20.769266
634.157489	-2.996500	3.741500	-11.211000	24.449190	0.000534	20.759980
635.149838	-2.998100	3.741000	-11.215000	24.489166	0.000534	20.787758
636.154101	-2.993200	3.739900	-11.194000	24.483225	0.000534	20.796497
637.157464	-3.001900	3.740600	-11.228000	24.444152	0.000534	20.762986
638.153379	-2.998000	3.739800	-11.211000	24.481856	0.000535	20.779950
639.151943	-2.981700	3.740500	-11.153000	24.521456	0.000534	20.780800
640.155375	-3.016400	3.739200	-11.278000	24.547675	0.000536	20.780554
641.151738	-2.991100	3.740200	-11.187000	24.592293	0.000533	20.783122
642.153358	-2.970600	3.739400	-11.107000	24.570880	0.000533	20.784871
643.163116	-3.004300	3.738900	-11.232000	24.542183	0.000532	20.775043
644.155229	-2.996600	3.738100	-11.200000	24.499024	0.000534	20.779631
645.153278	-3.003700	3.737700	-11.226000	24.494329	0.000533	20.772550
646.157846	-2.999500	3.737000	-11.208000	24.496139	0.000533	20.789065
647.154840	-2.992900	3.737800	-11.185000	24.528159	0.000534	20.783733
648.156486	-2.991200	3.738500	-11.181000	24.569813	0.000533	20.779532
649.158493	-2.994700	3.737000	-11.190000	24.566150	0.000533	20.793402
650.154584	-3.003800	3.736900	-11.224000	24.566322	0.000534	20.787884
651.155074	-3.014600	3.737300	-11.265000	24.572189	0.000534	20.781443
652.158165	-2.998200	3.736600	-11.202000	24.540933	0.000533	20.778531
653.154892	-3.018100	3.736200	-11.276000	24.522453	0.000533	20.798396
654.154933	-2.985800	3.736400	-11.155000	24.516733	0.000530	20.808778
655.159580	-2.990900	3.735800	-11.171000	24.538888	0.000533	20.797817
656.155303	-3.013800	3.734500	-11.254000	24.528719	0.000533	20.794726
657.159177	-3.005600	3.735800	-11.227000	24.581125	0.000531	20.777607
658.157967	-3.012300	3.734100	-11.247000	24.554613	0.000532	20.777084
659.156873	-2.985500	3.735000	-11.150000	24.543572	0.000532	20.778808
660.158216	-2.988300	3.735400	-11.161000	24.500346	0.000532	20.794234
661.161448	-2.989800	3.734800	-11.166000	24.524196	0.000533	20.802516
662.159101	-3.000800	3.734600	-11.206000	24.543694	0.000532	20.805010
663.159366	-3.014000	3.733300	-11.251000	24.547555	0.000530	20.797030
664.162190	-2.982300	3.733200	-11.133000	24.556835	0.000530	20.803021
665.160278	-3.001300	3.733900	-11.205000	24.511559	0.000531	20.804535
666.161101	-2.989600	3.734400	-11.163000	24.560413	0.000530	20.818465
667.163481	-2.991500	3.732900	-11.166000	24.589215	0.000532	20.808483
668.160937	-2.997200	3.732400	-11.186000	24.577481	0.000531	20.783433
669.161186	-3.014300	3.732100	-11.248000	24.576407	0.000531	20.807485
670.164478	-3.006900	3.731900	-11.220000	24.553258	0.000532	20.802751
671.161422	-3.018100	3.731700	-11.260000	24.535219	0.000530	20.784178
672.161300	-2.990500	3.732100	-11.159000	24.537264	0.000529	20.831747
673.163566	-2.994100	3.730800	-11.169000	24.589473	0.000529	20.813958
674.160158	-2.995600	3.731400	-11.177000	24.553663	0.000530	20.814063
675.161587	-3.003400	3.731400	-11.205000	24.606314	0.000529	20.799562
676.163132	-2.999300	3.730800	-11.188000	24.644246	0.000530	20.806804
677.162815	-3.002900	3.729600	-11.199000	24.638527	0.000530	20.803435
678.172662	-3.013400	3.728800	-11.235000	24.611813	0.000528	20.806502
679.164406	-2.998200	3.730800	-11.185000	24.604805	0.000530	20.811324
680.163746	-2.993300	3.730700	-11.165000	24.562950	0.000529	20.840924
681.163569	-3.000600	3.729300	-11.189000	24.574635	0.000531	20.808553
682.165626	-3.001600	3.727900	-11.189000	24.552904	0.000529	20.811879
683.165027	-2.981000	3.729500	-11.117000	24.604511	0.000529	20.827150
684.165552	-3.000900	3.729000	-11.189000	24.615649	0.000527	20.816989
685.166693	-3.011500	3.727500	-11.223000	24.599754	0.000530	20.797721
686.166609	-2.991000	3.728200	-11.150000	24.621246	0.000529	20.815019
687.165438	-2.992300	3.728500	-11.157000	24.612323	0.000526	20.822661
688.167206	-2.999800	3.726900	-11.179000	24.578944	0.000529	20.840376
689.164450	-3.023200	3.727100	-11.267000	24.602964	0.000530	20.811373
690.163721	-3.007700	3.728000	-11.212000	24.597864	0.000527	20.806730
691.166158	-3.009500	3.728300	-11.219000	24.623462	0.000529	20.813923
692.165833	-3.000700	3.727300	-11.184000	24.625996	0.000527	20.835431
693.165524	-3.011600	3.727100	-11.223000	24.597699	0.000528	20.822211
694.166672	-2.992500	3.726800	-11.152000	24.617956	0.000527	20.821674
695.166854	-3.005600	3.726000	-11.197000	24.626682	0.000527	20.829956
696.165446	-3.011900	3.726000	-11.221000	24.644019	0.000529	20.825541
697.169653	-3.012500	3.725300	-11.222000	24.639521	0.000528	20.819606
698.166195	-2.971800	3.725200	-11.070000	24.672168	0.000526	20.822019
699.166831	-3.015800	3.723900	-11.230000	24.670088	0.000528	20.835579
700.168414	-2.989300	3.726300	-11.138000	24.689927	0.000527	20.809968
701.165641	-3.012800	3.723500	-11.217000	24.653438	0.000526	20.812708
702.166177	-2.999200	3.725700	-11.174000	24.646854	0.000525	20.818429
703.168147	-3.012500	3.723800	-11.217000	24.650376	0.000524	20.849463
704.167143	-3.001300	3.724600	-11.177000	24.633217	0.000523	20.841255
705.168333	-3.030700	3.721800	-11.278000	24.602299	0.000525	20.837732
706.170993	-2.981200	3.723700	-11.100000	24.621152	0.000526	20.844795
707.169773	-2.992600	3.724800	-11.147000	24.623392	0.000526	20.821913
708.168678	-3.012000	3.723100	-11.214000	24.670516	0.000525	20.842172
709.171061	-2.983800	3.723100	-11.108000	24.643827	0.000524	20.838625
710.170213	-3.007800	3.721600	-11.193000	24.694460	0.000523	20.829690
711.170760	-3.005500	3.721300	-11.183000	24.699284	0.000525	20.832633
712.173216	-3.027600	3.722100	-11.268000	24.674909	0.000525	20.846580
713.171974	-2.984400	3.721800	-11.107000	24.679984	0.000526	20.852620
714.172287	-3.015200	3.720700	-11.218000	24.696651	0.000524	20.863655
715.176286	-2.969300	3.722300	-11.052000	24.697621	0.000523	20.832387
716.173460	-3.025300	3.721800	-11.259000	24.737010	0.000524	20.827818
717.174741	-2.988700	3.721200	-11.120000	24.705052	0.000523	20.844111
718.177678	-2.969400	3.720500	-11.047000	24.703480	0.000522	20.855335
719.176384	-2.983700	3.720700	-11.100000	24.698787	0.000523	20.859634
720.179386	-2.977600	3.719200	-11.073000	24.700351	0.000523	20.844135
721.179525	-3.005000	3.720000	-11.177000	24.741704	0.000524	20.829209
722.176700	-2.999800	3.720200	-11.159000	24.736587	0.000523	20.845410
723.178538	-3.021600	3.717700	-11.233000	24.750681	0.000523	20.827786
724.180161	-2.999800	3.719200	-11.155000	24.723903	0.000521	20.851173
725.178498	-2.989500	3.720300	-11.120000	24.691913	0.000523	20.838987
726.177336	-2.992000	3.719400	-11.128000	24.680947	0.000522	20.817552
727.183545	-2.993100	3.718900	-11.130000	24.717925	0.000521	20.848968
728.179648	-2.989800	3.719600	-11.120000	24.690740	0.000521	20.826905
729.180439	-2.979200	3.718500	-11.078000	24.691636	0.000523	20.845821
730.182477	-2.966700	3.718200	-11.030000	24.711954	0.000522	20.821640
731.180322	-3.015000	3.717300	-11.207000	24.744648	0.000522	20.828370
732.178422	-2.989300	3.717700	-11.113000	24.787969	0.000522	20.835334
733.182218	-2.968100	3.716600	-11.030000	24.767799	0.000523	20.828370
734.184872	-2.992900	3.718300	-11.128000	24.771474	0.000522	20.818782
735.179978	-2.990800	3.718200	-11.118000	24.765270	0.000520	20.828676
736.182408	-2.975300	3.717800	-11.060000	24.763386	0.000522	20.832002
737.181838	-2.988300	3.715800	-11.103000	24.753188	0.000523	20.842155
738.181631	-2.968900	3.716300	-11.032000	24.779517	0.000519	20.825431
739.188465	-2.998700	3.715500	-11.141000	24.721297	0.000522	20.840498
740.184445	-2.995600	3.715200	-11.128000	24.719781	0.000520	20.825701
741.182182	-2.990700	3.716300	-11.114000	24.689639	0.000518	20.833386
742.186310	-2.998400	3.713700	-11.135000	24.657207	0.000519	20.830713
743.182476	-3.018200	3.714400	-11.209000	24.665485	0.000520	20.808675
744.184124	-3.013200	3.714500	-11.191000	24.686048	0.000520	20.813188
745.186727	-3.012300	3.714300	-11.188000	24.694995	0.000519	20.816950
746.184778	-3.010500	3.713700	-11.178000	24.719019	0.000520	20.829204
747.187562	-2.999600	3.714200	-11.140000	24.760941	0.000520	20.845669
748.188402	-3.013900	3.711600	-11.184000	24.780663	0.000520	20.810459
749.184756	-3.012500	3.714700	-11.189000	24.783743	0.000517	20.820188
750.187389	-2.999100	3.713200	-11.135000	24.772183	0.000519	20.810958
751.187757	-2.977100	3.714100	-11.056000	24.791799	0.000519	20.800298
752.185981	-2.991000	3.712700	-11.104000	24.832504	0.000519	20.817442
753.186910	-3.025500	3.712100	-11.230000	24.857114	0.000519	20.812743
754.185861	-3.017800	3.711900	-11.201000	24.843732	0.000518	20.824442
755.187793	-3.001100	3.711700	-11.139000	24.861205	0.000516	20.813056
756.189350	-2.995200	3.711300	-11.116000	24.847375	0.000518	20.811029
757.186246	-3.001000	3.712800	-11.141000	24.832778	0.000517	20.789267
758.195413	-2.997200	3.712000	-11.124000	24.831053	0.000518	20.815511
759.188181	-2.995800	3.710700	-11.115000	24.839729	0.000517	20.812839
760.188948	-3.002300	3.711400	-11.142000	24.802251	0.000516	20.804150
761.189497	-3.003100	3.710300	-11.141000	24.778799	0.000517	20.821865
762.190659	-3.009700	3.710700	-11.167000	24.784560	0.000518	20.815319
763.191160	-3.009500	3.710600	-11.166000	24.774687	0.000516	20.811575
764.189339	-2.979200	3.709700	-11.051000	24.770404	0.000517	20.801112
765.189581	-3.005600	3.708300	-11.144000	24.760377	0.000517	20.806223
766.194107	-3.007700	3.709600	-11.156000	24.732469	0.000517	20.814252
767.190310	-3.015200	3.710500	-11.186000	24.747827	0.000516	20.825871
768.191534	-2.990000	3.709500	-11.090000	24.769205	0.000516	20.823142
769.192877	-2.997800	3.709500	-11.119000	24.788993	0.000517	20.800801
770.193458	-3.000500	3.708700	-11.127000	24.743383	0.000511	20.801497
771.194986	-3.010300	3.708000	-11.161000	24.731435	0.000514	20.807999
772.198837	-2.976500	3.709400	-11.040000	24.758839	0.000513	20.802309
773.193813	-2.988000	3.708300	-11.079000	24.785144	0.000514	20.787930
774.193656	-2.997400	3.708800	-11.116000	24.815498	0.000513	20.779511
775.196637	-3.000500	3.707400	-11.123000	24.762673	0.000514	20.808527
776.194678	-2.989700	3.706700	-11.081000	24.783780	0.000512	20.797941
777.197099	-2.999900	3.705300	-11.115000	24.764612	0.000514	20.794825
778.194629	-3.020200	3.707500	-11.196000	24.753185	0.000513	20.806592
779.195765	-3.000700	3.707300	-11.124000	24.757935	0.000514	20.812780
780.197339	-3.026000	3.707000	-11.217000	24.743557	0.000513	20.803094
781.194312	-3.009600	3.706400	-11.154000	24.746840	0.000515	20.786948
782.197106	-3.016000	3.706300	-11.177000	24.781804	0.000512	20.788371
783.195256	-3.009200	3.705400	-11.149000	24.778434	0.000513	20.779299
784.196634	-3.001700	3.706100	-11.124000	24.790761	0.000513	20.771755
785.200235	-3.020800	3.705300	-11.192000	24.793165	0.000511	20.806411
786.195722	-3.010300	3.705300	-11.153000	24.804774	0.000511	20.804311
787.203450	-3.017100	3.703900	-11.175000	24.864573	0.000512	20.784667
788.198905	-2.999700	3.704000	-11.110000	24.867505	0.000511	20.780498
789.196060	-3.004700	3.704200	-11.128000	24.806031	0.000509	20.807943
790.197332	-3.013800	3.704100	-11.163000	24.817910	0.000510	20.790467
791.198308	-3.011800	3.703100	-11.152000	24.836857	0.000510	20.781981
792.197531	-3.023500	3.703500	-11.197000	24.816878	0.000510	20.803656
793.200074	-3.010500	3.702400	-11.145000	24.831321	0.000510	20.768839
794.198496	-3.004100	3.703400	-11.124000	24.790389	0.000510	20.805047
795.198017	-2.991600	3.702200	-11.075000	24.801347	0.000510	20.803242
796.196826	-3.005800	3.701800	-11.125000	24.812085	0.000508	20.781776
797.197065	-3.008500	3.702800	-11.139000	24.855575	0.000510	20.773740
798.202105	-2.984600	3.702800	-11.050000	24.852733	0.000508	20.795544
799.200882	-2.999800	3.701900	-11.104000	24.858623	0.000509	20.793395
800.198033	-2.996300	3.701800	-11.090000	24.869140	0.000506	20.775500
801.197770	-2.987900	3.702200	-11.061000	24.877392	0.000506	20.772877
802.203502	-3.007500	3.700600	-11.129000	24.891761	0.000507	20.783505
803.197924	-2.993200	3.701400	-11.078000	24.886435	0.000509	20.765357
804.201839	-3.003900	3.700100	-11.113000	24.901325	0.000506	20.775087
805.198715	-2.993600	3.700300	-11.076000	24.911239	0.000507	20.789305
806.198555	-2.991300	3.701500	-11.071000	24.907079	0.000507	20.777068
807.199989	-2.998300	3.699600	-11.092000	24.847172	0.000505	20.767677
808.201603	-3.001900	3.700600	-11.108000	24.823556	0.000507	20.778115
809.207039	-3.005100	3.698700	-11.114000	24.844589	0.000506	20.771723
810.200624	-3.031300	3.698200	-11.209000	24.885341	0.000506	20.781803
811.200163	-3.018300	3.698400	-11.162000	24.871984	0.000505	20.786415
812.200454	-3.018900	3.699300	-11.167000	24.871830	0.000505	20.763976
813.200297	-2.992900	3.698900	-11.069000	24.855614	0.000505	20.773779
814.200507	-2.996200	3.698400	-11.080000	24.860338	0.000504	20.773779
815.202718	-2.983900	3.697900	-11.034000	24.904642	0.000504	20.761820
816.201927	-3.008700	3.697100	-11.123000	24.941018	0.000505	20.768932
817.200557	-3.002100	3.697700	-11.100000	24.909912	0.000503	20.784179
818.206329	-3.002700	3.697500	-11.102000	24.925673	0.000503	20.780084
819.202713	-3.003700	3.697200	-11.104000	24.919403	0.000504	20.762410
820.203365	-3.029600	3.695900	-11.195000	24.938471	0.000503	20.791506
821.201683	-3.032400	3.696300	-11.207000	24.935262	0.000504	20.764104
822.202991	-3.002000	3.696700	-11.096000	24.965195	0.000503	20.776130
823.202226	-2.992600	3.695900	-11.059000	24.947661	0.000503	20.780342
824.203491	-2.970800	3.697200	-10.982000	24.944753	0.000502	20.780742
825.204264	-2.998500	3.695400	-11.080000	24.984182	0.000502	20.766264
826.204246	-3.022900	3.693900	-11.165000	25.011353	0.000501	20.775520
827.204066	-2.992000	3.695900	-11.057000	25.011402	0.000501	20.764189
828.204822	-3.003600	3.694400	-11.096000	24.954132	0.000501	20.774035
829.203262	-2.998000	3.693600	-11.072000	24.922432	0.000501	20.786788
830.205344	-2.994000	3.693100	-11.057000	24.960169	0.000502	20.765869
831.210167	-3.011000	3.693900	-11.122000	24.992371	0.000500	20.769743
832.204753	-2.996600	3.692800	-11.065000	24.990076	0.000500	20.752740
833.209155	-3.011100	3.694400	-11.124000	24.925057	0.000500	20.754335
834.207931	-3.006200	3.693100	-11.101000	24.940720	0.000498	20.783333
835.211547	-2.995800	3.693100	-11.063000	24.891761	0.000498	20.766435
836.206659	-2.993900	3.694700	-11.061000	24.922321	0.000500	20.762968
837.207558	-2.972500	3.692400	-10.974000	24.905510	0.000498	20.786399
838.208173	-2.994800	3.692900	-11.058000	24.917167	0.000499	20.777710
839.208807	-2.988900	3.692100	-11.034000	24.942075	0.000499	20.769046
840.212721	-3.003300	3.692400	-11.088000	24.962431	0.000498	20.761976
841.212532	-3.024100	3.691200	-11.162000	24.950548	0.000500	20.769963
842.210243	-2.997000	3.692500	-11.065000	24.925749	0.000499	20.761193
843.215672	-3.031800	3.690200	-11.187000	24.898821	0.000497	20.769254
844.214043	-2.990200	3.691100	-11.037000	24.921368	0.000497	20.763909
845.211294	-2.997000	3.691400	-11.062000	24.924650	0.000499	20.776686
846.215298	-3.015400	3.690200	-11.126000	24.936282	0.000496	20.750428
847.214000	-2.991500	3.689800	-11.037000	24.949234	0.000498	20.764850
848.213159	-2.973800	3.692200	-10.979000	24.920705	0.000497	20.770829
849.216284	-3.015700	3.690400	-11.127000	24.912943	0.000498	20.755927
850.213477	-2.997300	3.690100	-11.060000	24.907114	0.000496	20.766198
851.218857	-2.996000	3.689400	-11.052000	24.911642	0.000497	20.775484
852.214545	-3.014900	3.688100	-11.118000	24.928348	0.000497	20.760957
853.214346	-2.998000	3.688900	-11.058000	24.973091	0.000498	20.757028
854.214218	-2.987600	3.688300	-11.019000	24.941790	0.000498	20.764492
855.215777	-2.979900	3.687900	-10.989000	24.992354	0.000495	20.747914
856.213445	-3.000300	3.687300	-11.062000	24.980612	0.000494	20.752723
857.215327	-2.998000	3.688000	-11.056000	24.948531	0.000495	20.755136
858.214169	-3.002800	3.687400	-11.072000	24.944028	0.000494	20.746823
859.215055	-2.983900	3.687600	-11.003000	24.932064	0.000494	20.760420
860.217243	-3.011400	3.688200	-11.106000	24.990113	0.000495	20.763209
861.215976	-3.003800	3.686500	-11.072000	24.963150	0.000493	20.754162
862.219945	-3.006000	3.686900	-11.082000	24.990947	0.000493	20.740337
863.216941	-3.009500	3.685800	-11.091000	25.015204	0.000493	20.765634
864.217734	-3.014800	3.686000	-11.112000	25.014112	0.000493	20.743675
865.216785	-3.004600	3.687300	-11.077000	24.989714	0.000493	20.749057
866.218037	-3.019000	3.685400	-11.125000	25.016804	0.000491	20.756335
867.219754	-2.997200	3.685800	-11.046000	25.022546	0.000493	20.738390
868.220353	-3.027900	3.684800	-11.156000	25.049195	0.000493	20.749968
869.218226	-2.973500	3.685000	-10.956000	25.052887	0.000490	20.737552
870.222061	-2.995100	3.685600	-11.038000	25.068818	0.000491	20.755916
871.225167	-2.989400	3.685500	-11.016000	25.003528	0.000490	20.752491
872.221471	-2.995400	3.684300	-11.035000	24.918766	0.000488	20.739960
873.223088	-2.968900	3.684600	-10.938000	24.911790	0.000490	20.750502
874.222093	-2.972800	3.683900	-10.950000	24.942791	0.000489	20.752694
875.221285	-3.010500	3.684000	-11.090000	24.941920	0.000490	20.755613
876.230511	-2.994600	3.683600	-11.030000	24.937281	0.000491	20.746215
877.222793	-2.998800	3.683500	-11.045000	24.965195	0.000488	20.751948
878.224724	-2.997200	3.683800	-11.040000	24.967747	0.000487	20.761622
879.220099	-3.016600	3.682600	-11.107000	24.956680	0.000488	20.755729
880.223340	-3.026900	3.682400	-11.145000	24.947348	0.000489	20.730714
881.225483	-3.016700	3.682000	-11.107000	24.958851	0.000489	20.747476
882.225914	-3.006700	3.681500	-11.068000	24.949102	0.000487	20.744329
883.227088	-3.010000	3.682200	-11.082000	24.982464	0.000487	20.739883
884.225438	-3.018500	3.681200	-11.111000	25.025168	0.000485	20.755247
885.224177	-3.006000	3.681300	-11.065000	25.022499	0.000486	20.737395
886.225829	-2.981700	3.681700	-10.977000	25.008224	0.000484	20.737290
887.224750	-2.996200	3.680300	-11.026000	24.988206	0.000488	20.747543
888.225374	-2.987400	3.681300	-10.997000	24.970273	0.000487	20.731439
889.228251	-3.005000	3.679500	-11.056000	25.015321	0.000485	20.745837
890.225056	-2.992800	3.678900	-11.009000	24.981432	0.000486	20.738847
891.225492	-2.991900	3.679900	-11.010000	24.983414	0.000485	20.741785
892.232795	-3.009400	3.678900	-11.070000	24.956107	0.000482	20.729074
893.225878	-3.014400	3.679400	-11.090000	24.994671	0.000483	20.735066
894.229427	-3.006700	3.678900	-11.060000	24.993248	0.000482	20.735534
895.225929	-3.011700	3.679000	-11.079000	24.975861	0.000484	20.742739
896.225461	-3.003300	3.679000	-11.048000	24.942321	0.000483	20.745584
897.225444	-3.004800	3.678600	-11.053000	24.916885	0.000484	20.735226
898.225357	-2.983900	3.677700	-10.973000	24.901988	0.000482	20.731654
899.228350	-2.994600	3.678600	-11.015000	24.950990	0.000482	20.723938
900.226058	-3.009500	3.677200	-11.066000	25.009738	0.000482	20.732645
901.229375	-2.974600	3.677300	-10.938000	25.047331	0.000482	20.730077
902.225552	-2.970000	3.677100	-10.920000	25.084143	0.000482	20.745694
903.226841	-3.012900	3.676600	-11.077000	25.111864	0.000482	20.724683
904.228786	-2.998800	3.676600	-11.024000	25.087744	0.000480	20.728919
905.230169	-3.014200	3.676600	-11.081000	25.047422	0.000482	20.738705
906.226554	-2.988200	3.676900	-10.986000	25.057643	0.000480	20.719091
907.228731	-2.975900	3.676500	-10.940000	25.038944	0.000480	20.734936
908.229880	-3.014400	3.674900	-11.076000	25.091173	0.000481	20.729043
909.227119	-2.993900	3.675000	-11.000000	25.065660	0.000480	20.731407
910.231105	-3.002400	3.674900	-11.032000	25.002063	0.000478	20.737744
911.227895	-3.004000	3.674800	-11.038000	25.003885	0.000480	20.731038
912.227630	-3.014800	3.673800	-11.075000	24.963229	0.000479	20.724368
913.227854	-2.993700	3.674800	-11.000000	25.014375	0.000478	20.748207
914.229449	-2.991300	3.673900	-10.989000	25.083627	0.000477	20.724313
915.231774	-3.002000	3.673000	-11.026000	25.073469	0.000477	20.725021
916.234753	-2.982300	3.672800	-10.952000	25.077291	0.000477	20.719848
917.230051	-3.021300	3.672600	-11.095000	25.092749	0.000478	20.737263
918.230327	-2.973100	3.675500	-10.927000	25.087455	0.000478	20.729104
919.231554	-2.999100	3.672900	-11.015000	25.130830	0.000477	20.727601
920.231306	-2.982700	3.672500	-10.954000	25.142662	0.000475	20.722410
921.232856	-2.982200	3.672100	-10.949000	25.157052	0.000477	20.737331
922.231762	-2.968900	3.673900	-10.906000	25.155709	0.000474	20.725076
923.231688	-2.999700	3.671800	-11.013000	25.177607	0.000477	20.735206
924.236324	-2.991700	3.671600	-10.983000	25.193763	0.000475	20.734357
925.231218	-2.991400	3.671500	-10.981000	25.145564	0.000475	20.708252
926.234953	-2.987100	3.671100	-10.964000	25.104238	0.000476	20.716553
927.233445	-3.003000	3.672200	-11.027000	25.102576	0.000475	20.702555
928.233437	-2.995300	3.671000	-10.995000	25.064788	0.000474	20.723420
929.233005	-3.000100	3.670400	-11.011000	25.048667	0.000473	20.710555
930.233605	-3.004600	3.670000	-11.025000	25.068414	0.000472	20.713782
931.234581	-3.011000	3.668900	-11.046000	25.069205	0.000473	20.713154
932.237673	-3.002600	3.670000	-11.019000	25.101643	0.000473	20.731967
933.233200	-2.972500	3.669300	-10.905000	25.085731	0.000472	20.725476
934.234661	-2.989700	3.669300	-10.969000	25.079934	0.000474	20.706854
935.240186	-3.002800	3.668500	-11.014000	25.058973	0.000471	20.710943
936.233772	-3.003800	3.667500	-11.016000	25.071051	0.000470	20.731603
937.237031	-2.998800	3.668900	-11.001000	25.096165	0.000471	20.726942
938.233315	-2.992800	3.668700	-10.978000	25.108783	0.000472	20.716374
939.235230	-2.973000	3.668000	-10.904000	25.151961	0.000472	20.720365
940.245763	-2.992100	3.667000	-10.972000	25.146937	0.000470	20.717218
941.235180	-2.996300	3.667000	-10.987000	25.129952	0.000471	20.723400
942.236835	-3.002500	3.665900	-11.006000	25.136362	0.000470	20.735526
943.238007	-3.002500	3.666800	-11.009000	25.093478	0.000471	20.705751
944.235181	-3.005300	3.665500	-11.015000	25.046709	0.000470	20.711435
945.237222	-2.996200	3.666400	-10.985000	25.084596	0.000469	20.723388
946.235740	-3.013100	3.665800	-11.044000	25.084264	0.000468	20.724478
947.236357	-3.016300	3.664600	-11.052000	25.083645	0.000469	20.712001
948.237158	-3.015500	3.665200	-11.051000	25.104225	0.000467	20.719385
949.237652	-3.002100	3.663600	-10.998000	25.100894	0.000469	20.724102
950.237108	-3.013000	3.664400	-11.039000	25.112052	0.000467	20.715388
951.239210	-2.991700	3.664300	-10.961000	25.160750	0.000466	20.727292
952.238865	-2.998500	3.664400	-10.987000	25.117965	0.000467	20.709470
953.245234	-3.026300	3.663300	-11.086000	25.110328	0.000466	20.713658
954.239525	-3.015000	3.663700	-11.045000	25.121266	0.000468	20.700454
955.238658	-3.003500	3.664100	-11.005000	25.083908	0.000464	20.724121
956.238455	-2.998500	3.663500	-10.984000	25.077811	0.000466	20.719896
957.238760	-3.000300	3.663700	-10.991000	25.041121	0.000465	20.709618
958.239355	-2.998800	3.663000	-10.983000	25.041912	0.000465	20.694764
959.241868	-3.000500	3.662100	-10.987000	25.095386	0.000464	20.705295
960.238557	-3.019800	3.662800	-11.060000	25.090840	0.000464	20.729657
961.238146	-2.990300	3.661400	-10.947000	25.094294	0.000464	20.699457
962.246842	-2.976300	3.662900	-10.900000	25.078559	0.000463	20.708319
963.238795	-2.992900	3.661900	-10.958000	25.065879	0.000462	20.717876
964.243014	-3.005300	3.660700	-11.001000	25.108274	0.000463	20.702111
965.240861	-3.012300	3.662100	-11.030000	25.140612	0.000464	20.717507
966.243628	-3.004000	3.660800	-10.997000	25.182200	0.000463	20.718480
967.242465	-2.990100	3.661100	-10.945000	25.149856	0.000462	20.732003
968.241947	-3.005000	3.659600	-10.996000	25.125106	0.000461	20.712371
969.241844	-3.007900	3.659600	-11.008000	25.136785	0.000462	20.705603
970.243268	-3.002500	3.659400	-10.986000	25.139398	0.000464	20.729565
971.243068	-2.994300	3.658700	-10.954000	25.170448	0.000462	20.710000
972.243136	-3.004700	3.658400	-10.991000	25.181881	0.000461	20.724324
973.246440	-3.012300	3.658100	-11.018000	25.178035	0.000461	20.718092
974.243736	-3.005900	3.659300	-10.998000	25.166197	0.000461	20.720432
975.246158	-2.990600	3.659100	-10.941000	25.174404	0.000458	20.735784
976.245708	-3.007800	3.657800	-11.001000	25.198718	0.000458	20.724632
977.245977	-2.982300	3.659100	-10.911000	25.183083	0.000459	20.722212
978.246221	-3.019800	3.656300	-11.040000	25.152825	0.000458	20.717913
979.246865	-3.014400	3.657000	-11.023000	25.147691	0.000458	20.711811
980.251229	-2.989200	3.658200	-10.935000	25.110819	0.000459	20.716522
981.246983	-2.977100	3.657400	-10.888000	25.095067	0.000456	20.715407
982.248088	-3.000300	3.656700	-10.970000	25.102354	0.000457	20.727939
983.249002	-2.993500	3.656000	-10.943000	25.119726	0.000458	20.731154
984.249752	-2.998200	3.655600	-10.959000	25.140508	0.000454	20.731628
985.251031	-2.992600	3.657400	-10.944000	25.143796	0.000456	20.724971
986.251376	-3.022200	3.654900	-11.045000	25.156917	0.000455	20.747627
987.249489	-3.019700	3.655200	-11.037000	25.200049	0.000454	20.749677
988.249799	-3.017800	3.653200	-11.024000	25.221646	0.000455	20.722520
989.251969	-3.004900	3.655600	-10.984000	25.232668	0.000454	20.727896
990.249309	-2.999900	3.655300	-10.964000	25.279894	0.000455	20.716990
991.254434	-3.004000	3.653900	-10.975000	25.227442	0.000454	20.725494
992.250941	-3.009400	3.652900	-10.992000	25.182697	0.000455	20.733678
993.251478	-2.999800	3.654700	-10.962000	25.186328	0.000453	20.724521
994.252966	-3.012900	3.653400	-11.007000	25.182452	0.000455	20.713991
995.252294	-3.014800	3.651600	-11.008000	25.172282	0.000455	20.733654
996.251873	-3.020800	3.653100	-11.035000	25.137527	0.000454	20.740015
997.250911	-3.017400	3.651200	-11.016000	25.151022	0.000453	20.724638
998.250429	-3.029100	3.650700	-11.057000	25.196118	0.000451	20.733401
999.251235	-2.969600	3.653700	-10.848000	25.191738	0.000454	20.731849
1000.251533	-3.018200	3.650600	-11.017000	25.197829	0.000451	20.711410
1001.249869	-3.007100	3.651400	-10.979000	25.188604	0.000454	20.731548
1002.250154	-2.999200	3.652000	-10.952000	25.164983	0.000451	20.713048
1003.250565	-3.010100	3.650500	-10.987000	25.148427	0.000453	20.734362
1004.252477	-3.005700	3.649800	-10.969000	25.158818	0.000452	20.742897
1005.253329	-3.004600	3.649900	-10.965000	25.166620	0.000452	20.752153
1006.252925	-3.001500	3.649600	-10.954000	25.183819	0.000452	20.731486
1007.256026	-2.996500	3.649600	-10.935000	25.235293	0.000453	20.732902
1008.253788	-2.972200	3.650900	-10.851000	25.245351	0.000450	20.759123
1009.255292	-3.004700	3.648000	-10.960000	25.230435	0.000450	20.731344
1010.255491	-3.015700	3.648200	-11.001000	25.255545	0.000450	20.734269
1011.254886	-2.990700	3.648900	-10.911000	25.268517	0.000450	20.750139
1012.256078	-3.015700	3.648300	-11.000000	25.284322	0.000448	20.748464
1013.255599	-3.019800	3.647800	-11.015000	25.300054	0.000448	20.736757
1014.254590	-2.998600	3.647700	-10.936000	25.243186	0.000447	20.738931
1015.254980	-2.998600	3.646300	-10.934000	25.205226	0.000446	20.714569
1016.256983	-2.990900	3.645900	-10.903000	25.196743	0.000447	20.744461
1017.256054	-3.006200	3.646500	-10.961000	25.199380	0.000445	20.737625
1018.256078	-2.994900	3.648200	-10.925000	25.225724	0.000448	20.748901
1019.257065	-3.026300	3.645100	-11.030000	25.239868	0.000446	20.734651
1020.257849	-3.002000	3.645000	-10.941000	25.227785	0.000444	20.747651
1021.257672	-3.005100	3.645000	-10.952000	25.207624	0.000444	20.744954
1022.260776	-3.004100	3.645300	-10.950000	25.189205	0.000445	20.747324
1023.256556	-2.988500	3.645800	-10.894000	25.162504	0.000444	20.748494
1024.255834	-2.988300	3.646000	-10.895000	25.149678	0.000443	20.756007
1025.255511	-2.989300	3.646100	-10.899000	25.142765	0.000444	20.743851
1026.257473	-2.991400	3.645500	-10.904000	25.118376	0.000442	20.731695
1027.257464	-2.987700	3.645000	-10.888000	25.173840	0.000444	20.733321
1028.261552	-2.998900	3.644300	-10.928000	25.175575	0.000443	20.742176
1029.257522	-3.001100	3.643200	-10.933000	25.205821	0.000443	20.771119
1030.257274	-3.003400	3.643000	-10.941000	25.188481	0.000443	20.741382
1031.263157	-3.004600	3.642900	-10.944000	25.179029	0.000442	20.766981
1032.257828	-2.994800	3.643500	-10.910000	25.196179	0.000440	20.746739
1033.259106	-3.012600	3.641600	-10.970000	25.155021	0.000439	20.742404
1034.257989	-3.016000	3.642300	-10.984000	25.188297	0.000439	20.747361
1035.257477	-3.037900	3.641700	-11.062000	25.182083	0.000440	20.759142
1036.258407	-2.997000	3.642100	-10.915000	25.235574	0.000442	20.756894
1037.257696	-2.994100	3.641500	-10.902000	25.242242	0.000441	20.746992
1038.256828	-2.997400	3.641400	-10.914000	25.270669	0.000440	20.752300
1039.260331	-3.001400	3.640600	-10.927000	25.284193	0.000440	20.755921
1040.258585	-3.001400	3.640900	-10.927000	25.260709	0.000438	20.753680
1041.258545	-2.997700	3.640900	-10.913000	25.221283	0.000440	20.772418
1042.260060	-2.988400	3.640600	-10.879000	25.184813	0.000437	20.788909
1043.262464	-2.989900	3.640700	-10.885000	25.236366	0.000438	20.775707
1044.261868	-3.003100	3.639400	-10.929000	25.253643	0.000438	20.749905
1045.258322	-2.999800	3.638300	-10.912000	25.210869	0.000436	20.771445
1046.259284	-3.009700	3.638600	-10.950000	25.202214	0.000437	20.761334
1047.260569	-2.984700	3.639000	-10.861000	25.149887	0.000437	20.750052
1048.259173	-2.990600	3.639300	-10.883000	25.158879	0.000437	20.751019
1049.265299	-2.990400	3.637800	-10.877000	25.137079	0.000435	20.766119
1050.260833	-2.980000	3.638200	-10.841000	25.161394	0.000437	20.764924
1051.260873	-2.986000	3.637800	-10.862000	25.164479	0.000436	20.775251
1052.265559	-3.010900	3.636200	-10.947000	25.150629	0.000437	20.765497
1053.263205	-2.981700	3.638300	-10.846000	25.173398	0.000436	20.749474
1054.267048	-2.988700	3.637700	-10.871000	25.189401	0.000436	20.774075
1055.265069	-3.004200	3.635300	-10.919000	25.205913	0.000435	20.764573
1056.261114	-3.003500	3.636000	-10.920000	25.224675	0.000436	20.780565
1057.262117	-3.005500	3.635900	-10.927000	25.247737	0.000434	20.757251
1058.265555	-2.996100	3.635800	-10.893000	25.281464	0.000434	20.759819
1059.262154	-2.992800	3.635600	-10.880000	25.286364	0.000434	20.764265
1060.264891	-3.010400	3.635100	-10.942000	25.269381	0.000433	20.778034
1061.261754	-2.988300	3.633900	-10.858000	25.273503	0.000432	20.785017
1062.260604	-3.008300	3.633800	-10.929000	25.275116	0.000430	20.779050
1063.262846	-3.013700	3.633600	-10.950000	25.266364	0.000432	20.781169
1064.265825	-2.995600	3.634600	-10.887000	25.259630	0.000432	20.774882
1065.265473	-3.000400	3.634100	-10.902000	25.305230	0.000432	20.771827
1066.263684	-2.989900	3.634400	-10.866000	25.333883	0.000432	20.770251
1067.262746	-2.982400	3.633900	-10.837000	25.267198	0.000431	20.777265
1068.263366	-3.002700	3.633300	-10.909000	25.266419	0.000430	20.773638
1069.263999	-3.007200	3.633400	-10.925000	25.287775	0.000430	20.774691
1070.262626	-2.975200	3.633800	-10.809000	25.344462	0.000430	20.767123
1071.263954	-2.994100	3.633000	-10.876000	25.363272	0.000431	20.780319
1072.263991	-3.008900	3.631700	-10.926000	25.305015	0.000430	20.780621
1073.264489	-2.973400	3.631800	-10.797000	25.283016	0.000429	20.777499
1074.267376	-2.990700	3.631500	-10.860000	25.314172	0.000429	20.793134
1075.267391	-3.002700	3.630100	-10.899000	25.329038	0.000429	20.772973
1076.270040	-2.997800	3.630800	-10.884000	25.337827	0.000428	20.802186
1077.268921	-2.984800	3.630900	-10.837000	25.379486	0.000429	20.779531
1078.269644	-2.986300	3.630500	-10.841000	25.374464	0.000429	20.789187
1079.270800	-3.014900	3.629500	-10.942000	25.337256	0.000426	20.775060
1080.270015	-2.992400	3.628400	-10.857000	25.280655	0.000428	20.796465
1081.271909	-2.975700	3.629200	-10.798000	25.265168	0.000426	20.773804
1082.273385	-2.992700	3.627900	-10.856000	25.281372	0.000427	20.776323
1083.270561	-3.014600	3.627900	-10.935000	25.288855	0.000426	20.779568
1084.270916	-2.999800	3.628800	-10.885000	25.299907	0.000425	20.795880
1085.270473	-2.994100	3.628600	-10.863000	25.316883	0.000425	20.784476
1086.271718	-3.035000	3.626000	-11.004000	25.325083	0.000426	20.803615
1087.272120	-3.018200	3.626400	-10.944000	25.325034	0.000426	20.795505
1088.270966	-3.031000	3.627600	-10.994000	25.338692	0.000424	20.798787
1089.271960	-3.004300	3.626500	-10.894000	25.353962	0.000425	20.803688
1090.271634	-3.017100	3.625600	-10.937000	25.327438	0.000422	20.795548
1091.272380	-2.988100	3.625500	-10.833000	25.335368	0.000420	20.811570
1092.272940	-2.992700	3.625500	-10.849000	25.317913	0.000422	20.803054
1093.274265	-2.996300	3.625700	-10.862000	25.287070	0.000421	20.793898
1094.276011	-2.982200	3.625400	-10.810000	25.284684	0.000423	20.793399
1095.273757	-3.005900	3.624700	-10.894000	25.301759	0.000421	20.797266
1096.274112	-3.012800	3.623500	-10.916000	25.293326	0.000420	20.805868
1097.276752	-3.025600	3.623500	-10.963000	25.300042	0.000421	20.790326
1098.273390	-3.009500	3.624500	-10.907000	25.304243	0.000419	20.795018
1099.274076	-3.009100	3.623600	-10.903000	25.299097	0.000419	20.808818
1100.274190	-3.015400	3.622000	-10.921000	25.316497	0.000417	20.809218
1101.274376	-3.013800	3.623700	-10.921000	25.329719	0.000420	20.799261
1102.276730	-2.994900	3.622300	-10.848000	25.307923	0.000417	20.804403
1103.278213	-3.001600	3.621400	-10.869000	25.303053	0.000419	20.814686
1104.275846	-2.992900	3.621800	-10.838000	25.328082	0.000417	20.813264
1105.275345	-2.997100	3.621200	-10.853000	25.312694	0.000418	20.813461
1106.275622	-2.997500	3.620900	-10.853000	25.305114	0.000416	20.818652
1107.277881	-2.999200	3.621500	-10.860000	25.285525	0.000419	20.811312
1108.278754	-3.022600	3.620600	-10.943000	25.305390	0.000415	20.822722
1109.287938	-3.017200	3.621300	-10.925000	25.316926	0.000417	20.811546
1110.278252	-3.025600	3.619200	-10.949000	25.372870	0.000414	20.808448
1111.277716	-3.005200	3.620000	-10.878000	25.325745	0.000415	20.804280
1112.278045	-3.007200	3.620400	-10.886000	25.285359	0.000416	20.809249
1113.279611	-2.967700	3.620800	-10.745000	25.326395	0.000415	20.806355
1114.280507	-2.987600	3.619300	-10.813000	25.343610	0.000415	20.830278
1115.278280	-2.994900	3.617900	-10.835000	25.356409	0.000415	20.804249
1116.281226	-2.981200	3.619100	-10.788000	25.358053	0.000415	20.812063
1117.278676	-2.999900	3.617900	-10.852000	25.352337	0.000414	20.794944
1118.282772	-3.024700	3.617100	-10.940000	25.326677	0.000416	20.815647
1119.281034	-3.009600	3.617700	-10.887000	25.309352	0.000412	20.826700
1120.283335	-2.998200	3.616200	-10.841000	25.355901	0.000415	20.820333
1121.283195	-2.974800	3.618800	-10.764000	25.380996	0.000414	20.824668
1122.281981	-2.986700	3.616200	-10.800000	25.435145	0.000414	20.819773
1123.282856	-3.002700	3.615400	-10.855000	25.461293	0.000413	20.815684
1124.294107	-2.965500	3.617000	-10.725000	25.459644	0.000410	20.815924
1125.281473	-2.958400	3.617300	-10.700000	25.435495	0.000409	20.819176
1126.281452	-2.991600	3.615300	-10.815000	25.391145	0.000411	20.825377
1127.282660	-2.980400	3.615900	-10.775000	25.409009	0.000411	20.825771
1128.281711	-2.987600	3.615500	-10.800000	25.363874	0.000412	20.823597
1129.285507	-2.977100	3.614700	-10.760000	25.370779	0.000408	20.808246
1130.283045	-2.996300	3.614000	-10.827000	25.330959	0.000409	20.828954
1131.282149	-3.013500	3.613800	-10.889000	25.316025	0.000407	20.835771
1132.284609	-2.984200	3.613200	-10.782000	25.284820	0.000409	20.830993
1133.281876	-2.985200	3.614000	-10.788000	25.320686	0.000409	20.843770
1134.285853	-2.990100	3.613700	-10.805000	25.329113	0.000408	20.841325
1135.281292	-3.001000	3.612600	-10.840000	25.360765	0.000407	20.826640
1136.281886	-3.013100	3.612200	-10.882000	25.336706	0.000408	20.825716
1137.283301	-3.012300	3.612300	-10.881000	25.334339	0.000407	20.821443
1138.282596	-3.004800	3.612100	-10.852000	25.383744	0.000406	20.829325
1139.281841	-3.011700	3.611100	-10.875000	25.419822	0.000407	20.833783
1140.286026	-2.991000	3.611200	-10.800000	25.390190	0.000407	20.858555
1141.282815	-2.981300	3.612000	-10.767000	25.402909	0.000406	20.833395
1142.282018	-2.976300	3.610400	-10.745000	25.404172	0.000406	20.837034
1143.285050	-2.990500	3.611600	-10.800000	25.382868	0.000404	20.843143
1144.284396	-2.985300	3.609200	-10.774000	25.395139	0.000407	20.844085
1145.286341	-3.007800	3.608600	-10.853000	25.358074	0.000405	20.850489
1146.282646	-3.001800	3.608400	-10.832000	25.363685	0.000405	20.839529
1147.284177	-3.001500	3.610200	-10.835000	25.376153	0.000405	20.866746
1148.286357	-3.020200	3.608100	-10.896000	25.405633	0.000403	20.856992
1149.284101	-3.011500	3.608800	-10.867000	25.393644	0.000405	20.841161
1150.287513	-2.979000	3.609400	-10.752000	25.388560	0.000404	20.864979
1151.286435	-2.995600	3.607700	-10.806000	25.423313	0.000402	20.856254
1152.286022	-3.012300	3.607300	-10.865000	25.401659	0.000402	20.851580
1153.286497	-2.997400	3.607700	-10.813000	25.354953	0.000402	20.834555
1154.288384	-2.961600	3.606600	-10.680000	25.411165	0.000404	20.860651
1155.287186	-2.968200	3.607400	-10.707000	25.421210	0.000402	20.846082
1156.288214	-2.994300	3.607000	-10.800000	25.416733	0.000401	20.860552
1157.287442	-2.998200	3.604800	-10.807000	25.432586	0.000401	20.855608
1158.286443	-3.009000	3.604400	-10.844000	25.426913	0.000401	20.857498
1159.288379	-3.000900	3.605600	-10.820000	25.398355	0.000400	20.856796
1160.286488	-3.001000	3.604900	-10.817000	25.390027	0.000401	20.839426
1161.290205	-3.008300	3.604100	-10.841000	25.378442	0.000399	20.849605
1162.288433	-3.019000	3.604600	-10.880000	25.403126	0.000398	20.865854
1163.289823	-2.991700	3.604900	-10.784000	25.425693	0.000396	20.864807
1164.291544	-3.005800	3.603500	-10.831000	25.404193	0.000401	20.843219
1165.289408	-3.010300	3.603000	-10.845000	25.409087	0.000399	20.858564
1166.292975	-2.996400	3.604100	-10.798000	25.392805	0.000397	20.862603
1167.288986	-3.004300	3.603000	-10.824000	25.402402	0.000398	20.875084
1168.289915	-3.016800	3.601600	-10.864000	25.415863	0.000397	20.878169
1169.291058	-2.995100	3.602000	-10.787000	25.450977	0.000398	20.866015
1170.290632	-2.992200	3.601500	-10.775000	25.487531	0.000397	20.876643
1171.292709	-2.997700	3.602300	-10.797000	25.486832	0.000395	20.885897
1172.294449	-2.997300	3.602800	-10.797000	25.496202	0.000395	20.873970
1173.292100	-3.003100	3.600800	-10.812000	25.464315	0.000393	20.862339
1174.293975	-2.982000	3.601000	-10.738000	25.491554	0.000395	20.871200
1175.297194	-3.012100	3.600400	-10.844000	25.486054	0.000393	20.879900
1176.293630	-3.020400	3.601100	-10.876000	25.486722	0.000396	20.881520
1177.295565	-3.008200	3.599300	-10.826000	25.435899	0.000394	20.895916
1178.292376	-3.000500	3.598700	-10.796000	25.398344	0.000392	20.882862
1179.293861	-2.999100	3.600000	-10.796000	25.430024	0.000394	20.888595
1180.295005	-3.019200	3.599300	-10.865000	25.422248	0.000395	20.876520
1181.293340	-3.012400	3.598900	-10.840000	25.422095	0.000394	20.870677
1182.295750	-3.015000	3.598900	-10.850000	25.449918	0.000392	20.896717
1183.295506	-2.989800	3.599000	-10.759000	25.441051	0.000392	20.885917
1184.291780	-2.990500	3.598300	-10.759000	25.466665	0.000390	20.864225
1185.293895	-3.011400	3.597600	-10.833000	25.478347	0.000392	20.874532
1186.293259	-3.010300	3.597000	-10.827000	25.440223	0.000389	20.877026
1187.300551	-2.986000	3.597600	-10.741000	25.405177	0.000390	20.877870
1188.292159	-2.999700	3.597200	-10.789000	25.423145	0.000390	20.875524
1189.293865	-3.001600	3.596300	-10.794000	25.453046	0.000392	20.882315
1190.293194	-2.997100	3.595600	-10.776000	25.495431	0.000391	20.861343
1191.293859	-3.006800	3.593900	-10.805000	25.546994	0.000389	20.857649
1192.294865	-3.006400	3.594000	-10.804000	25.546614	0.000387	20.857742
1193.297237	-2.994700	3.595200	-10.765000	25.519603	0.000388	20.895099
1194.295224	-3.024300	3.594000	-10.868000	25.476061	0.000386	20.885038
1195.296389	-3.040100	3.593700	-10.923000	25.471737	0.000386	20.869792
1196.296121	-2.990600	3.593600	-10.746000	25.487092	0.000387	20.863875
1197.296627	-2.995900	3.593800	-10.765000	25.475061	0.000387	20.854639
1198.298644	-2.982300	3.592700	-10.713000	25.512234	0.000386	20.866363
1199.295961	-2.975200	3.593200	-10.690000	25.524780	0.000385	20.865686
1200.295914	-2.989500	3.593200	-10.740000	25.494482	0.000383	20.862287
1201.294854	-3.004800	3.592500	-10.794000	25.523559	0.000385	20.873469
1202.294762	-3.005300	3.592900	-10.797000	25.520825	0.000386	20.857921
1203.296808	-2.973600	3.592800	-10.682000	25.520721	0.000383	20.865403
1204.297487	-3.001900	3.591600	-10.781000	25.530434	0.000384	20.846709
1205.297177	-3.007600	3.591600	-10.801000	25.556456	0.000383	20.879479
1206.297485	-3.017700	3.590800	-10.835000	25.596409	0.000383	20.853697
1207.297077	-2.995800	3.591200	-10.758000	25.590585	0.000382	20.868236
1208.296266	-2.985400	3.590100	-10.718000	25.578739	0.000382	20.862977
1209.297482	-3.005700	3.589800	-10.789000	25.536063	0.000382	20.864689
1210.297822	-3.022900	3.587900	-10.845000	25.515638	0.000381	20.861721
1211.297857	-3.017200	3.589100	-10.828000	25.502909	0.000385	20.863162
1212.297403	-3.010700	3.589500	-10.806000	25.477472	0.000382	20.844258
1213.298342	-3.014300	3.588700	-10.816000	25.494317	0.000381	20.853113
1214.301337	-2.991300	3.588600	-10.734000	25.501817	0.000380	20.859696
1215.300147	-2.990100	3.588400	-10.728000	25.481367	0.000378	20.835841
1216.300012	-3.002000	3.587400	-10.768000	25.483777	0.000381	20.832097
1217.300139	-2.982500	3.588000	-10.700000	25.528012	0.000379	20.843329
1218.300238	-2.992300	3.587300	-10.734000	25.552282	0.000378	20.846839
1219.307926	-3.004100	3.585200	-10.769000	25.555513	0.000380	20.845817
1220.303271	-2.986000	3.587200	-10.710000	25.479674	0.000375	20.847892
1221.300613	-2.992000	3.586400	-10.730000	25.491871	0.000377	20.855872
1222.299744	-2.992000	3.584500	-10.724000	25.442814	0.000379	20.852128
1223.300893	-2.984300	3.585600	-10.700000	25.498678	0.000379	20.837104
1224.299817	-2.996500	3.585600	-10.744000	25.532495	0.000376	20.836451
1225.302512	-3.003200	3.585400	-10.766000	25.521464	0.000377	20.843865
1226.299822	-2.993300	3.583500	-10.726000	25.538559	0.000375	20.830214
1227.299243	-2.996300	3.583800	-10.737000	25.554066	0.000375	20.848631
1228.301777	-3.031600	3.583800	-10.864000	25.580107	0.000374	20.829265
1229.301470	-3.002000	3.583800	-10.757000	25.574368	0.000377	20.818286
1230.309894	-3.023700	3.583000	-10.833000	25.566863	0.000375	20.844887
1231.301776	-3.001400	3.584200	-10.757000	25.554784	0.000374	20.821852
1232.301630	-2.993800	3.583300	-10.727000	25.565889	0.000371	20.849598
1233.301710	-2.976200	3.583600	-10.664000	25.523519	0.000373	20.832178
1234.301222	-2.981100	3.583000	-10.681000	25.502081	0.000372	20.836254
1235.304066	-2.991000	3.582500	-10.714000	25.512788	0.000372	20.826618
1236.307079	-3.008800	3.581800	-10.775000	25.554803	0.000373	20.832776
1237.302639	-3.035900	3.579800	-10.867000	25.520042	0.000371	20.834377
1238.306756	-3.009700	3.580500	-10.775000	25.542656	0.000371	20.828163
1239.305663	-3.006600	3.580300	-10.763000	25.494968	0.000371	20.833379
1240.303569	-3.020100	3.579800	-10.810000	25.460721	0.000371	20.823170
1241.307641	-3.009500	3.581200	-10.776000	25.458611	0.000369	20.818681
1242.305536	-3.005700	3.578800	-10.756000	25.415918	0.000369	20.826070
1243.307364	-3.002400	3.579000	-10.744000	25.424761	0.000369	20.830682
1244.304405	-3.014700	3.577300	-10.783000	25.465516	0.000370	20.827985
1245.304208	-2.983700	3.578700	-10.677000	25.448769	0.000369	20.837246
1246.308414	-2.972100	3.579600	-10.638000	25.479657	0.000367	20.819426
1247.308414	-3.005200	3.577800	-10.751000	25.487629	0.000367	20.833121
1248.306369	-3.019700	3.576600	-10.799000	25.484023	0.000368	20.835664
1249.306283	-2.990200	3.578100	-10.697000	25.506963	0.000367	20.816027
1250.307083	-2.984500	3.577500	-10.676000	25.496177	0.000366	20.815153
1251.308295	-2.969400	3.577300	-10.620000	25.512506	0.000366	20.829180
1252.310174	-3.005000	3.576200	-10.745000	25.543447	0.000365	20.846501
1253.306944	-2.994800	3.575300	-10.706000	25.563994	0.000364	20.823989
1254.308870	-2.983500	3.577500	-10.672000	25.564092	0.000364	20.830725
1255.314771	-3.005200	3.575000	-10.743000	25.542969	0.000364	20.813780
1256.306917	-2.998700	3.575100	-10.720000	25.525996	0.000362	20.816175
1257.311832	-2.964000	3.576600	-10.601000	25.542669	0.000365	20.832918
1258.307652	-2.998500	3.575900	-10.721000	25.538444	0.000364	20.797856
1259.308650	-2.998500	3.574700	-10.718000	25.510194	0.000364	20.813582
1260.309474	-2.988300	3.573800	-10.679000	25.497795	0.000362	20.807295
1261.308584	-3.013700	3.574200	-10.770000	25.540363	0.000363	20.829654
1262.310975	-3.013500	3.574000	-10.769000	25.558132	0.000364	20.799610
1263.309543	-2.998900	3.573700	-10.716000	25.582432	0.000362	20.811212
1264.309470	-2.983300	3.572900	-10.658000	25.614866	0.000362	20.797319
1265.308729	-2.995100	3.573500	-10.702000	25.612598	0.000361	20.814007
1266.308395	-2.995200	3.572100	-10.699000	25.603677	0.000360	20.813108
1267.311815	-3.012900	3.571400	-10.759000	25.570653	0.000359	20.822616
1268.311756	-2.991100	3.571400	-10.682000	25.580494	0.000359	20.802628
1269.309339	-2.997000	3.570500	-10.701000	25.591653	0.000360	20.809567
1270.310122	-3.005200	3.570400	-10.729000	25.583333	0.000358	20.833927
1271.310862	-3.005300	3.572400	-10.734000	25.591463	0.000360	20.808902
1272.310886	-3.004900	3.571300	-10.731000	25.576478	0.000358	20.790533
1273.314512	-3.010300	3.570200	-10.747000	25.531772	0.000359	20.822923
1274.312623	-3.009800	3.568900	-10.741000	25.533464	0.000359	20.799493
1275.310946	-2.992200	3.570400	-10.682000	25.571634	0.000358	20.813169
1276.312834	-2.983600	3.570400	-10.652000	25.592977	0.000357	20.790034
1277.314425	-2.952500	3.570900	-10.542000	25.573105	0.000357	20.821285
1278.317721	-3.000200	3.567500	-10.702000	25.540852	0.000356	20.797904
1279.313466	-3.016900	3.567900	-10.763000	25.543440	0.000356	20.804769
1280.313846	-3.002900	3.568500	-10.716000	25.503154	0.000356	20.807935
1281.314546	-3.005200	3.567500	-10.720000	25.511855	0.000356	20.801974
1282.314422	-3.021000	3.567100	-10.775000	25.509647	0.000356	20.799757
1283.317361	-3.017000	3.566400	-10.758000	25.536560	0.000354	20.799757
1284.315883	-3.032600	3.566100	-10.814000	25.552484	0.000357	20.793464
1285.314040	-3.011900	3.567700	-10.745000	25.536235	0.000355	20.799905
1286.313744	-3.015300	3.565600	-10.751000	25.535358	0.000353	20.803292
1287.317966	-2.995700	3.565900	-10.681000	25.527687	0.000355	20.798907
1288.314002	-3.024500	3.566000	-10.784000	25.542392	0.000353	20.797553
1289.318628	-3.005800	3.564000	-10.712000	25.508574	0.000354	20.817171
1290.312835	-3.016800	3.565100	-10.753000	25.529275	0.000352	20.804769
1291.314742	-3.010000	3.565300	-10.731000	25.521224	0.000352	20.801426
1292.315517	-2.994700	3.563900	-10.673000	25.523438	0.000353	20.806019
1293.314913	-2.985000	3.564800	-10.640000	25.546426	0.000353	20.785009
1294.317852	-2.996600	3.563400	-10.676000	25.581860	0.000351	20.800206
1295.316459	-2.978400	3.563900	-10.613000	25.620874	0.000351	20.797663
1296.317314	-3.008800	3.562000	-10.715000	25.642609	0.000352	20.808587
1297.317782	-3.003000	3.562700	-10.697000	25.658415	0.000351	20.784633
1298.317036	-2.987600	3.562700	-10.643000	25.651610	0.000353	20.809566
1299.317002	-3.013600	3.561100	-10.731000	25.603007	0.000351	20.809117
1300.318424	-2.992400	3.561500	-10.656000	25.609543	0.000351	20.772533
1301.319468	-3.002700	3.561400	-10.693000	25.590555	0.000351	20.787127
1302.317900	-3.001200	3.561600	-10.688000	25.570707	0.000348	20.793747
1303.319946	-3.029700	3.559700	-10.784000	25.534573	0.000348	20.765993
1304.320171	-2.992200	3.561400	-10.655000	25.561160	0.000347	20.790797
1305.321926	-2.988000	3.561200	-10.640000	25.530526	0.000346	20.791801
1306.319863	-3.011600	3.560100	-10.719000	25.524309	0.000348	20.803575
1307.319119	-2.983100	3.560400	-10.620000	25.559596	0.000348	20.789701
1308.319268	-2.982700	3.559500	-10.616000	25.529306	0.000345	20.790101
1309.319357	-3.022500	3.558400	-10.754000	25.507188	0.000345	20.763622
1310.320381	-2.991500	3.559000	-10.645000	25.553680	0.000344	20.789449
1311.322196	-3.010400	3.558600	-10.712000	25.562257	0.000345	20.779097
1312.319821	-2.978400	3.558400	-10.597000	25.596766	0.000344	20.782934
1313.318860	-2.988900	3.558100	-10.634000	25.580125	0.000346	20.788980
1314.322678	-3.008900	3.557200	-10.703000	25.601946	0.000347	20.776283
1315.322001	-2.995600	3.557200	-10.655000	25.608998	0.000345	20.777200
1316.322271	-3.019400	3.556100	-10.737000	25.611983	0.000344	20.786363
1317.320714	-2.996900	3.556900	-10.658000	25.592902	0.000345	20.788537
1318.320117	-3.006500	3.554300	-10.685000	25.579609	0.000344	20.780876
1319.321862	-2.980900	3.556500	-10.601000	25.596183	0.000343	20.784719
1320.324883	-2.978400	3.555700	-10.590000	25.547873	0.000342	20.770814
1321.324616	-2.977900	3.555300	-10.587000	25.534309	0.000343	20.795600
1322.323546	-2.989500	3.555400	-10.628000	25.529716	0.000342	20.771073
1323.324047	-2.994600	3.555000	-10.645000	25.516889	0.000340	20.773838
1324.325177	-2.991900	3.555400	-10.637000	25.545499	0.000341	20.774121
1325.325294	-2.997100	3.553400	-10.649000	25.530292	0.000339	20.771651
1326.329653	-3.008000	3.552100	-10.683000	25.524700	0.000338	20.791640
1327.325868	-2.997900	3.552500	-10.649000	25.478103	0.000338	20.778037
1328.326412	-3.004900	3.550400	-10.667000	25.523314	0.000339	20.773178
1329.334132	-2.982200	3.554100	-10.598000	25.515563	0.000339	20.766343
1330.328201	-2.996400	3.553000	-10.646000	25.548583	0.000340	20.770106
1331.330962	-3.010500	3.552200	-10.693000	25.540563	0.000337	20.737868
1332.337831	-2.996400	3.551300	-10.639000	25.579057	0.000341	20.763725
1333.327093	-2.996100	3.551600	-10.640000	25.583655	0.000339	20.763602
1334.327999	-3.009300	3.550000	-10.682000	25.593300	0.000337	20.769969
1335.327174	-3.007200	3.549900	-10.674000	25.574936	0.000338	20.769545
1336.330513	-2.994100	3.550900	-10.631000	25.548772	0.000338	20.737104
1337.333970	-3.000400	3.549400	-10.649000	25.549760	0.000339	20.761804
1338.329064	-3.002800	3.548800	-10.655000	25.542009	0.000336	20.776306
1339.328937	-2.985900	3.548800	-10.596000	25.570068	0.000338	20.772242
1340.332378	-2.988200	3.549200	-10.604000	25.556149	0.000335	20.769643
1341.328206	-2.981500	3.548300	-10.578000	25.545290	0.000335	20.770591
1342.329034	-2.995400	3.548400	-10.627000	25.567333	0.000336	20.760012
1343.331285	-3.015000	3.548500	-10.697000	25.577064	0.000333	20.752715
1344.328606	-3.006500	3.548200	-10.666000	25.603864	0.000336	20.755449
1345.329102	-2.994500	3.548600	-10.626000	25.610989	0.000334	20.751699
1346.328460	-3.013500	3.546500	-10.687000	25.665458	0.000334	20.756145
1347.330158	-3.016300	3.547400	-10.699000	25.628162	0.000334	20.778430
1348.329611	-3.004100	3.546600	-10.654000	25.605998	0.000335	20.747634
1349.328839	-2.995100	3.546800	-10.623000	25.567161	0.000334	20.757469
1350.328884	-3.012700	3.545500	-10.681000	25.558914	0.000334	20.743970
1351.331597	-3.003400	3.544300	-10.644000	25.541573	0.000331	20.755005
1352.329794	-3.006900	3.544600	-10.657000	25.536153	0.000333	20.738655
1353.330810	-3.014200	3.544800	-10.683000	25.561851	0.000333	20.747868
1354.331924	-2.974100	3.545000	-10.543000	25.608517	0.000329	20.742104
1355.330491	-2.999000	3.543900	-10.627000	25.655384	0.000331	20.739862
1356.331162	-2.983400	3.544500	-10.574000	25.664035	0.000332	20.734800
1357.331558	-2.982900	3.543500	-10.569000	25.648958	0.000331	20.749056
1358.339511	-2.996300	3.544100	-10.618000	25.658817	0.000330	20.739991
1359.333317	-2.971000	3.544800	-10.531000	25.635862	0.000331	20.750127
1360.331858	-2.988900	3.542200	-10.586000	25.630375	0.000327	20.747935
1361.334521	-3.004400	3.541900	-10.641000	25.614329	0.000330	20.760269
1362.334384	-2.999000	3.541500	-10.620000	25.639449	0.000327	20.751358
1363.332347	-2.995000	3.541200	-10.605000	25.652894	0.000327	20.732619
1364.336326	-2.991500	3.541500	-10.594000	25.673016	0.000329	20.733863
1365.333097	-2.985400	3.540100	-10.567000	25.629841	0.000330	20.736492
1366.333986	-2.979200	3.541000	-10.549000	25.629737	0.000329	20.720740
1367.334764	-2.991600	3.541100	-10.592000	25.646266	0.000328	20.742084
1368.337907	-3.001200	3.540200	-10.625000	25.660975	0.000327	20.749271
1369.333067	-2.991500	3.539600	-10.588000	25.644132	0.000326	20.726664
1370.334931	-2.986500	3.539200	-10.568000	25.598755	0.000325	20.735618
1371.335321	-3.002700	3.538900	-10.625000	25.572095	0.000326	20.731129
1372.334881	-2.985900	3.540200	-10.570000	25.586688	0.000327	20.721127
1373.336149	-2.988300	3.539200	-10.575000	25.591955	0.000323	20.722624
1374.335875	-2.994300	3.538900	-10.595000	25.614622	0.000324	20.746813
1375.337983	-3.023800	3.537500	-10.695000	25.666976	0.000322	20.733012
1376.338978	-2.989700	3.536100	-10.571000	25.680544	0.000324	20.728622
1377.338496	-2.986700	3.536400	-10.560000	25.697239	0.000323	20.724052
1378.336924	-2.985000	3.536500	-10.555000	25.717439	0.000322	20.714470
1379.339180	-3.017300	3.536900	-10.671000	25.683382	0.000322	20.733844
1380.337802	-2.981300	3.537500	-10.545000	25.652096	0.000323	20.716170
1381.337609	-3.009300	3.535400	-10.638000	25.671084	0.000320	20.726706
1382.339155	-3.010000	3.535600	-10.642000	25.694510	0.000322	20.715147
1383.342257	-3.023300	3.534300	-10.684000	25.688005	0.000322	20.702449
1384.343526	-3.009600	3.534200	-10.636000	25.691040	0.000322	20.722568
1385.337686	-3.022800	3.533900	-10.682000	25.635260	0.000321	20.721545
1386.337990	-3.002100	3.533900	-10.608000	25.612200	0.000318	20.709765
1387.341602	-2.988700	3.535100	-10.565000	25.617418	0.000320	20.719273
1388.338636	-2.995200	3.532900	-10.581000	25.645278	0.000320	20.724021
1389.340056	-2.965500	3.534400	-10.481000	25.664358	0.000320	20.712838
1390.339917	-3.013900	3.532100	-10.644000	25.625198	0.000320	20.719027
1391.340422	-2.966900	3.533400	-10.482000	25.611458	0.000320	20.710442
1392.342537	-3.008300	3.531700	-10.624000	25.570157	0.000319	20.703101
1393.339699	-2.988300	3.532000	-10.553000	25.607932	0.000317	20.702633
1394.340419	-2.999900	3.531200	-10.592000	25.641722	0.000319	20.708120
1395.339806	-2.993900	3.531400	-10.572000	25.661605	0.000318	20.695847
1396.340161	-3.014900	3.530200	-10.642000	25.668809	0.000319	20.725844
1397.339848	-2.980800	3.532200	-10.528000	25.651390	0.000317	20.724470
1398.340874	-3.006900	3.529100	-10.610000	25.632212	0.000314	20.719433
1399.339662	-3.011900	3.528800	-10.628000	25.619165	0.000316	20.718657
1400.341363	-2.995900	3.529400	-10.573000	25.592083	0.000314	20.702362
1401.340339	-3.013500	3.529700	-10.636000	25.580034	0.000314	20.729618
1402.339723	-2.996300	3.529200	-10.574000	25.622102	0.000314	20.711174
1403.344378	-2.991200	3.528000	-10.552000	25.643475	0.000314	20.713675
1404.342578	-2.991300	3.528800	-10.554000	25.650207	0.000312	20.713324
1405.342738	-2.973700	3.529100	-10.494000	25.636915	0.000311	20.701395
1406.340432	-2.990500	3.528500	-10.551000	25.622383	0.000313	20.710983
1407.339711	-2.995100	3.526900	-10.563000	25.637288	0.000311	20.696080
1408.340381	-3.028000	3.525400	-10.673000	25.624296	0.000312	20.721914
1409.341474	-2.990200	3.526500	-10.544000	25.617914	0.000314	20.697010
1410.340434	-3.012100	3.525700	-10.618000	25.594455	0.000313	20.709013
1411.350307	-2.999700	3.525300	-10.573000	25.602285	0.000310	20.705022
1412.342115	-2.994800	3.526100	-10.559000	25.611451	0.000310	20.706642
1413.343357	-3.019200	3.525100	-10.642000	25.615529	0.000312	20.705995
1414.344190	-3.000800	3.525000	-10.576000	25.636970	0.000311	20.704770
1415.342535	-3.023500	3.523200	-10.651000	25.669421	0.000310	20.697059
1416.344142	-3.013100	3.522800	-10.613000	25.683559	0.000310	20.697509
1417.342924	-3.012800	3.522700	-10.612000	25.685693	0.000308	20.688271
1418.343845	-2.995300	3.523000	-10.551000	25.656767	0.000309	20.692884
1419.343767	-2.996600	3.523000	-10.556000	25.646730	0.000308	20.698451
1420.347116	-3.007600	3.523300	-10.596000	25.642340	0.000308	20.710164
1421.346607	-2.991700	3.522500	-10.537000	25.607601	0.000309	20.701826
1422.343933	-3.011000	3.521900	-10.604000	25.584271	0.000307	20.684558
1423.344155	-2.993700	3.522200	-10.543000	25.592714	0.000307	20.683080
1424.346938	-2.996200	3.520600	-10.548000	25.601341	0.000307	20.687003
1425.344939	-3.010400	3.520800	-10.597000	25.589985	0.000304	20.699307
1426.343339	-2.993400	3.522100	-10.542000	25.563669	0.000308	20.697059
1427.344612	-3.018300	3.520700	-10.626000	25.584320	0.000306	20.683184
1428.345510	-3.011000	3.519900	-10.597000	25.660255	0.000308	20.706820
1429.347313	-3.009200	3.520400	-10.593000	25.626436	0.000308	20.703199
1430.346803	-3.003200	3.519000	-10.567000	25.671064	0.000305	20.705822
1431.347042	-2.988500	3.519400	-10.517000	25.653297	0.000306	20.695563
1432.350265	-2.989400	3.518600	-10.518000	25.660133	0.000305	20.702429
1433.348003	-2.992900	3.518800	-10.531000	25.702191	0.000304	20.695360
1434.349429	-3.015100	3.517800	-10.606000	25.695907	0.000304	20.692841
1435.354672	-3.020500	3.516200	-10.620000	25.729350	0.000302	20.706993
1436.348561	-3.013000	3.516500	-10.594000	25.731588	0.000304	20.693118
1437.350190	-3.003200	3.518000	-10.565000	25.732605	0.000302	20.696985
1438.349719	-2.998700	3.516500	-10.544000	25.711436	0.000304	20.701327
1439.350692	-3.017300	3.515700	-10.607000	25.683553	0.000303	20.698451
1440.349977	-2.983400	3.517700	-10.493000	25.687434	0.000304	20.701401
1441.352608	-3.014300	3.515500	-10.596000	25.694932	0.000302	20.698501
1442.352999	-3.003400	3.515400	-10.558000	25.694687	0.000300	20.698254
1443.351425	-3.004500	3.514700	-10.558000	25.720081	0.000301	20.692939
1444.351605	-3.002100	3.515100	-10.552000	25.664921	0.000302	20.706765
1445.352176	-2.998400	3.513400	-10.533000	25.672720	0.000301	20.704166
1446.352190	-2.985400	3.515400	-10.493000	25.661463	0.000300	20.705663
1447.353112	-2.980200	3.513800	-10.471000	25.680776	0.000300	20.688074
1448.353839	-3.011700	3.513100	-10.579000	25.732900	0.000299	20.672148
1449.354229	-2.976500	3.514200	-10.459000	25.654879	0.000298	20.695255
1450.353794	-3.002800	3.513400	-10.549000	25.631102	0.000298	20.716895
1451.356485	-3.008100	3.512100	-10.564000	25.665688	0.000299	20.689041
1452.353039	-3.004500	3.511300	-10.549000	25.655621	0.000297	20.694104
1453.357662	-2.990200	3.512600	-10.502000	25.651697	0.000299	20.700120
1454.353641	-3.014100	3.511000	-10.581000	25.616246	0.000297	20.701499
1455.352858	-2.988700	3.510900	-10.491000	25.605259	0.000296	20.693783
1456.353549	-3.007600	3.511100	-10.559000	25.592383	0.000297	20.705035
1457.352769	-3.013300	3.510300	-10.576000	25.599599	0.000296	20.704221
1458.351324	-2.993300	3.510200	-10.506000	25.590028	0.000297	20.714999
1459.356594	-2.979300	3.510000	-10.457000	25.636694	0.000296	20.708760
1460.354383	-2.973600	3.509800	-10.436000	25.672548	0.000298	20.708261
1461.353123	-2.977700	3.509100	-10.447000	25.674663	0.000297	20.692367
1462.356658	-3.011900	3.507300	-10.562000	25.708003	0.000295	20.704043
1463.353819	-3.014200	3.507400	-10.571000	25.741869	0.000297	20.703446
1464.359352	-3.011900	3.508800	-10.567000	25.728755	0.000294	20.714931
1465.356942	-2.992000	3.507100	-10.493000	25.659428	0.000293	20.724482
1466.355117	-3.019500	3.506600	-10.587000	25.620146	0.000293	20.695932
1467.354221	-3.013900	3.506700	-10.568000	25.589213	0.000293	20.685254
1468.355619	-3.020500	3.506500	-10.590000	25.645516	0.000294	20.721415
1469.355418	-3.006300	3.507400	-10.543000	25.695631	0.000293	20.709160
1470.356608	-3.006800	3.506600	-10.543000	25.698586	0.000294	20.691264
1471.357681	-3.001000	3.505900	-10.521000	25.658710	0.000291	20.713804
1472.354535	-2.994300	3.506100	-10.496000	25.594382	0.000294	20.711310
1473.357829	-2.999700	3.506500	-10.518000	25.616516	0.000293	20.714099
1474.356342	-2.999200	3.505900	-10.515000	25.600838	0.000291	20.693136
1475.358938	-3.003000	3.504900	-10.524000	25.634161	0.000292	20.685352
1476.356386	-2.995100	3.503800	-10.493000	25.685374	0.000293	20.692693
1477.355972	-2.992200	3.504000	-10.484000	25.716359	0.000289	20.686830
1478.358287	-3.048700	3.501800	-10.675000	25.683388	0.000291	20.702552
1479.355740	-3.016300	3.503100	-10.565000	25.692057	0.000289	20.707467
1480.357620	-3.016500	3.501000	-10.560000	25.705943	0.000290	20.709561
1481.356438	-3.006000	3.501500	-10.525000	25.733157	0.000290	20.697539
1482.357629	-2.990900	3.501800	-10.471000	25.731324	0.000290	20.690956
1483.360906	-3.014000	3.500800	-10.550000	25.694699	0.000289	20.712017
1484.359076	-3.005300	3.500700	-10.519000	25.704784	0.000289	20.724519
1485.359974	-2.991400	3.500800	-10.471000	25.700634	0.000288	20.708495
1486.357687	-3.000300	3.501200	-10.503000	25.698868	0.000288	20.709567
1487.357901	-3.003600	3.501000	-10.514000	25.693583	0.000288	20.709000
1488.360690	-2.996600	3.499100	-10.484000	25.707199	0.000284	20.697071
1489.359971	-3.002900	3.500100	-10.509000	25.725530	0.000288	20.699836
1490.359885	-2.977800	3.499500	-10.420000	25.726879	0.000288	20.714468
1491.360325	-3.017700	3.497800	-10.554000	25.739398	0.000288	20.705231
1492.361100	-2.991100	3.499200	-10.466000	25.735670	0.000287	20.707177
1493.361035	-2.973700	3.500300	-10.408000	25.729834	0.000288	20.689934
1494.360113	-2.985600	3.497800	-10.442000	25.675797	0.000286	20.698247
1495.360501	-2.989500	3.497900	-10.456000	25.670929	0.000287	20.710903
1496.361993	-3.001600	3.496400	-10.493000	25.628882	0.000287	20.723201
1497.365270	-2.988900	3.498100	-10.454000	25.598949	0.000284	20.727277
1498.360531	-2.985700	3.496800	-10.439000	25.619789	0.000284	20.706481
1499.362556	-2.983800	3.496100	-10.431000	25.641929	0.000287	20.725399
1500.360030	-2.995700	3.495600	-10.471000	25.639225	0.000286	20.721735
1501.368730	-2.992100	3.495100	-10.457000	25.682805	0.000285	20.712873
1502.363876	-3.002100	3.494900	-10.491000	25.713937	0.000285	20.710003
1503.364668	-2.995300	3.495200	-10.468000	25.753939	0.000282	20.713200
1504.361209	-3.020100	3.494200	-10.552000	25.684816	0.000283	20.707780
1505.360754	-2.977600	3.495100	-10.406000	25.713312	0.000283	20.715066
1506.362717	-3.004600	3.493900	-10.497000	25.732642	0.000282	20.716938
1507.364865	-3.030900	3.493000	-10.586000	25.698806	0.000283	20.725153
1508.362519	-3.007500	3.493500	-10.506000	25.702687	0.000281	20.717196
1509.363279	-3.004100	3.493000	-10.492000	25.667949	0.000281	20.711229
1510.365603	-3.024700	3.492600	-10.563000	25.655699	0.000281	20.733540
1511.366929	-3.023800	3.491300	-10.556000	25.664577	0.000279	20.725861
1512.367134	-2.996900	3.491700	-10.462000	25.678685	0.000282	20.725805
1513.363770	-3.000000	3.492200	-10.476000	25.678556	0.000282	20.720934
1514.363431	-3.001200	3.491800	-10.477000	25.706764	0.000281	20.714653
1515.364780	-3.003100	3.491700	-10.485000	25.703404	0.000280	20.729297
1516.366627	-3.004700	3.489500	-10.484000	25.706690	0.000279	20.728330
1517.367171	-3.005600	3.489600	-10.488000	25.735161	0.000277	20.720417
1518.366776	-3.007000	3.489900	-10.493000	25.691136	0.000280	20.723139
1519.366230	-3.021700	3.489200	-10.541000	25.697028	0.000277	20.727634
1520.374738	-2.999400	3.489400	-10.465000	25.660923	0.000280	20.749693
1521.365327	-2.995700	3.488100	-10.448000	25.638189	0.000276	20.732549
1522.366094	-3.006000	3.488700	-10.486000	25.643259	0.000278	20.712510
1523.367184	-3.003500	3.487500	-10.474000	25.629544	0.000276	20.735720
1524.366258	-3.037800	3.486700	-10.590000	25.588893	0.000276	20.733774
1525.366686	-3.010200	3.487200	-10.497000	25.635914	0.000275	20.765826
1526.367529	-3.014200	3.487400	-10.511000	25.630390	0.000276	20.737992
1527.368670	-2.990500	3.486900	-10.427000	25.610763	0.000275	20.728712
1528.372296	-3.029400	3.485800	-10.559000	25.647023	0.000277	20.724826
1529.366553	-2.998900	3.485900	-10.453000	25.682602	0.000275	20.755820
1530.368568	-2.994900	3.487500	-10.443000	25.707842	0.000276	20.724272
1531.368195	-2.969600	3.486200	-10.352000	25.757764	0.000275	20.733164
1532.369669	-2.980400	3.485100	-10.386000	25.775702	0.000272	20.741225
1533.372906	-2.960300	3.486100	-10.318000	25.728944	0.000273	20.711327
1534.374815	-3.011300	3.485000	-10.494000	25.719337	0.000273	20.731076
1535.373309	-3.006100	3.483400	-10.470000	25.702189	0.000274	20.729025
1536.369536	-3.005400	3.484400	-10.471000	25.662633	0.000274	20.728176
1537.372610	-3.000000	3.484200	-10.452000	25.616146	0.000273	20.731273
1538.371476	-3.014200	3.483500	-10.499000	25.646134	0.000271	20.741003
1539.370389	-3.034700	3.482900	-10.568000	25.678892	0.000272	20.744507
1540.369218	-2.988600	3.482000	-10.405000	25.689296	0.000270	20.754957
1541.370965	-2.997100	3.484100	-10.441000	25.713507	0.000270	20.733755
1542.368968	-3.018300	3.481300	-10.507000	25.726007	0.000272	20.742992
1543.370741	-3.005800	3.481200	-10.463000	25.712391	0.000271	20.736901
1544.373653	-3.009900	3.482300	-10.480000	25.721685	0.000271	20.743392
1545.370530	-3.005400	3.481000	-10.461000	25.762931	0.000272	20.722707
1546.370721	-3.038200	3.480600	-10.574000	25.740849	0.000270	20.746520
1547.370732	-3.018100	3.480200	-10.503000	25.723383	0.000270	20.734191
1548.371350	-2.985200	3.480100	-10.388000	25.732499	0.000268	20.729123
1549.375198	-3.010200	3.479500	-10.472000	25.724014	0.000268	20.742412
1550.372463	-2.998400	3.479600	-10.432000	25.753950	0.000269	20.750196
1551.375641	-2.985000	3.479100	-10.384000	25.737207	0.000267	20.755190
1552.377100	-2.994000	3.480500	-10.420000	25.736864	0.000268	20.721179
1553.372096	-3.000500	3.478900	-10.438000	25.758554	0.000267	20.765727
1554.374320	-3.004800	3.479300	-10.453000	25.770128	0.000267	20.748903
1555.381554	-2.988300	3.478600	-10.394000	25.733216	0.000268	20.754975
1556.373380	-2.994100	3.476600	-10.408000	25.745091	0.000267	20.761687
1557.373759	-3.019600	3.476500	-10.497000	25.767430	0.000264	20.754728
1558.376561	-3.005900	3.475900	-10.447000	25.719410	0.000267	20.746797
1559.374328	-3.005700	3.476400	-10.449000	25.701342	0.000266	20.748090
1560.377127	-2.991800	3.476400	-10.400000	25.699773	0.000267	20.747462
1561.374198	-2.989600	3.476000	-10.392000	25.701594	0.000264	20.755929
1562.373480	-2.995400	3.475200	-10.409000	25.732425	0.000267	20.767931
1563.378553	-2.991100	3.476000	-10.396000	25.780402	0.000266	20.747369
1564.374804	-2.982400	3.476200	-10.366000	25.737029	0.000265	20.757856
1565.375731	-3.012900	3.474500	-10.467000	25.696781	0.000262	20.751569
1566.375118	-3.012600	3.474200	-10.465000	25.690963	0.000262	20.754734
1567.375097	-3.017900	3.473200	-10.481000	25.736005	0.000264	20.734068
1568.377601	-3.001000	3.473400	-10.423000	25.741376	0.000264	20.756532
1569.376127	-2.985000	3.474000	-10.369000	25.710318	0.000262	20.777494
1570.375635	-3.013100	3.472000	-10.461000	25.729948	0.000261	20.778245
1571.378914	-2.995100	3.473600	-10.403000	25.734644	0.000263	20.760677
1572.376830	-2.991200	3.472100	-10.385000	25.793398	0.000261	20.771330
1573.378095	-2.979900	3.472900	-10.348000	25.780286	0.000261	20.773806
1574.378300	-3.014700	3.471000	-10.462000	25.796482	0.000260	20.748822
1575.377285	-3.010700	3.472500	-10.453000	25.813052	0.000260	20.760252
1576.382909	-3.011900	3.471200	-10.455000	25.814909	0.000260	20.768282
1577.380469	-3.004800	3.470200	-10.426000	25.836328	0.000259	20.755184
1578.379515	-3.002900	3.470400	-10.421000	25.868596	0.000260	20.782384
1579.379163	-2.993900	3.469200	-10.386000	25.802686	0.000263	20.755529
1580.382069	-3.001500	3.468700	-10.410000	25.791510	0.000260	20.776072
1581.381682	-2.999900	3.470100	-10.409000	25.797898	0.000259	20.763996
1582.379860	-2.998800	3.468800	-10.401000	25.772801	0.000261	20.759648
1583.380365	-3.007700	3.468800	-10.432000	25.810385	0.000258	20.784601
1584.380251	-3.003700	3.469200	-10.419000	25.808767	0.000262	20.770647
1585.383247	-2.995700	3.469000	-10.392000	25.762888	0.000257	20.758226
1586.386036	-3.003900	3.466200	-10.411000	25.757015	0.000258	20.788363
1587.384198	-3.009700	3.467300	-10.435000	25.786876	0.000259	20.780900
1588.384619	-3.005800	3.467800	-10.423000	25.763746	0.000257	20.760511
1589.385114	-3.020900	3.467100	-10.473000	25.721684	0.000257	20.765677
1590.386643	-3.009800	3.466500	-10.433000	25.709705	0.000257	20.758861
1591.386224	-2.955100	3.467200	-10.245000	25.668953	0.000257	20.780044
1592.392851	-3.002800	3.467000	-10.410000	25.730175	0.000255	20.770413
1593.386252	-2.999900	3.464600	-10.393000	25.776338	0.000255	20.775056
1594.385103	-3.001400	3.465600	-10.401000	25.792737	0.000256	20.768295
1595.385430	-2.986400	3.464900	-10.346000	25.782646	0.000255	20.768116
1596.387384	-3.016300	3.463500	-10.446000	25.810717	0.000253	20.776399
1597.388834	-3.014300	3.463400	-10.439000	25.776215	0.000252	20.772562
1598.391299	-3.009900	3.464600	-10.427000	25.752386	0.000256	20.784188
1599.388154	-2.975000	3.464300	-10.305000	25.765199	0.000255	20.782834
1600.390721	-2.991300	3.463800	-10.361000	25.736361	0.000254	20.770462
1601.393097	-3.002100	3.464000	-10.398000	25.771765	0.000255	20.780894
1602.390856	-2.997800	3.462000	-10.377000	25.829395	0.000255	20.794688
1603.393130	-3.003400	3.462200	-10.397000	25.860425	0.000254	20.770382
1604.389436	-3.013600	3.461500	-10.431000	25.850464	0.000255	20.768436
1605.390545	-3.012000	3.461500	-10.425000	25.809718	0.000253	20.782033
1606.393093	-3.016400	3.461200	-10.439000	25.852892	0.000252	20.794109
1607.391698	-3.017300	3.461000	-10.441000	25.865881	0.000253	20.795778
1608.393739	-2.990500	3.461600	-10.351000	25.860095	0.000252	20.789491
1609.392259	-3.004500	3.458700	-10.391000	25.838358	0.000252	20.773819
1610.393733	-3.000900	3.460700	-10.385000	25.870178	0.000253	20.805784
1611.395414	-3.020500	3.461500	-10.453000	25.779355	0.000251	20.807484
1612.396301	-3.013800	3.460200	-10.428000	25.723254	0.000251	20.794281
1613.396357	-2.997500	3.459800	-10.370000	25.772121	0.000251	20.808752
1614.397568	-3.010800	3.459500	-10.415000	25.771630	0.000252	20.777440
1615.396929	-2.998800	3.457900	-10.368000	25.766487	0.000251	20.790291
1616.400000	-3.001600	3.458500	-10.380000	25.754735	0.000249	20.795082
1617.399546	-3.008300	3.457800	-10.402000	25.825313	0.000248	20.805760
1618.398116	-2.997400	3.459400	-10.367000	25.831002	0.000247	20.805784
1619.401522	-3.007700	3.457900	-10.399000	25.817614	0.000248	20.821733
1620.398392	-2.983500	3.456900	-10.313000	25.774714	0.000248	20.787649
1621.398043	-2.993100	3.457100	-10.347000	25.754134	0.000248	20.812970
1622.399925	-2.989600	3.456700	-10.333000	25.721863	0.000246	20.799048
1623.399819	-2.996600	3.455800	-10.355000	25.744625	0.000246	20.800100
1624.402910	-3.004900	3.456900	-10.387000	25.767008	0.000246	20.806462
1625.403315	-2.998100	3.455000	-10.357000	25.745864	0.000245	20.812724
1626.404513	-2.986600	3.455200	-10.318000	25.756623	0.000245	20.793659
1627.400339	-3.005900	3.454100	-10.382000	25.788274	0.000246	20.810754
1628.402611	-3.007000	3.453900	-10.385000	25.793448	0.000245	20.786553
1629.398511	-3.022400	3.453400	-10.437000	25.818594	0.000246	20.813235
1630.402721	-2.988800	3.454500	-10.323000	25.840031	0.000247	20.807268
1631.399189	-2.990700	3.453600	-10.328000	25.814616	0.000244	20.828678
1632.400486	-2.997700	3.453200	-10.351000	25.813721	0.000246	20.811659
1633.405997	-3.001800	3.452600	-10.363000	25.804384	0.000242	20.831677
1634.403256	-3.013600	3.452700	-10.403000	25.803814	0.000244	20.804078
1635.407898	-2.986300	3.452400	-10.309000	25.787312	0.000246	20.807890
1636.405571	-2.996900	3.451200	-10.342000	25.796740	0.000244	20.804084
1637.404185	-3.017600	3.451600	-10.413000	25.816761	0.000242	20.820402
1638.404726	-2.995400	3.451000	-10.337000	25.837751	0.000243	20.814934
1639.404282	-3.003800	3.450800	-10.365000	25.894415	0.000243	20.823494
1640.404400	-2.994800	3.451400	-10.335000	25.877276	0.000242	20.820975
1641.406973	-3.026700	3.449900	-10.441000	25.872734	0.000241	20.798394
1642.404774	-3.011400	3.450000	-10.389000	25.838823	0.000243	20.807477
1643.405792	-3.012600	3.449300	-10.391000	25.825386	0.000241	20.802040
1644.411905	-3.034800	3.450200	-10.469000	25.827722	0.000239	20.822878
1645.405919	-2.990100	3.449600	-10.313000	25.811967	0.000240	20.811320
1646.407464	-2.995600	3.448300	-10.328000	25.776044	0.000237	20.793727
1647.406754	-2.994200	3.448600	-10.325000	25.758137	0.000239	20.835482
1648.406223	-2.998200	3.447700	-10.336000	25.753416	0.000240	20.833112
1649.406884	-3.002500	3.446700	-10.347000	25.776246	0.000237	20.819060
1650.407745	-3.012000	3.447100	-10.381000	25.805818	0.000240	20.826480
1651.408351	-3.009100	3.446800	-10.371000	25.795409	0.000239	20.808438
1652.409237	-3.005500	3.447500	-10.360000	25.766173	0.000237	20.822218
1653.406744	-2.998300	3.446600	-10.333000	25.748279	0.000237	20.830322
1654.408127	-3.004600	3.445000	-10.349000	25.769275	0.000236	20.839558
1655.410901	-2.987800	3.444900	-10.292000	25.809447	0.000237	20.841978
1656.408421	-2.986400	3.447100	-10.293000	25.809821	0.000236	20.828130
1657.412112	-3.012100	3.446200	-10.379000	25.803740	0.000238	20.824392
1658.413383	-3.009800	3.444100	-10.365000	25.834152	0.000235	20.845931
1659.409381	-3.020900	3.444600	-10.405000	25.842421	0.000235	20.840488
1660.412475	-3.012500	3.444500	-10.376000	25.845756	0.000236	20.838622
1661.409801	-3.004600	3.443900	-10.347000	25.839993	0.000236	20.841843
1662.410726	-2.991600	3.443700	-10.300000	25.821940	0.000235	20.852156
1663.411861	-2.986300	3.444200	-10.283000	25.844989	0.000234	20.846387
1664.411604	-2.998700	3.442400	-10.322000	25.830516	0.000234	20.828530
1665.411731	-2.987900	3.442000	-10.284000	25.859824	0.000235	20.827625
1666.414916	-3.004000	3.442900	-10.342000	25.878765	0.000235	20.834798
1667.412363	-2.999400	3.442500	-10.325000	25.859413	0.000233	20.843807
1668.413643	-2.966200	3.443500	-10.212000	25.853105	0.000235	20.836996
1669.412303	-3.002200	3.441800	-10.332000	25.882669	0.000234	20.834453
1670.416142	-2.998500	3.441600	-10.318000	25.862128	0.000235	20.838474
1671.414858	-3.007500	3.440200	-10.345000	25.827402	0.000234	20.831091
1672.412158	-2.990500	3.439300	-10.284000	25.808325	0.000233	20.849859
1673.416917	-2.979100	3.440400	-10.248000	25.796027	0.000234	20.855050
1674.411858	-2.999200	3.439200	-10.313000	25.801618	0.000232	20.841226
1675.413190	-2.977100	3.440100	-10.241000	25.807785	0.000231	20.847895
1676.412957	-2.997100	3.440400	-10.310000	25.809974	0.000232	20.842033
1677.413543	-2.993100	3.440100	-10.295000	25.784012	0.000234	20.854360
1678.417191	-2.992200	3.438900	-10.289000	25.786703	0.000233	20.862279
1679.415421	-2.992300	3.438900	-10.289000	25.774724	0.000230	20.837445
1680.414158	-3.007900	3.436900	-10.336000	25.752471	0.000230	20.860610
1681.417475	-2.980100	3.438700	-10.247000	25.748051	0.000232	20.861860
1682.416597	-2.987200	3.438700	-10.271000	25.723651	0.000229	20.854422
1683.417299	-3.001000	3.437500	-10.315000	25.743177	0.000230	20.856491
1684.420921	-3.033300	3.434800	-10.418000	25.768300	0.000231	20.843794
1685.417289	-3.020700	3.436100	-10.378000	25.770090	0.000230	20.843695
1686.420868	-2.982900	3.437200	-10.252000	25.836492	0.000229	20.852076
1687.420272	-2.972800	3.437100	-10.216000	25.853638	0.000230	20.847488
1688.417573	-3.009900	3.435500	-10.339000	25.884293	0.000227	20.843671
1689.419747	-2.982400	3.436300	-10.247000	25.904313	0.000227	20.855721
1690.416878	-2.983800	3.435100	-10.249000	25.897681	0.000228	20.855696
1691.418230	-2.986400	3.434300	-10.255000	25.876122	0.000226	20.861540
1692.417947	-3.011700	3.432700	-10.336000	25.860001	0.000226	20.851035
1693.417461	-3.003300	3.433200	-10.310000	25.864794	0.000227	20.853954
1694.417829	-2.995500	3.433500	-10.284000	25.848863	0.000228	20.864976
1695.421681	-3.013100	3.432800	-10.342000	25.881314	0.000227	20.862962
1696.418354	-3.010100	3.432600	-10.331000	25.917633	0.000227	20.844446
1697.417305	-3.017000	3.433300	-10.357000	25.980753	0.000225	20.855702
1698.424701	-3.014500	3.432200	-10.346000	25.997394	0.000226	20.865308
1699.421378	-2.998400	3.430900	-10.286000	26.021089	0.000226	20.861140
1700.421092	-2.999800	3.431600	-10.293000	26.024147	0.000226	20.847618
1701.421144	-3.005600	3.431000	-10.311000	25.962672	0.000226	20.858874
1702.423115	-3.015900	3.430400	-10.345000	25.982941	0.000222	20.851263
1703.426090	-2.952300	3.432700	-10.133000	25.942874	0.000225	20.829502
1704.424506	-2.995600	3.430900	-10.277000	25.916474	0.000225	20.844705
1705.425454	-2.998600	3.429900	-10.284000	25.909664	0.000224	20.852562
1706.423178	-3.007900	3.429900	-10.316000	25.955316	0.000224	20.844373
1707.424335	-3.002100	3.429700	-10.296000	25.945356	0.000223	20.833892
1708.429131	-3.009500	3.427500	-10.314000	25.939968	0.000223	20.848393
1709.425179	-3.011100	3.428200	-10.322000	25.884698	0.000223	20.838387
1710.428755	-2.983500	3.427800	-10.225000	25.908867	0.000221	20.823787
1711.439092	-2.979000	3.428400	-10.212000	25.898342	0.000222	20.860154
1712.425145	-2.989700	3.427100	-10.245000	25.853877	0.000220	20.847728
1713.427513	-2.972600	3.428500	-10.190000	25.837755	0.000220	20.822051
1714.426825	-3.010100	3.425700	-10.311000	25.861650	0.000222	20.827562
1715.430544	-2.994000	3.427000	-10.259000	25.893359	0.000221	20.830493
1716.427286	-3.009500	3.427100	-10.313000	25.913004	0.000222	20.817038
1717.427208	-2.985300	3.427900	-10.233000	25.891814	0.000219	20.835579
1718.428533	-3.013600	3.426100	-10.323000	25.915070	0.000221	20.839027
1719.426962	-3.009800	3.425500	-10.309000	25.954513	0.000221	20.834083
1720.432840	-3.002800	3.424500	-10.282000	25.986557	0.000220	20.854421
1721.432057	-3.029700	3.424100	-10.373000	26.008444	0.000219	20.841324
1722.429769	-3.019800	3.423800	-10.338000	25.996174	0.000220	20.822833
1723.428277	-3.019600	3.423100	-10.335000	25.940538	0.000218	20.830949
1724.429679	-2.992300	3.424700	-10.247000	25.888866	0.000217	20.814600
1725.429030	-3.003800	3.423700	-10.283000	25.905477	0.000217	20.825124
1726.432134	-2.980000	3.424400	-10.203000	25.915891	0.000218	20.823732
1727.431869	-2.977700	3.424300	-10.196000	25.959711	0.000217	20.833141
1728.430482	-2.987600	3.423800	-10.228000	25.909762	0.000217	20.806195
1729.435487	-2.999000	3.422400	-10.263000	25.894254	0.000217	20.807211
1730.432740	-3.025700	3.422400	-10.354000	25.897889	0.000216	20.829828
1731.434958	-3.009000	3.421000	-10.293000	25.934727	0.000216	20.807568
1732.431458	-3.027600	3.420400	-10.355000	25.963591	0.000217	20.808116
1733.433333	-3.003200	3.422600	-10.278000	25.945932	0.000215	20.823091
1734.432097	-2.986800	3.421000	-10.217000	25.914506	0.000216	20.819969
1735.433209	-2.976300	3.421800	-10.183000	25.875184	0.000215	20.816029
1736.432889	-2.998700	3.419900	-10.254000	25.913642	0.000216	20.811041
1737.434554	-2.996000	3.420100	-10.246000	25.935917	0.000213	20.842901
1738.434168	-2.987000	3.419900	-10.214000	25.962800	0.000213	20.815382
1739.433624	-2.998000	3.419600	-10.250000	25.972766	0.000217	20.807377
1740.442733	-2.989100	3.418200	-10.216000	25.970008	0.000214	20.801287
1741.435911	-3.019900	3.417900	-10.320000	25.955702	0.000211	20.802561
1742.438271	-2.988000	3.418400	-10.213000	25.928874	0.000211	20.822549
1743.436060	-3.003900	3.416700	-10.263000	25.959484	0.000211	20.796878
1744.439192	-2.979900	3.418300	-10.185000	25.977786	0.000212	20.797721
1745.436831	-2.996000	3.417100	-10.237000	25.992790	0.000212	20.804735
1746.436930	-2.983700	3.418500	-10.199000	26.030643	0.000211	20.820006
1747.439059	-3.001400	3.417400	-10.256000	25.996744	0.000210	20.791163
1748.436897	-3.022700	3.415300	-10.322000	26.014904	0.000211	20.795658
1749.438961	-3.016000	3.416400	-10.303000	25.966318	0.000209	20.814649
1750.437600	-3.006900	3.416400	-10.272000	25.971019	0.000209	20.810363
1751.441617	-2.989700	3.414800	-10.209000	26.027947	0.000209	20.793589
1752.436902	-3.004200	3.415200	-10.259000	25.996088	0.000209	20.800461
1753.439115	-2.978300	3.416500	-10.175000	25.972441	0.000209	20.782868
1754.444726	-2.988400	3.414400	-10.203000	26.019237	0.000207	20.780097
1755.440588	-3.008200	3.413600	-10.268000	26.019709	0.000209	20.788632
1756.442294	-3.032900	3.414000	-10.353000	26.028559	0.000209	20.796576
1757.439530	-2.997400	3.414600	-10.234000	26.009363	0.000209	20.797678
1758.444613	-2.955300	3.415300	-10.093000	25.995971	0.000209	20.793232
1759.439866	-3.003900	3.413700	-10.254000	26.014205	0.000207	20.796853
1760.441435	-2.976400	3.414200	-10.161000	26.007549	0.000209	20.792536
1761.441412	-3.008900	3.411200	-10.263000	26.026451	0.000206	20.788768
1762.442678	-3.003600	3.411900	-10.247000	26.013047	0.000208	20.793792
1763.443371	-2.999200	3.412200	-10.233000	26.023074	0.000207	20.771624
1764.446075	-2.988900	3.412400	-10.197000	26.051199	0.000206	20.787080
1765.443573	-3.012300	3.410100	-10.271000	26.001769	0.000204	20.801428
1766.444208	-2.993800	3.411100	-10.211000	26.024594	0.000207	20.808239
1767.448544	-2.992400	3.411400	-10.207000	26.051579	0.000207	20.778927
1768.443577	-2.980500	3.410800	-10.165000	26.021621	0.000206	20.806200
1769.447618	-3.004800	3.410000	-10.245000	26.034370	0.000204	20.778706
1770.445037	-2.999100	3.409100	-10.223000	26.024306	0.000205	20.782819
1771.444029	-2.990300	3.410200	-10.196000	25.970805	0.000204	20.767948
1772.444833	-3.007200	3.409900	-10.253000	25.927114	0.000204	20.761513
1773.444807	-3.006600	3.407800	-10.245000	25.931540	0.000203	20.799624
1774.446064	-2.999600	3.407900	-10.222000	25.971332	0.000205	20.765632
1775.445043	-3.010500	3.407200	-10.256000	26.005067	0.000201	20.788620
1776.444957	-3.006200	3.406900	-10.241000	25.994408	0.000204	20.794033
1777.445049	-2.987800	3.406400	-10.177000	26.000825	0.000201	20.774401
1778.445139	-3.011700	3.405500	-10.256000	25.996278	0.000203	20.767461
1779.443246	-2.995200	3.406300	-10.201000	25.983835	0.000203	20.776298
1780.446660	-3.022800	3.405900	-10.295000	25.993826	0.000203	20.782542
1781.445412	-2.976700	3.406800	-10.141000	25.991123	0.000201	20.797370
1782.446754	-3.009200	3.405600	-10.247000	26.031930	0.000204	20.776255
1783.446421	-2.994300	3.405900	-10.197000	26.083075	0.000200	20.788762
1784.445279	-3.001600	3.405200	-10.220000	26.098801	0.000202	20.766630
1785.450277	-2.977700	3.405600	-10.141000	26.094774	0.000201	20.784870
1786.447301	-3.005500	3.403200	-10.227000	26.100885	0.000199	20.787690
1787.447723	-2.975100	3.404500	-10.128000	26.040707	0.000198	20.791711
1788.447093	-3.004700	3.404400	-10.228000	26.064854	0.000198	20.772351
1789.450741	-3.019600	3.404000	-10.278000	26.003602	0.000199	20.752534
1790.448204	-2.998600	3.403200	-10.203000	26.022510	0.000198	20.789550
1791.452087	-2.980600	3.404500	-10.147000	26.017221	0.000198	20.775226
1792.450526	-2.991400	3.402300	-10.176000	26.016228	0.000197	20.781341
1793.448004	-3.000200	3.402200	-10.206000	26.054950	0.000196	20.766667
1794.452456	-3.010400	3.400800	-10.237000	26.022890	0.000197	20.763379
1795.449031	-2.994700	3.401000	-10.184000	25.981310	0.000197	20.783244
1796.453457	-3.010200	3.399200	-10.231000	25.958761	0.000196	20.775288
1797.449817	-3.005200	3.401300	-10.221000	25.969696	0.000198	20.765411
1798.452700	-2.992300	3.400300	-10.174000	25.988095	0.000196	20.773940
1799.453633	-2.995900	3.400900	-10.188000	25.962690	0.000197	20.783977
1800.452884	-2.983600	3.399800	-10.142000	25.927121	0.000196	20.765312
1801.453433	-2.993200	3.400000	-10.176000	25.903847	0.000196	20.766587
1802.451746	-2.995000	3.400300	-10.182000	25.944614	0.000195	20.761550
1803.451888	-2.969700	3.399900	-10.096000	25.957676	0.000193	20.764241
1804.453937	-3.010300	3.397200	-10.225000	25.986643	0.000194	20.768213
1805.453999	-2.998900	3.398000	-10.190000	25.986870	0.000195	20.774131
1806.453821	-3.018100	3.398100	-10.254000	26.016130	0.000194	20.764173
1807.454654	-2.974800	3.399500	-10.112000	26.011809	0.000192	20.754616
1808.454247	-2.992400	3.396000	-10.161000	26.033371	0.000194	20.772961
1809.455586	-3.032800	3.397100	-10.300000	26.007764	0.000194	20.751026
1810.459213	-3.003600	3.396700	-10.202000	25.992987	0.000192	20.748981
1811.456468	-2.999100	3.396900	-10.186000	25.983597	0.000192	20.766101
1812.459573	-3.027500	3.396200	-10.281000	25.971234	0.000193	20.771698
1813.455091	-3.024200	3.396600	-10.271000	25.997063	0.000193	20.777259
1814.456038	-2.984600	3.396900	-10.138000	26.046695	0.000191	20.763114
1815.454662	-3.007600	3.394900	-10.209000	26.044182	0.000192	20.752054
1816.457320	-2.994900	3.394800	-10.166000	26.047234	0.000191	20.777881
1817.460510	-2.997400	3.395600	-10.178000	25.992417	0.000190	20.746512
1818.462684	-3.015300	3.393400	-10.230000	26.011147	0.000190	20.771969
1819.460341	-2.993600	3.394300	-10.160000	26.026372	0.000190	20.779679
1820.458913	-2.999300	3.392900	-10.174000	26.051929	0.000189	20.747984
1821.459909	-2.993600	3.393100	-10.157000	26.064125	0.000189	20.760238
1822.459708	-2.973500	3.393500	-10.090000	26.083235	0.000188	20.767111
1823.461031	-3.000100	3.393500	-10.180000	26.115121	0.000189	20.759795
1824.458677	-3.008700	3.392000	-10.205000	26.115789	0.000187	20.761889
1825.458724	-2.989600	3.391900	-10.139000	26.123370	0.000187	20.776144
1826.461969	-3.009000	3.391300	-10.203000	26.120312	0.000187	20.747466
1827.458577	-3.028300	3.390300	-10.266000	26.159527	0.000189	20.746093
1828.461877	-3.006700	3.391400	-10.196000	26.061705	0.000187	20.762073
1829.458946	-3.001600	3.391300	-10.179000	26.047124	0.000188	20.752165
1830.461367	-2.990500	3.390800	-10.140000	26.095461	0.000188	20.764223
1831.463416	-2.970400	3.390700	-10.071000	26.039874	0.000188	20.753889
1832.463572	-3.017400	3.391100	-10.231000	26.071265	0.000186	20.756981
1833.466725	-3.023000	3.388600	-10.242000	26.073582	0.000187	20.756938
1834.470401	-2.989900	3.389500	-10.133000	26.079545	0.000185	20.758188
1835.462942	-2.991100	3.390600	-10.141000	26.040701	0.000185	20.745237
1836.463009	-2.998400	3.389100	-10.161000	26.024392	0.000186	20.741653
1837.467723	-2.986700	3.389500	-10.122000	26.084896	0.000185	20.753132
1838.463786	-3.003700	3.388800	-10.179000	26.123322	0.000183	20.755706
1839.469100	-2.996700	3.388800	-10.155000	26.167807	0.000184	20.725014
1840.465650	-2.986200	3.386900	-10.113000	26.180302	0.000185	20.743735
1841.465292	-3.000800	3.386400	-10.161000	26.162151	0.000181	20.749678
1842.465823	-2.995700	3.385700	-10.141000	26.152021	0.000183	20.742818
1843.465727	-3.001600	3.387500	-10.167000	26.123585	0.000182	20.734633
1844.470060	-2.999400	3.385500	-10.154000	26.153124	0.000180	20.733494
1845.464056	-2.989500	3.386600	-10.124000	26.093194	0.000182	20.731598
1846.464683	-3.004100	3.385500	-10.169000	26.070151	0.000181	20.736419
1847.464669	-2.998500	3.386600	-10.154000	26.067865	0.000180	20.761150
1848.465845	-3.008000	3.386400	-10.185000	26.101174	0.000180	20.758108
1849.465871	-2.993300	3.385200	-10.132000	26.116899	0.000180	20.749727
1850.469824	-2.987200	3.384700	-10.110000	26.144373	0.000180	20.736555
1851.466483	-3.000000	3.384500	-10.152000	26.174989	0.000180	20.722748
1852.470952	-2.981900	3.385000	-10.093000	26.174830	0.000182	20.742030
1853.468178	-2.997900	3.383200	-10.142000	26.103380	0.000180	20.757006
1854.466516	-3.009100	3.383000	-10.179000	26.102290	0.000180	20.744530
1855.470974	-2.997300	3.382300	-10.137000	26.088604	0.000181	20.724615
1856.468116	-3.007600	3.382400	-10.172000	26.066173	0.000178	20.727681
1857.468027	-2.995400	3.383000	-10.133000	26.109748	0.000176	20.748705
1858.466339	-2.991300	3.382100	-10.116000	26.087422	0.000178	20.745713
1859.469559	-2.996200	3.381700	-10.131000	26.111685	0.000177	20.730736
1860.470540	-3.003600	3.381100	-10.155000	26.124401	0.000178	20.741617
1861.472730	-2.987400	3.380700	-10.099000	26.101463	0.000177	20.741328
1862.470438	-2.992300	3.380500	-10.115000	26.020863	0.000176	20.739530
1863.477317	-2.984900	3.381000	-10.091000	26.030253	0.000177	20.735213
1864.474749	-3.002400	3.381200	-10.151000	26.071690	0.000175	20.735595
1865.470398	-3.010600	3.379300	-10.173000	26.062822	0.000175	20.718623
1866.474070	-3.005600	3.379900	-10.158000	26.037890	0.000177	20.726290
1867.471563	-3.017300	3.378900	-10.194000	26.027808	0.000174	20.742714
1868.477487	-3.015900	3.378600	-10.189000	26.084052	0.000174	20.743275
1869.472638	-2.979800	3.380700	-10.073000	26.111306	0.000175	20.729407
1870.470431	-2.964200	3.380200	-10.018000	26.145404	0.000172	20.726211
1871.472984	-2.987300	3.379400	-10.094000	26.098166	0.000172	20.711936
1872.471255	-3.003100	3.378400	-10.145000	26.043829	0.000173	20.721826
1873.471345	-3.023200	3.376700	-10.207000	25.993486	0.000173	20.716764
1874.474891	-3.009900	3.377800	-10.166000	26.000246	0.000172	20.708857
1875.474490	-2.991500	3.377600	-10.103000	26.060776	0.000170	20.729844
1876.476798	-3.004100	3.375100	-10.138000	26.067511	0.000171	20.720490
1877.473610	-3.012200	3.376000	-10.168000	26.124905	0.000172	20.710828
1878.474411	-2.991000	3.376500	-10.098000	26.088085	0.000171	20.731206
1879.473187	-2.997800	3.375800	-10.119000	26.112918	0.000171	20.719647
1880.473526	-3.011800	3.375200	-10.163000	26.155541	0.000169	20.716481
1881.476373	-2.991200	3.374600	-10.093000	26.169605	0.000169	20.717812
1882.479368	-3.009200	3.374800	-10.155000	26.171150	0.000167	20.734538
1883.474349	-3.001400	3.373300	-10.124000	26.157141	0.000168	20.725676
1884.472945	-3.001100	3.373000	-10.122000	26.121180	0.000168	20.705187
1885.476981	-2.985600	3.374200	-10.073000	26.090457	0.000168	20.720312
1886.474209	-2.981700	3.374300	-10.060000	26.090709	0.000166	20.711081
1887.477962	-2.997900	3.372100	-10.109000	26.076080	0.000166	20.727203
1888.473758	-2.994800	3.372100	-10.098000	26.128865	0.000166	20.710065
1889.476572	-2.999800	3.372000	-10.114000	26.183186	0.000167	20.721501
1890.477936	-3.012900	3.371300	-10.157000	26.195233	0.000166	20.714167
1891.476052	-2.994500	3.371100	-10.094000	26.227386	0.000166	20.719450
1892.481137	-3.021400	3.372300	-10.189000	26.218556	0.000167	20.708206
1893.481445	-2.977900	3.371000	-10.037000	26.207214	0.000164	20.709136
1894.481378	-2.993000	3.370500	-10.087000	26.211485	0.000165	20.689719
1895.481696	-3.009100	3.370600	-10.141000	26.217252	0.000165	20.718275
1896.481678	-2.993100	3.370600	-10.088000	26.209384	0.000164	20.699461
1897.481369	-2.996400	3.369400	-10.095000	26.235084	0.000165	20.713909
1898.483502	-2.999700	3.370200	-10.109000	26.212141	0.000166	20.707923
1899.482433	-3.021500	3.368200	-10.175000	26.185944	0.000164	20.699616
1900.480424	-3.006200	3.369100	-10.127000	26.147509	0.000165	20.698452
1901.484917	-2.995900	3.367900	-10.088000	26.143783	0.000165	20.690440
1902.481841	-3.020900	3.368600	-10.175000	26.126955	0.000161	20.694394
1903.488670	-3.006000	3.366900	-10.120000	26.195173	0.000163	20.687552
1904.484221	-2.985800	3.367800	-10.055000	26.251973	0.000160	20.671134
1905.481823	-2.985200	3.367200	-10.051000	26.296452	0.000161	20.696396
1906.481798	-2.999000	3.368000	-10.100000	26.322181	0.000161	20.681474
1907.481967	-2.983200	3.367700	-10.045000	26.332218	0.000160	20.679232
1908.481701	-2.999700	3.366800	-10.099000	26.326134	0.000161	20.701095
1909.485034	-3.010100	3.365100	-10.127000	26.294278	0.000160	20.703694
1910.482559	-2.983500	3.366000	-10.041000	26.312010	0.000160	20.701600
1911.482191	-2.996400	3.365900	-10.085000	26.275418	0.000159	20.698965
1912.484466	-3.007500	3.365100	-10.119000	26.238217	0.000161	20.672957
1913.481676	-2.993500	3.365100	-10.073000	26.204502	0.000160	20.686494
1914.486306	-2.996200	3.364300	-10.080000	26.203313	0.000159	20.691464
1915.480406	-2.980700	3.365100	-10.029000	26.211065	0.000160	20.680287
1916.481436	-2.988300	3.365500	-10.056000	26.230858	0.000159	20.673149
1917.482413	-2.976300	3.364600	-10.013000	26.256766	0.000159	20.687806
1918.483115	-3.006300	3.363200	-10.110000	26.301467	0.000158	20.691477
1919.486053	-3.001200	3.362800	-10.092000	26.280462	0.000158	20.674160
1920.484149	-2.974800	3.363500	-10.004000	26.275597	0.000159	20.682547
1921.484088	-2.979200	3.363500	-10.020000	26.276529	0.000160	20.691071
1922.484369	-3.007800	3.363100	-10.114000	26.298330	0.000158	20.686902
1923.485177	-2.991600	3.360200	-10.052000	26.316663	0.000157	20.687309
1924.484539	-3.007900	3.361500	-10.109000	26.274225	0.000156	20.682117
1925.486814	-3.023700	3.359600	-10.158000	26.217709	0.000158	20.695025
1926.486725	-3.005900	3.361600	-10.104000	26.258441	0.000156	20.699922
1927.486757	-3.008300	3.361200	-10.111000	26.315089	0.000158	20.693314
1928.488002	-3.003200	3.360700	-10.092000	26.349880	0.000155	20.686078
1929.489782	-3.016300	3.358600	-10.129000	26.352717	0.000154	20.694620
1930.491209	-2.984600	3.360400	-10.028000	26.312222	0.000154	20.676206
1931.490214	-3.020700	3.358500	-10.144000	26.327394	0.000155	20.676280
1932.489982	-2.981600	3.359100	-10.014000	26.319557	0.000153	20.685950
1933.491864	-2.973000	3.358900	-9.985400	26.348319	0.000155	20.668386
1934.492069	-2.979400	3.358500	-10.005000	26.318865	0.000155	20.680038
1935.492337	-3.013000	3.358900	-10.120000	26.319141	0.000154	20.676521
1936.490413	-3.002700	3.359000	-10.084000	26.332327	0.000151	20.674600
1937.491011	-3.016900	3.357400	-10.129000	26.258105	0.000152	20.670659
1938.492299	-3.025100	3.356500	-10.153000	26.200051	0.000153	20.670166
1939.494496	-2.989600	3.357200	-10.036000	26.164490	0.000152	20.675684
1940.495885	-2.968600	3.357700	-9.967000	26.153092	0.000151	20.655694
1941.494397	-3.014600	3.354800	-10.112000	26.176538	0.000153	20.690163
1942.493720	-3.019500	3.354500	-10.128000	26.253106	0.000152	20.670850
1943.493837	-2.992100	3.356100	-10.040000	26.268652	0.000152	20.690742
1944.497486	-3.004100	3.354800	-10.077000	26.325000	0.000152	20.675297
1945.493208	-3.010700	3.354300	-10.097000	26.298058	0.000151	20.694216
1946.496801	-3.016900	3.354100	-10.118000	26.322948	0.000149	20.685089
1947.496430	-3.016600	3.353100	-10.115000	26.293389	0.000148	20.685729
1948.493936	-2.994100	3.354100	-10.042000	26.294063	0.000149	20.698736
1949.497708	-2.998900	3.353700	-10.057000	26.303279	0.000148	20.673856
1950.494429	-3.018200	3.352300	-10.117000	26.358283	0.000148	20.680298
1951.498743	-3.002200	3.352600	-10.063000	26.354981	0.000150	20.692627
1952.494326	-3.001900	3.353000	-10.063000	26.325233	0.000148	20.680274
1953.513569	-2.984400	3.352100	-10.003000	26.354613	0.000149	20.708381
1954.494247	-2.977700	3.352600	-9.982500	26.401099	0.000146	20.692985
1955.494606	-3.008500	3.351100	-10.081000	26.381829	0.000147	20.683101
1956.494868	-3.003400	3.350800	-10.063000	26.328039	0.000144	20.698743
1957.498181	-3.015200	3.350400	-10.102000	26.304665	0.000145	20.683311
1958.495177	-3.009200	3.350200	-10.080000	26.349755	0.000146	20.700178
1959.497139	-2.988900	3.351200	-10.016000	26.365649	0.000146	20.700979
1960.500954	-2.981900	3.350800	-9.990200	26.352390	0.000146	20.677694
1961.496657	-2.994300	3.349400	-10.028000	26.385341	0.000145	20.679991
1962.500237	-3.024200	3.349600	-10.128000	26.406448	0.000144	20.691249
1963.498043	-3.012000	3.350000	-10.090000	26.374937	0.000146	20.689925
1964.497582	-2.983900	3.347900	-9.988600	26.347979	0.000144	20.677054
1965.497828	-2.994700	3.348600	-10.026000	26.316858	0.000145	20.679443
1966.498238	-3.000600	3.346800	-10.041000	26.338696	0.000144	20.683373
1967.498998	-2.999400	3.347600	-10.040000	26.300400	0.000143	20.697518
1968.498813	-3.010800	3.346400	-10.073000	26.285529	0.000144	20.698695
1969.499356	-3.011900	3.348100	-10.083000	26.320817	0.000142	20.693380
1970.499509	-3.021700	3.346200	-10.110000	26.389924	0.000144	20.699773
1971.500165	-3.014700	3.346900	-10.089000	26.408624	0.000141	20.666881
1972.499217	-2.995100	3.345800	-10.020000	26.375704	0.000141	20.691170
1973.500569	-3.027200	3.345100	-10.125000	26.419131	0.000142	20.686453
1974.500249	-2.998400	3.345900	-10.032000	26.430925	0.000142	20.673175
1975.499527	-2.999500	3.345100	-10.032000	26.380030	0.000142	20.699786
1976.498877	-3.008200	3.344300	-10.060000	26.341546	0.000139	20.685289
1977.500498	-2.999900	3.343500	-10.029000	26.336050	0.000140	20.694465
1978.503064	-3.001900	3.343800	-10.036000	26.327638	0.000140	20.693597
1979.500464	-3.013000	3.342800	-10.071000	26.325855	0.000138	20.715989
1980.499580	-2.970300	3.343500	-9.930500	26.356588	0.000139	20.699933
1981.499993	-2.986700	3.344200	-9.987600	26.298644	0.000140	20.682475
1982.499465	-2.988000	3.343700	-9.989400	26.290979	0.000139	20.687575
1983.504669	-3.003300	3.342300	-10.037000	26.265899	0.000139	20.685130
1984.502407	-3.016100	3.341600	-10.076000	26.338876	0.000138	20.696356
1985.500949	-2.997800	3.342500	-10.020000	26.374640	0.000138	20.694842
1986.500955	-3.018100	3.340900	-10.083000	26.402554	0.000137	20.683067
1987.502734	-2.961500	3.343100	-9.899400	26.443971	0.000137	20.701463
1988.502128	-3.008800	3.340500	-10.050000	26.461652	0.000136	20.703113
1989.505681	-3.010600	3.340900	-10.058000	26.440301	0.000135	20.676909
1990.506732	-2.995300	3.339700	-10.002000	26.447598	0.000136	20.693254
1991.503846	-2.989100	3.339700	-9.981600	26.486709	0.000136	20.702221
1992.505059	-3.001300	3.339300	-10.022000	26.482722	0.000136	20.705325
1993.506052	-3.017600	3.338500	-10.074000	26.446405	0.000134	20.709125
1994.509585	-3.005800	3.339500	-10.037000	26.449609	0.000134	20.697646
1995.505008	-3.003600	3.339300	-10.030000	26.420881	0.000133	20.702437
1996.505065	-2.985000	3.338400	-9.964600	26.416219	0.000134	20.682103
1997.508746	-3.010100	3.338600	-10.049000	26.459718	0.000134	20.702117
1998.507544	-2.998100	3.337600	-10.006000	26.485939	0.000134	20.701920
1999.516924	-2.984200	3.337600	-9.958900	26.493364	0.000133	20.696107
2000.512296	-3.026500	3.336500	-10.096000	26.485645	0.000133	20.693564
2001.512777	-2.999200	3.336500	-10.006000	26.516307	0.000132	20.706367
2002.521295	-3.005800	3.335700	-10.025000	26.488433	0.000134	20.706324
2003.518330	-3.029800	3.336600	-10.109000	26.462268	0.000130	20.715112
2004.513257	-2.993700	3.336900	-9.988900	26.421673	0.000130	20.700862
2005.520783	-2.997200	3.335200	-9.995500	26.404267	0.000131	20.707076
2006.510049	-2.984100	3.335500	-9.952700	26.426660	0.000131	20.685010
2007.512568	-2.994300	3.334600	-9.983300	26.478705	0.000132	20.706029
2008.514096	-2.996100	3.335600	-9.992700	26.505631	0.000131	20.698006
2009.511646	-3.020300	3.333500	-10.067000	26.473467	0.000129	20.702186
2010.514900	-2.993800	3.334200	-9.981100	26.471844	0.000130	20.713833
2011.515290	-3.004300	3.333700	-10.015000	26.496392	0.000129	20.699625
2012.512867	-3.015600	3.334400	-10.054000	26.448478	0.000128	20.720693
2013.511776	-2.990500	3.334300	-9.970100	26.451511	0.000129	20.706671
2014.515863	-2.983000	3.334300	-9.945000	26.459555	0.000126	20.710015
2015.512253	-2.988700	3.331800	-9.957200	26.526491	0.000129	20.726562
2016.515721	-2.994800	3.331800	-9.977400	26.498911	0.000129	20.706425
2017.512928	-3.011100	3.332400	-10.032000	26.474014	0.000128	20.716013
2018.513261	-3.008600	3.331400	-10.021000	26.515623	0.000127	20.713267
2019.512696	-3.000800	3.331000	-9.994600	26.526172	0.000128	20.714862
2020.512386	-3.002800	3.329800	-9.997700	26.508872	0.000127	20.705058
2021.514102	-3.004300	3.330800	-10.006000	26.485042	0.000125	20.704338
2022.513092	-3.004900	3.330200	-10.006000	26.522933	0.000124	20.704966
2023.514591	-3.003200	3.329600	-9.998600	26.498250	0.000126	20.710502
2024.513608	-2.981000	3.329100	-9.923400	26.478297	0.000124	20.714154
2025.514969	-2.996500	3.329700	-9.976100	26.535522	0.000125	20.716673
2026.515828	-3.026400	3.329400	-10.074000	26.561441	0.000124	20.734193
2027.518022	-2.997300	3.327700	-9.972800	26.520905	0.000125	20.728534
2028.514926	-3.000500	3.328400	-9.985900	26.567929	0.000124	20.719377
2029.515306	-2.997200	3.327900	-9.973200	26.566311	0.000123	20.713958
2030.522638	-2.992700	3.328400	-9.959400	26.540172	0.000123	20.726564
2031.515818	-3.001500	3.326300	-9.982800	26.499011	0.000124	20.722647
2032.519993	-3.012800	3.328000	-10.026000	26.495108	0.000123	20.710189
2033.515984	-2.988200	3.327400	-9.942200	26.455202	0.000120	20.722710
2034.516718	-3.021900	3.325400	-10.048000	26.463784	0.000120	20.730388
2035.516330	-3.004500	3.325900	-9.991200	26.399063	0.000122	20.742151
2036.516757	-2.986800	3.326200	-9.932800	26.429776	0.000122	20.727501
2037.519224	-2.999600	3.324700	-9.972200	26.479463	0.000121	20.717697
2038.518259	-2.982000	3.326300	-9.917000	26.486294	0.000120	20.709390
2039.517048	-2.982200	3.325400	-9.915000	26.538189	0.000120	20.727416
2040.516898	-3.002300	3.324800	-9.981500	26.526029	0.000121	20.718037
2041.516898	-2.982200	3.325900	-9.917600	26.584593	0.000120	20.722853
2042.517294	-3.008700	3.323600	-9.998600	26.580397	0.000119	20.721954
2043.521051	-3.015600	3.323900	-10.022000	26.622774	0.000121	20.735631
2044.519147	-3.003000	3.323100	-9.978500	26.575215	0.000118	20.714847
2045.520149	-2.999500	3.322600	-9.965500	26.575019	0.000118	20.730773
2046.522542	-3.010400	3.321200	-9.997200	26.599375	0.000119	20.746248
2047.520462	-3.012200	3.322900	-10.008000	26.599994	0.000118	20.735490
2048.522514	-3.022500	3.321000	-10.037000	26.538968	0.000118	20.729621
2049.520333	-3.003800	3.321500	-9.975700	26.519652	0.000117	20.736284
2050.520975	-2.982700	3.321500	-9.906000	26.482589	0.000118	20.732694
2051.520967	-2.992000	3.321100	-9.935300	26.476855	0.000117	20.731672
2052.520994	-2.993400	3.320700	-9.939600	26.493917	0.000115	20.717053
2053.522483	-3.021900	3.318900	-10.028000	26.519488	0.000118	20.735170
2054.522757	-2.997500	3.320700	-9.953200	26.559625	0.000117	20.729048
2055.521814	-3.003800	3.320600	-9.972900	26.616876	0.000118	20.723063
2056.520495	-3.010700	3.318600	-9.990700	26.660091	0.000116	20.735687
2057.525942	-2.999400	3.318400	-9.952800	26.608355	0.000119	20.740576
2058.520751	-3.001000	3.318700	-9.958700	26.594174	0.000115	20.734381
2059.522970	-2.992400	3.318000	-9.928300	26.642749	0.000113	20.745280
2060.522510	-2.992900	3.318100	-9.930000	26.689498	0.000116	20.743439
2061.521267	-3.004500	3.317200	-9.965800	26.727491	0.000114	20.746548
2062.523382	-3.002700	3.316800	-9.958300	26.735931	0.000115	20.740809
2063.523230	-3.005700	3.316100	-9.966000	26.747023	0.000113	20.728726
2064.526115	-2.999600	3.316700	-9.948100	26.753870	0.000115	20.742250
2065.523662	-2.984200	3.317500	-9.898900	26.726216	0.000115	20.743370
2066.523220	-3.008700	3.316000	-9.975200	26.769059	0.000114	20.743296
2067.526021	-2.996100	3.315300	-9.932500	26.802861	0.000113	20.732236
2068.522685	-2.994500	3.314800	-9.925400	26.789607	0.000113	20.739774
2069.522203	-2.981800	3.313800	-9.880700	26.695627	0.000113	20.752447
2070.524251	-2.994800	3.315800	-9.929500	26.679671	0.000113	20.745414
2071.520798	-2.976100	3.316100	-9.868100	26.632573	0.000109	20.755913
2072.528307	-3.002300	3.312800	-9.944900	26.624775	0.000112	20.763722
2073.525335	-3.014400	3.313100	-9.986400	26.677705	0.000110	20.755292
2074.525364	-2.939600	3.314400	-9.742600	26.718216	0.000109	20.745285
2075.528672	-3.005500	3.312600	-9.954500	26.664296	0.000111	20.758881
2076.526519	-3.027200	3.310500	-10.021000	26.656450	0.000110	20.766640
2077.528346	-3.015900	3.311100	-9.985300	26.656823	0.000108	20.740937
2078.528879	-2.985500	3.311400	-9.885700	26.751027	0.000111	20.748875
2079.529801	-2.990000	3.311800	-9.900800	26.732505	0.000110	20.755383
2080.531569	-2.994100	3.310700	-9.912100	26.741766	0.000109	20.754737
2081.536213	-3.008800	3.311400	-9.962100	26.731482	0.000108	20.779011
2082.529761	-3.005100	3.309400	-9.943600	26.689336	0.000109	20.759398
2083.532408	-3.020200	3.309600	-9.993600	26.644505	0.000108	20.769805
2084.531234	-3.002500	3.308700	-9.932500	26.611666	0.000107	20.757182
2085.530039	-3.015900	3.308700	-9.976800	26.685398	0.000108	20.774406
2086.533684	-3.025000	3.308300	-10.007000	26.706706	0.000109	20.753154
2087.531821	-3.007300	3.309000	-9.950200	26.707289	0.000106	20.756110
2088.530195	-3.016300	3.307400	-9.975300	26.772519	0.000109	20.779966
2089.530058	-2.999800	3.308000	-9.922800	26.827419	0.000105	20.770680
2090.528909	-3.000400	3.308600	-9.926200	26.821540	0.000107	20.767613
2091.531449	-2.973300	3.308400	-9.836000	26.844377	0.000106	20.773033
2092.529052	-2.972400	3.307400	-9.830000	26.858874	0.000105	20.788083
2093.534966	-3.011400	3.306200	-9.955000	26.805114	0.000105	20.791876
2094.529920	-2.999700	3.306700	-9.917400	26.801984	0.000104	20.755064
2095.530843	-3.027600	3.305200	-10.005000	26.762003	0.000103	20.780299
2096.530798	-3.001400	3.305600	-9.920000	26.763344	0.000104	20.783070
2097.531553	-3.003200	3.305500	-9.925900	26.809683	0.000106	20.791254
2098.531471	-3.005000	3.305400	-9.931600	26.823341	0.000104	20.772744
2099.532597	-2.986900	3.304500	-9.869600	26.832920	0.000102	20.775262
2100.533430	-3.018200	3.304200	-9.970500	26.859536	0.000103	20.765515
2101.532240	-2.996300	3.304800	-9.901300	26.827194	0.000102	20.765712
2102.533739	-2.992800	3.304300	-9.888500	26.849242	0.000102	20.781717
2103.531299	-2.988200	3.304200	-9.872000	26.884627	0.000104	20.781735
2104.531996	-3.012900	3.303200	-9.950500	26.897561	0.000102	20.771507
2105.531366	-3.007900	3.302700	-9.933600	26.928371	0.000102	20.778306
2106.532466	-3.012900	3.302400	-9.949300	26.897169	0.000102	20.770165
2107.537283	-3.007800	3.302400	-9.931700	26.911469	9.928778E-5	20.786915
2108.538779	-3.005000	3.301700	-9.920900	26.937159	0.000102	20.765806
2109.534538	-2.995300	3.301800	-9.888900	26.962303	0.000102	20.789194
2110.534075	-2.984900	3.301900	-9.854700	26.944287	9.806669E-5	20.786251
2111.537270	-2.991800	3.301300	-9.876100	26.944183	9.892475E-5	20.791835
2112.535210	-2.992300	3.300400	-9.874900	26.901555	9.770366E-5	20.765566
2113.540944	-3.006300	3.299100	-9.916800	26.861872	9.971681E-5	20.778769
2114.535570	-3.013500	3.298400	-9.938100	26.852189	0.000100	20.805069
2115.535618	-3.012400	3.299600	-9.939300	26.903809	9.998083E-5	20.792014
2116.535720	-2.986700	3.299000	-9.852100	26.889896	9.899076E-5	20.800784
2117.537634	-2.990800	3.298200	-9.863500	26.911213	9.724163E-5	20.778597
2118.537475	-2.982900	3.300200	-9.843300	26.929505	9.628456E-5	20.795568
2119.536441	-2.994500	3.296300	-9.870300	26.952812	9.826471E-5	20.797194
2120.536025	-2.980300	3.297300	-9.825900	27.026741	9.588853E-5	20.775759
2121.539820	-2.983100	3.297500	-9.834900	27.006295	9.743965E-5	20.796449
2122.539992	-2.984500	3.296300	-9.837100	27.008653	9.605354E-5	20.787440
2123.540685	-2.997800	3.296300	-9.881600	26.976940	9.724163E-5	20.807706
2124.540262	-3.010600	3.295300	-9.920200	26.920008	9.588853E-5	20.812570
2125.537428	-3.006800	3.295700	-9.908700	26.931747	9.625156E-5	20.809676
2126.537454	-3.004000	3.295300	-9.897600	26.959273	9.707662E-5	20.800846
2127.538421	-2.978500	3.295600	-9.814900	26.934461	9.714262E-5	20.798654
2128.537288	-2.965900	3.295900	-9.774100	26.955030	9.559151E-5	20.823605
2129.541247	-3.003700	3.294600	-9.894500	27.006847	9.701061E-5	20.813125
2130.538112	-2.997400	3.294600	-9.874600	27.040445	9.489846E-5	20.796179
2131.539482	-3.000100	3.295000	-9.884700	27.061441	9.644957E-5	20.809233
2132.537678	-2.990600	3.292800	-9.845500	27.053702	9.331434E-5	20.807140
2133.538301	-2.978200	3.293100	-9.805100	27.013056	9.390839E-5	20.810835
2134.539804	-2.981700	3.293800	-9.820200	27.027641	9.384238E-5	20.785199
2135.541262	-2.992400	3.292400	-9.851800	27.045687	9.400739E-5	20.804769
2136.540146	-2.996900	3.293000	-9.868100	27.047713	9.229127E-5	20.817712
2137.539656	-2.995800	3.291900	-9.861100	27.053702	9.318233E-5	20.810933
2138.540051	-2.998600	3.291400	-9.867900	27.022780	9.334735E-5	20.838156
2139.539283	-3.010800	3.289200	-9.901800	27.086852	9.232427E-5	20.799227
2140.542715	-3.000400	3.291200	-9.873800	27.083803	9.169723E-5	20.812756
2141.540971	-3.005500	3.290200	-9.887900	27.069928	8.932105E-5	20.806863
2142.541941	-2.999600	3.291100	-9.871200	27.087347	9.067415E-5	20.794984
2143.543723	-3.003600	3.289300	-9.878600	27.090354	9.199425E-5	20.817448
2144.540815	-2.996700	3.289800	-9.857700	27.085217	9.100417E-5	20.811333
2145.544774	-3.001600	3.289000	-9.870900	27.099605	8.826497E-5	20.826278
2146.542977	-3.009100	3.287900	-9.892300	27.057774	8.978309E-5	20.808864
2147.541983	-3.012900	3.288000	-9.905400	27.035932	8.951907E-5	20.823883
2148.541386	-3.003400	3.287900	-9.874100	27.025382	8.922204E-5	20.818014
2149.551024	-2.980800	3.287100	-9.797300	27.017048	8.790195E-5	20.825280
2150.542176	-2.977600	3.285800	-9.783000	26.994165	8.842999E-5	20.825502
2151.546311	-3.004600	3.285500	-9.870900	27.020404	8.737391E-5	20.819647
2152.541118	-2.973400	3.286100	-9.770300	27.045767	8.565778E-5	20.839936
2153.542007	-2.990600	3.285700	-9.825000	27.053726	8.661485E-5	20.801949
2154.544830	-2.998500	3.284300	-9.846000	27.025266	8.618582E-5	20.800828
2155.544664	-2.988800	3.284500	-9.815900	27.073902	8.734091E-5	20.827454
2156.546425	-2.995100	3.284800	-9.837200	27.072966	8.582280E-5	20.795693
2157.541783	-2.994200	3.285000	-9.835000	27.070675	8.644984E-5	20.842701
2158.542801	-3.014000	3.284100	-9.896400	27.122884	8.380965E-5	20.836888
2159.542127	-2.996800	3.283900	-9.840100	27.140977	8.427168E-5	20.818575
2160.542669	-3.001300	3.283400	-9.852900	27.144148	8.453570E-5	20.846420
2161.545649	-2.991300	3.283500	-9.819600	27.085573	8.509674E-5	20.825916
2162.543494	-2.973400	3.283700	-9.763000	27.074233	8.196151E-5	20.823520
2163.543805	-2.990700	3.281700	-9.813100	27.058668	8.278657E-5	20.819246
2164.543724	-2.994200	3.281200	-9.823700	27.039858	8.338062E-5	20.835890
2165.542789	-3.002800	3.281200	-9.851900	27.080803	8.314960E-5	20.827282
2166.543662	-2.999900	3.281400	-9.842900	27.151146	8.404067E-5	20.831174
2167.543882	-2.993800	3.281100	-9.821900	27.185934	8.324861E-5	20.832972
2168.545555	-3.023500	3.279700	-9.915100	27.134677	8.206052E-5	20.855860
2169.543581	-3.006200	3.278800	-9.856000	27.147399	8.143348E-5	20.850638
2170.543481	-3.010600	3.278800	-9.870400	27.168320	8.163149E-5	20.841334
2171.543993	-2.996800	3.280200	-9.829200	27.164500	8.285258E-5	20.838440
2172.548526	-3.005200	3.277700	-9.848500	27.196507	8.199452E-5	20.833649
2173.544522	-3.024800	3.278400	-9.915000	27.220525	8.149948E-5	20.838366
2174.545574	-3.009100	3.276800	-9.859200	27.243403	8.159849E-5	20.844309
2175.545403	-2.992900	3.277500	-9.808400	27.248491	8.093844E-5	20.841365
2176.549486	-2.993400	3.276300	-9.806600	27.237722	8.136747E-5	20.840965
2177.547425	-3.023300	3.276300	-9.904600	27.180357	8.093844E-5	20.847750
2178.546078	-2.997100	3.275800	-9.816700	27.145373	7.796822E-5	20.841962
2179.546216	-3.006900	3.276900	-9.852200	27.107340	7.823224E-5	20.828841
2180.547572	-2.998300	3.274900	-9.817800	27.099472	7.869428E-5	20.859807
2181.548359	-3.039500	3.273700	-9.949800	27.153283	7.925532E-5	20.850392
2182.548494	-2.997500	3.273400	-9.811000	27.111736	7.767120E-5	20.861236
2183.552222	-3.000700	3.274500	-9.825000	27.151184	8.047641E-5	20.835005
2184.550225	-3.011800	3.272600	-9.854900	27.131384	7.796822E-5	20.831686
2185.550645	-3.004200	3.274400	-9.836600	27.126075	7.816624E-5	20.870916
2186.555872	-3.003600	3.272000	-9.827100	27.088212	7.816624E-5	20.842794
2187.552669	-3.031000	3.270500	-9.912400	27.047813	7.427195E-5	20.846735
2188.558256	-3.007600	3.271200	-9.837500	27.116524	7.651612E-5	20.840448
2189.552666	-2.975300	3.272300	-9.735600	27.190962	7.763820E-5	20.841347
2190.553369	-2.999800	3.270900	-9.810500	27.246710	7.453597E-5	20.841470
2191.552934	-3.009300	3.269300	-9.837100	27.274472	7.744018E-5	20.838102
2192.551098	-2.985800	3.270800	-9.765000	27.282608	7.806723E-5	20.855294
2193.553685	-2.988100	3.270700	-9.772700	27.243085	7.664813E-5	20.825971
2194.552298	-2.978600	3.270700	-9.741400	27.205380	7.681314E-5	20.847788
2195.555724	-2.976800	3.270600	-9.735100	27.147762	7.456897E-5	20.829666
2196.553739	-3.004500	3.268000	-9.817700	27.180315	7.443696E-5	20.825898
2197.552415	-3.013100	3.267600	-9.844000	27.206770	7.734118E-5	20.824531
2198.553431	-3.003600	3.267500	-9.813700	27.257202	7.295185E-5	20.815516
2199.555637	-3.009700	3.268800	-9.837200	27.278568	7.387592E-5	20.817567
2200.552883	-2.995900	3.268100	-9.789900	27.262468	7.235781E-5	20.826976
2201.552233	-3.004400	3.266800	-9.813500	27.255862	7.235781E-5	20.815115
2202.554205	-2.992200	3.266600	-9.773200	27.192474	7.281985E-5	20.823429
2203.553916	-3.012800	3.265900	-9.838600	27.147989	7.509701E-5	20.835584
2204.556180	-3.010300	3.264500	-9.826200	27.159254	7.334788E-5	20.824630
2205.553726	-3.001800	3.265900	-9.803100	27.120425	7.371091E-5	20.816397
2206.554019	-3.020400	3.264100	-9.858200	27.200243	7.483299E-5	20.807062
2207.555486	-2.975500	3.264800	-9.712900	27.180799	7.291885E-5	20.825911
2208.554838	-2.998800	3.264100	-9.786600	27.147897	7.417294E-5	20.837389
2209.559014	-2.996500	3.264200	-9.780600	27.154497	7.176377E-5	20.820794
2210.557794	-2.990000	3.264300	-9.759600	27.195658	7.314987E-5	20.819519
2211.556745	-3.035100	3.260600	-9.895500	27.159236	7.281985E-5	20.830775
2212.556714	-3.003300	3.263000	-9.798400	27.176703	7.182977E-5	20.816102
2213.557120	-2.999700	3.263000	-9.786800	27.163853	7.156575E-5	20.829729
2214.557218	-2.993600	3.261300	-9.760800	27.231314	7.288585E-5	20.806071
2215.561748	-3.001900	3.262500	-9.792900	27.222877	7.404093E-5	20.831724
2216.557610	-2.992900	3.260200	-9.756000	27.202264	7.275384E-5	20.802931
2217.558276	-3.000500	3.261800	-9.785600	27.236205	7.182977E-5	20.797241
2218.561069	-2.996000	3.260500	-9.767700	27.226624	7.126873E-5	20.814156
2219.559530	-2.973400	3.261300	-9.695700	27.269552	7.004764E-5	20.796169
2220.565565	-3.025400	3.258300	-9.856900	27.357997	7.219280E-5	20.809273
2221.562081	-3.025400	3.257700	-9.855500	27.371763	7.169776E-5	20.786613
2222.561330	-3.015200	3.259000	-9.826500	27.433695	7.107072E-5	20.796760
2223.562582	-3.028000	3.257700	-9.863000	27.435899	7.064169E-5	20.807985
2224.561852	-3.004400	3.259200	-9.791000	27.382297	6.796849E-5	20.804322
2225.561985	-3.008100	3.256900	-9.796800	27.329158	6.714343E-5	20.807764
2226.564905	-2.992800	3.258400	-9.750400	27.390285	7.146675E-5	20.798133
2227.561771	-2.992200	3.256600	-9.743500	27.357934	6.942060E-5	20.808263
2228.561206	-3.015000	3.255200	-9.813200	27.351765	7.001464E-5	20.805849
2229.567124	-3.017000	3.254400	-9.817400	27.378624	6.915658E-5	20.801101
2230.563939	-3.016500	3.256100	-9.821200	27.407424	6.618636E-5	20.789296
2231.566970	-3.018700	3.255400	-9.826000	27.390058	6.803450E-5	20.805966
2232.565999	-3.015900	3.254900	-9.815400	27.376910	6.645038E-5	20.805541
2233.566401	-2.998700	3.254600	-9.758800	27.374627	6.697842E-5	20.797080
2234.567520	-2.982300	3.253300	-9.701400	27.333945	6.793549E-5	20.792665
2235.567315	-3.012800	3.252300	-9.797700	27.345104	6.720943E-5	20.795355
2236.570298	-3.000700	3.252300	-9.758500	27.383062	6.625236E-5	20.806988
2237.568982	-3.003600	3.251500	-9.765600	27.391913	6.879355E-5	20.776537
2238.574064	-2.983900	3.252000	-9.702500	27.394276	6.720943E-5	20.784130
2239.569845	-3.000900	3.251600	-9.757100	27.385076	6.648338E-5	20.777246
2240.572137	-3.012000	3.251700	-9.793300	27.418631	6.631837E-5	20.789191
2241.575720	-3.035100	3.251500	-9.867700	27.382119	6.470125E-5	20.797979
2242.573248	-3.012700	3.251000	-9.793300	27.339821	6.344716E-5	20.811378
2243.571877	-3.024500	3.248600	-9.824300	27.413031	6.645038E-5	20.792566
2244.571613	-3.004800	3.248600	-9.760800	27.467200	6.684641E-5	20.774991
2245.573984	-3.001700	3.249600	-9.753200	27.508177	6.730844E-5	20.799149
2246.573216	-3.036400	3.246600	-9.857200	27.468914	6.612035E-5	20.780035
2247.579244	-2.969300	3.249000	-9.646600	27.410650	6.674740E-5	20.802499
2248.573711	-2.975600	3.246800	-9.659500	27.348201	6.450324E-5	20.795152
2249.573739	-2.984800	3.249100	-9.696100	27.334311	6.598835E-5	20.788292
2250.574433	-3.012100	3.247600	-9.780100	27.301916	6.602135E-5	20.775145
2251.574979	-2.989200	3.247500	-9.706400	27.327143	6.371118E-5	20.800522
2252.573755	-2.989500	3.246500	-9.705000	27.374718	6.420621E-5	20.779154
2253.582020	-3.001400	3.246300	-9.742900	27.373164	6.361217E-5	20.790392
2254.575590	-3.014300	3.245100	-9.780500	27.446365	6.414021E-5	20.807609
2255.576090	-3.014300	3.245500	-9.782500	27.460504	6.417321E-5	20.789592
2256.582217	-3.008100	3.246600	-9.765100	27.450802	6.252309E-5	20.793582
2257.575366	-2.988600	3.245000	-9.697000	27.462034	6.268810E-5	20.777380
2258.580314	-2.987500	3.244200	-9.690800	27.473578	6.476726E-5	20.783779
2259.575264	-2.998600	3.243100	-9.723600	27.390670	6.130200E-5	20.784295
2260.576528	-3.004300	3.241600	-9.738000	27.357236	6.245709E-5	20.782430
2261.579235	-2.996600	3.243700	-9.718700	27.395806	6.087297E-5	20.764806
2262.577913	-3.013900	3.241200	-9.767500	27.348427	6.080697E-5	20.787793
2263.578507	-3.006400	3.243500	-9.749700	27.372484	5.998191E-5	20.779751
2264.577057	-3.002600	3.240700	-9.729100	27.390946	6.140101E-5	20.781728
2265.577795	-3.003000	3.240900	-9.731900	27.368744	6.090597E-5	20.790688
2266.577756	-3.009700	3.239800	-9.749900	27.450405	5.971789E-5	20.781802
2267.578410	-2.994400	3.240500	-9.702500	27.436921	6.064195E-5	20.789100
2268.579020	-2.995400	3.238100	-9.698800	27.474545	6.130200E-5	20.777165
2269.581363	-2.997600	3.239100	-9.708700	27.445153	6.126900E-5	20.777941
2270.583167	-2.983900	3.239100	-9.664200	27.442106	6.031193E-5	20.779142
2271.579950	-3.004100	3.238200	-9.727600	27.466491	5.942086E-5	20.769062
2272.583742	-3.019700	3.238000	-9.776400	27.543560	5.978389E-5	20.776901
2273.580301	-3.029500	3.238000	-9.808400	27.513919	5.879382E-5	20.771260
2274.582709	-3.020400	3.236300	-9.774300	27.523394	5.938786E-5	20.768939
2275.580428	-3.031000	3.235300	-9.804800	27.494799	5.981689E-5	20.758187
2276.580285	-3.001700	3.236700	-9.714400	27.510156	5.856280E-5	20.761310
2277.581988	-2.978500	3.236000	-9.637800	27.543316	6.021292E-5	20.776181
2278.580444	-2.991000	3.236400	-9.678600	27.552741	5.773774E-5	20.781871
2279.580034	-2.983400	3.234900	-9.649700	27.500455	5.654965E-5	20.772412
2280.581713	-3.004200	3.233800	-9.713600	27.533126	5.717670E-5	20.756445
2281.581346	-2.993300	3.234400	-9.681200	27.557380	5.612062E-5	20.769469
2282.579841	-2.992500	3.233500	-9.675300	27.479969	5.783675E-5	20.764604
2283.583570	-2.981200	3.233600	-9.638900	27.486298	5.664866E-5	20.759592
2284.580652	-2.999600	3.231300	-9.691600	27.453357	5.588961E-5	20.768650
2285.582544	-3.006700	3.232400	-9.717900	27.430685	5.763873E-5	20.759118
2286.580437	-2.999000	3.231600	-9.690300	27.424418	5.499854E-5	20.774150
2287.580887	-3.034000	3.229600	-9.797900	27.410677	5.562559E-5	20.767912
2288.581336	-3.004800	3.232100	-9.711400	27.374011	5.711069E-5	20.763269
2289.579822	-2.997900	3.230700	-9.684400	27.391450	5.387646E-5	20.744302
2290.584645	-2.987700	3.228800	-9.646300	27.466535	5.460251E-5	20.754882
2291.581040	-3.012400	3.228800	-9.725800	27.514282	5.546057E-5	20.769254
2292.581041	-2.986700	3.229800	-9.645500	27.574658	5.753973E-5	20.755559
2293.583419	-3.000000	3.228200	-9.683900	27.592963	5.598861E-5	20.755485
2294.580994	-3.008500	3.227800	-9.710200	27.590743	5.532856E-5	20.769847
2295.585728	-2.980700	3.229800	-9.626200	27.584586	5.526256E-5	20.755591
2296.582704	-2.979800	3.227100	-9.614900	27.575216	5.493254E-5	20.767501
2297.580777	-3.001000	3.226200	-9.681000	27.554255	5.384346E-5	20.759686
2298.581694	-3.000100	3.226300	-9.677800	27.586184	5.460251E-5	20.754828
2299.583241	-3.002800	3.225400	-9.684100	27.601710	5.394246E-5	20.761916
2300.581316	-2.992600	3.224800	-9.650000	27.568748	5.357944E-5	20.767156
2301.588924	-2.988200	3.227000	-9.641800	27.605162	5.298539E-5	20.758277
2302.584890	-2.988700	3.225700	-9.639800	27.625272	5.150028E-5	20.754803
2303.584489	-3.008500	3.224200	-9.698900	27.614562	5.585660E-5	20.767261
2304.587126	-3.027800	3.222100	-9.755100	27.608988	4.971815E-5	20.744582
2305.583387	-3.027000	3.222700	-9.754700	27.629746	5.044421E-5	20.750771
2306.587550	-2.989900	3.222600	-9.634400	27.600726	5.150028E-5	20.772779
2307.585740	-2.977400	3.222600	-9.593900	27.590885	5.120326E-5	20.770464
2308.585482	-2.986200	3.223000	-9.623900	27.598505	5.150028E-5	20.741620
2309.584587	-2.991800	3.220300	-9.633900	27.578193	5.037820E-5	20.756745
2310.585739	-2.986400	3.221700	-9.620600	27.569459	4.971815E-5	20.751750
2311.583195	-3.002000	3.219400	-9.662600	27.581491	4.800203E-5	20.754848
2312.586123	-2.996600	3.219900	-9.648100	27.620335	4.965215E-5	20.745094
2313.583836	-3.023800	3.219400	-9.734200	27.596522	4.952014E-5	20.749583
2314.583158	-2.996600	3.220200	-9.649000	27.567703	5.064222E-5	20.736706
2315.584168	-3.008200	3.219600	-9.684400	27.568855	5.110425E-5	20.735494
2316.588082	-3.021600	3.218400	-9.723900	27.647990	5.100525E-5	20.733566
2317.586773	-3.010800	3.218100	-9.688500	27.662751	5.027919E-5	20.739411
2318.585419	-2.980900	3.217600	-9.590300	27.685418	4.806803E-5	20.741831
2319.585826	-3.007900	3.215800	-9.672000	27.636786	5.057622E-5	20.728929
2320.587426	-2.994800	3.217400	-9.634400	27.604002	4.833205E-5	20.755213
2321.585669	-3.001900	3.216400	-9.654500	27.650255	4.859607E-5	20.757183
2322.593337	-3.002400	3.215300	-9.652500	27.597405	4.704496E-5	20.732926
2323.587404	-2.989500	3.214600	-9.609300	27.585330	4.796902E-5	20.753495
2324.587276	-3.004600	3.215000	-9.658900	27.614896	4.793602E-5	20.744363
2325.586549	-3.027200	3.213500	-9.726600	27.618048	4.862907E-5	20.741844
2326.587768	-2.992000	3.214200	-9.615300	27.689396	4.935513E-5	20.735877
2327.586413	-3.004200	3.213800	-9.653900	27.727513	4.839806E-5	20.736776
2328.592244	-3.010300	3.211500	-9.666900	27.773248	4.965215E-5	20.734436
2329.588068	-3.014500	3.211900	-9.681500	27.755190	4.460278E-5	20.734756
2330.588383	-3.009000	3.212200	-9.664500	27.769496	4.753999E-5	20.728764
2331.589161	-3.016000	3.212300	-9.687500	27.782664	4.569186E-5	20.720678
2332.593798	-3.014800	3.212000	-9.683400	27.779513	4.526283E-5	20.742164
2333.592661	-3.004700	3.211400	-9.648400	27.706261	4.737498E-5	20.734356
2334.588505	-3.013400	3.209700	-9.671600	27.680101	4.381072E-5	20.738851
2335.590377	-2.997400	3.209700	-9.618900	27.567276	4.565886E-5	20.727742
2336.589205	-3.002100	3.208700	-9.632300	27.619957	4.615389E-5	20.745662
2337.588629	-3.020500	3.210100	-9.694900	27.644558	4.532883E-5	20.731061
2338.589875	-3.012800	3.208000	-9.664600	27.609939	4.476779E-5	20.734633
2339.589008	-2.994700	3.208200	-9.607300	27.614854	4.572486E-5	20.730095
2340.589395	-3.012200	3.205800	-9.655800	27.639504	4.707796E-5	20.745416
2341.588196	-3.016400	3.206000	-9.670000	27.598734	4.285365E-5	20.727626
2342.588080	-2.977700	3.206500	-9.546800	27.643354	4.311767E-5	20.725581
2343.589915	-3.009100	3.206700	-9.648400	27.723806	4.374472E-5	20.722139
2344.590431	-2.987200	3.204800	-9.572700	27.781006	4.598888E-5	20.734658
2345.589762	-2.999700	3.204500	-9.611600	27.843602	4.414074E-5	20.721314
2346.590395	-2.990500	3.203600	-9.579500	27.787463	4.447077E-5	20.740207
2347.590037	-2.999300	3.203000	-9.606200	27.791574	4.443777E-5	20.741026
2348.589779	-3.003400	3.201900	-9.614500	27.723586	4.509781E-5	20.724288
2349.593126	-3.002600	3.204900	-9.621900	27.670782	4.235861E-5	20.730896
2350.590405	-2.997400	3.201400	-9.594500	27.665078	4.285365E-5	20.716621
2351.590271	-3.002300	3.201500	-9.611000	27.676429	4.275464E-5	20.735156
2352.590322	-2.995300	3.201300	-9.587900	27.741533	4.275464E-5	20.725279
2353.589468	-3.001100	3.200400	-9.603400	27.760080	4.262263E-5	20.731142
2354.594840	-3.011500	3.200100	-9.636400	27.727642	4.288665E-5	20.725525
2355.592905	-2.979500	3.199400	-9.531800	27.739000	4.262263E-5	20.747861
2356.591458	-2.989000	3.199800	-9.563700	27.753875	4.305166E-5	20.718732
2357.590533	-3.012600	3.198300	-9.634300	27.722411	4.239162E-5	20.730692
2358.591342	-2.976800	3.200900	-9.528100	27.697138	4.021346E-5	20.740348
2359.595081	-2.982700	3.197700	-9.536800	27.679966	4.374472E-5	20.722593
2360.593426	-3.016300	3.196400	-9.640300	27.659931	4.041147E-5	20.720924
2361.591954	-2.999100	3.197700	-9.589000	27.647972	4.047748E-5	20.728806
2362.593602	-3.011200	3.196300	-9.622700	27.582876	4.120353E-5	20.721152
2363.593297	-3.011000	3.195700	-9.621800	27.639295	4.110452E-5	20.717703
2364.594170	-2.990400	3.195700	-9.556000	27.709375	4.047748E-5	20.718048
2365.595168	-3.022800	3.193900	-9.654400	27.750172	3.998244E-5	20.711212
2366.594002	-3.004900	3.193800	-9.595400	27.797588	4.199559E-5	20.712937
2367.594202	-3.009700	3.192300	-9.607200	27.844004	4.090651E-5	20.704648
2368.593853	-3.027600	3.193200	-9.666300	27.887298	3.981743E-5	20.728782
2369.594178	-3.018900	3.191900	-9.635600	27.939834	3.961941E-5	20.716225
2370.596376	-3.000400	3.191400	-9.574700	27.910406	3.961941E-5	20.712210
2371.593843	-2.991800	3.192600	-9.550000	27.854019	3.790329E-5	20.704771
2372.594804	-2.994900	3.190300	-9.554500	27.769514	3.938840E-5	20.712660
2373.594145	-2.999200	3.189000	-9.562900	27.784958	3.935539E-5	20.703071
2374.594766	-2.980000	3.189500	-9.504400	27.829276	3.701222E-5	20.697412
2375.596265	-3.023500	3.188600	-9.639300	27.863313	3.730924E-5	20.691838
2376.598886	-3.012300	3.188400	-9.603700	27.924337	3.836532E-5	20.707739
2377.594388	-2.996500	3.187200	-9.549800	28.012005	3.757326E-5	20.718694
2378.593301	-2.982000	3.187800	-9.504900	28.045822	3.688021E-5	20.708164
2379.593795	-2.999700	3.186900	-9.559300	28.081394	3.994944E-5	20.727377
2380.596250	-2.987600	3.187800	-9.523300	28.084318	3.790329E-5	20.729372
2381.595717	-2.973300	3.185700	-9.470600	28.064835	3.773827E-5	20.726829
2382.595464	-3.021200	3.184400	-9.619800	28.029507	3.641818E-5	20.708810
2383.597425	-3.002100	3.183600	-9.556100	27.937276	3.744125E-5	20.707012
2384.598143	-2.994900	3.182800	-9.530600	27.987063	3.684721E-5	20.687896
2385.603424	-2.978700	3.181300	-9.474900	27.953170	3.661619E-5	20.717321
2386.599300	-2.976100	3.182200	-9.470100	27.916004	3.655019E-5	20.719267
2387.599798	-2.989300	3.182000	-9.511100	27.872320	3.526309E-5	20.701852
2388.599597	-2.994000	3.182100	-9.525500	27.837335	3.414101E-5	20.721170
2389.600758	-2.992200	3.180300	-9.514400	27.816905	3.499907E-5	20.710566
2390.602270	-3.037900	3.179400	-9.657700	27.816482	3.625317E-5	20.716305
2391.598853	-3.012600	3.178900	-9.575900	27.844230	3.559312E-5	20.712937
2392.599403	-2.994300	3.178300	-9.516500	27.800886	3.414101E-5	20.716256
2393.597528	-2.982200	3.179200	-9.480700	27.853011	3.311794E-5	20.722248
2394.599895	-2.997900	3.177400	-9.524900	27.853653	3.473505E-5	20.708195
2395.601046	-2.989800	3.176400	-9.496200	27.879522	3.291992E-5	20.729965
2396.600613	-2.987500	3.176100	-9.488400	27.938703	3.542810E-5	20.705128
2397.597610	-2.982500	3.175700	-9.470300	27.944533	3.546111E-5	20.713843
2398.599546	-3.000400	3.174700	-9.524600	27.924374	3.298593E-5	20.698767
2399.603725	-3.018400	3.173600	-9.578500	27.913619	3.450404E-5	20.701219
2400.600799	-2.989500	3.173700	-9.485900	27.887133	3.585714E-5	20.723875
2401.606202	-2.995600	3.172300	-9.502100	27.841759	3.367898E-5	20.705708
2402.604345	-2.987400	3.172000	-9.475100	27.883769	3.252389E-5	20.716695
2403.602293	-3.013500	3.170800	-9.554600	27.893215	3.278791E-5	20.701545
2404.606549	-2.975400	3.170600	-9.432800	27.941145	3.265590E-5	20.708535
2405.603340	-3.016300	3.168500	-9.556000	27.975460	3.219387E-5	20.694710
2406.607191	-3.012400	3.168200	-9.543300	27.953399	3.192985E-5	20.717551
2407.605637	-2.970100	3.169500	-9.413200	27.917346	3.222687E-5	20.713031
2408.605196	-3.030200	3.167100	-9.596200	27.900760	3.041174E-5	20.702500
2409.607955	-3.044400	3.166100	-9.638400	27.925777	3.186384E-5	20.702550
2410.606222	-3.013600	3.166400	-9.541700	27.954910	3.133580E-5	20.690147
2411.608341	-2.961100	3.167500	-9.378300	27.996542	3.107178E-5	20.718303
2412.613234	-3.003800	3.164400	-9.504700	28.032813	3.014772E-5	20.718777
2413.611237	-3.016600	3.164800	-9.545900	28.028292	3.163283E-5	20.712329
2414.610991	-2.982900	3.165200	-9.440900	27.979528	2.975169E-5	20.707815
2415.611998	-3.009100	3.162300	-9.514900	27.966596	3.166583E-5	20.703807
2416.611795	-3.007400	3.162800	-9.511500	28.026787	3.004871E-5	20.728833
2417.614679	-3.013800	3.161100	-9.525800	28.004704	3.163283E-5	20.708025
2418.613418	-2.984700	3.161900	-9.436800	28.034446	2.889362E-5	20.703350
2419.613254	-3.003000	3.160500	-9.489900	28.094267	3.064275E-5	20.707618
2420.613366	-2.972600	3.160700	-9.394700	28.050901	2.971869E-5	20.726080
2421.614600	-2.985700	3.158800	-9.429700	28.006330	2.915764E-5	20.715827
2422.616472	-3.011600	3.157000	-9.507000	27.978269	2.780454E-5	20.707969
2423.616178	-3.005300	3.157100	-9.487200	28.015182	2.760653E-5	20.705296
2424.614650	-2.970100	3.156900	-9.375700	28.026512	2.846459E-5	20.708166
2425.615043	-2.998200	3.154600	-9.457000	28.028898	2.661646E-5	20.724320
2426.615141	-2.972800	3.157200	-9.384600	28.061100	3.024672E-5	20.713586
2427.614940	-3.017300	3.154700	-9.517100	28.042429	3.004871E-5	20.721819
2428.616543	-2.978200	3.155500	-9.396100	28.006777	2.843159E-5	20.703948
2429.618986	-2.986900	3.153500	-9.417900	28.001082	2.793655E-5	20.692524
2430.616362	-2.977300	3.153300	-9.387700	28.002171	2.747452E-5	20.704527
2431.619135	-2.999700	3.151700	-9.453000	27.988754	2.773854E-5	20.732750
2432.617745	-3.001900	3.150800	-9.457400	28.060727	2.658346E-5	20.722694
2433.619732	-2.993100	3.149700	-9.426800	28.131599	2.707849E-5	20.723863
2434.616514	-3.020300	3.148900	-9.509700	28.158874	2.767254E-5	20.698689
2435.620262	-3.022600	3.148100	-9.514300	28.178582	2.678147E-5	20.729912
2436.617733	-3.007500	3.146700	-9.462500	28.101039	2.717750E-5	20.703055
2437.616101	-3.005900	3.147600	-9.460500	28.036508	2.384425E-5	20.687407
2438.619055	-3.029900	3.145100	-9.527200	27.996396	2.513135E-5	20.741390
2439.616790	-3.002900	3.146100	-9.446800	28.065615	2.552738E-5	20.715286
2440.616534	-3.003800	3.144400	-9.444400	28.058629	2.549438E-5	20.709676
2441.621909	-3.005900	3.144400	-9.449900	28.019857	2.460331E-5	20.721383
2442.618474	-3.003400	3.143600	-9.440600	28.071371	2.523036E-5	20.713494
2443.622396	-3.015100	3.140700	-9.468500	28.134689	2.397626E-5	20.717965
2444.619368	-2.992600	3.141200	-9.400000	28.156135	2.430629E-5	20.729124
2445.619864	-2.989800	3.139400	-9.385100	28.093192	2.318421E-5	20.728822
2446.619812	-3.013800	3.138700	-9.458400	28.072222	2.371224E-5	20.734266
2447.620398	-3.009900	3.137900	-9.443500	28.116125	2.777154E-5	20.705440
2448.620790	-3.018200	3.137400	-9.468300	28.169427	2.529636E-5	20.725436
2449.620040	-3.008400	3.137100	-9.436700	28.230140	2.341522E-5	20.734877
2450.620951	-3.030300	3.134700	-9.497100	28.204701	2.546137E-5	20.734396
2451.621742	-3.026700	3.134300	-9.486000	28.215840	2.529636E-5	20.729489
2452.621319	-2.998000	3.135000	-9.397000	28.206121	2.394326E-5	20.722573
2453.623415	-2.997100	3.134100	-9.391800	28.209191	2.064302E-5	20.729907
2454.623913	-3.003400	3.133100	-9.409000	28.191747	2.301919E-5	20.741744
2455.622574	-2.998400	3.131900	-9.389800	28.119833	2.417428E-5	20.725769
2456.623128	-3.001300	3.129300	-9.390900	28.085358	2.334922E-5	20.753654
2457.624833	-2.990100	3.129900	-9.357900	28.109728	2.371224E-5	20.735513
2458.623013	-2.990800	3.130800	-9.362100	28.131897	2.354723E-5	20.717051
2459.625859	-2.976900	3.129200	-9.314900	28.063153	2.140207E-5	20.734146
2460.621832	-2.981600	3.128000	-9.325300	28.048251	2.265617E-5	20.730525
2461.622986	-2.987900	3.126600	-9.341200	28.078697	2.133607E-5	20.743630
2462.622091	-3.020500	3.124900	-9.437000	28.157086	2.176510E-5	20.737195
2463.622592	-3.009800	3.124400	-9.402900	28.124165	2.249115E-5	20.736296
2464.622853	-3.007700	3.122600	-9.390300	28.091868	2.308520E-5	20.715161
2465.626942	-3.017600	3.122100	-9.419800	28.082803	2.348123E-5	20.706984
2466.622963	-2.991700	3.122000	-9.339200	28.039566	2.110505E-5	20.730791
2467.623354	-2.996300	3.121800	-9.352800	28.062329	2.120406E-5	20.755128
2468.626058	-3.006000	3.119800	-9.377000	28.063369	2.173210E-5	20.747640
2469.623120	-2.983700	3.120000	-9.308400	28.116301	2.199612E-5	20.719368
2470.628205	-3.013900	3.118300	-9.397300	28.194631	1.985096E-5	20.734216
2471.624675	-3.011600	3.116800	-9.385500	28.195085	2.212813E-5	20.736569
2472.624895	-2.987400	3.117900	-9.313100	28.211764	2.222714E-5	20.727756
2473.624569	-2.997900	3.115300	-9.338700	28.242456	2.090704E-5	20.740640
2474.625393	-2.993700	3.114700	-9.323800	28.212810	2.077503E-5	20.725965
2475.626707	-2.978900	3.115400	-9.279100	28.210609	2.120406E-5	20.734180
2476.624728	-3.001600	3.113500	-9.344400	28.186443	1.938893E-5	20.743990
2477.624255	-3.002800	3.112300	-9.345400	28.129056	2.018098E-5	20.745961
2478.626910	-3.006300	3.110100	-9.349300	28.054628	1.889389E-5	20.743109
2479.625848	-3.010500	3.110300	-9.362400	28.101566	1.892689E-5	20.740098
2480.625865	-3.022500	3.108700	-9.394700	28.164827	1.866287E-5	20.718434
2481.628904	-2.988700	3.109200	-9.290700	28.195831	2.018098E-5	20.727837
2482.629573	-3.002000	3.106100	-9.323800	28.243796	1.978496E-5	20.746730
2483.628226	-3.004700	3.106400	-9.332200	28.255154	2.123706E-5	20.740148
2484.632844	-3.010700	3.105700	-9.349400	28.297287	2.024699E-5	20.735627
2485.632590	-3.001600	3.105000	-9.319200	28.242641	1.853086E-5	20.733238
2486.631713	-3.018000	3.102200	-9.360900	28.182277	1.919091E-5	20.736951
2487.629517	-3.000000	3.103100	-9.308400	28.157780	2.061002E-5	20.720348
2488.628958	-3.006700	3.101000	-9.322900	28.201190	1.757379E-5	20.738448
2489.632157	-2.980800	3.101000	-9.243100	28.218493	1.912491E-5	20.747808
2490.629685	-2.974600	3.099100	-9.217900	28.175806	1.843186E-5	20.719055
2491.631877	-3.020000	3.098500	-9.357000	28.196375	1.968595E-5	20.756835
2492.631479	-2.991400	3.098500	-9.267300	28.199623	2.113806E-5	20.743035
2493.633407	-2.995300	3.097600	-9.276800	28.256242	1.899290E-5	20.750727
2494.640464	-3.002300	3.096200	-9.295300	28.296272	1.763980E-5	20.748830
2495.636421	-3.015000	3.093000	-9.324500	28.357661	1.773881E-5	20.754693
2496.639686	-3.001000	3.092100	-9.278200	28.394740	1.948793E-5	20.757415
2497.637116	-2.988700	3.091900	-9.240000	28.382326	1.777181E-5	20.754397
2498.634124	-3.006600	3.090500	-9.291400	28.381977	1.773881E-5	20.758314
2499.633518	-3.004900	3.091200	-9.288800	28.356249	1.770580E-5	20.749002
2500.633629	-2.995200	3.088400	-9.250100	28.421060	1.744178E-5	20.750253
2501.637411	-2.981400	3.090300	-9.212200	28.433993	1.806883E-5	20.752371
2502.635778	-2.972500	3.087800	-9.177100	28.469760	1.625370E-5	20.747137
2503.634623	-2.981000	3.086400	-9.199500	28.446413	1.816784E-5	20.753498
2504.634746	-2.995000	3.085800	-9.241000	28.394049	1.806883E-5	20.771892
2505.635997	-3.035200	3.083900	-9.359300	28.394569	1.734278E-5	20.750604
2506.639266	-2.999400	3.081700	-9.241900	28.302945	1.440556E-5	20.758868
2507.640572	-3.000900	3.082500	-9.249100	28.276800	1.711176E-5	20.763838
2508.635899	-2.980400	3.080200	-9.179300	28.296083	1.483459E-5	20.775194
2509.637109	-2.977800	3.080300	-9.172300	28.290432	1.529663E-5	20.769978
2510.639844	-3.008000	3.078800	-9.260500	28.337077	1.622069E-5	20.747717
2511.637581	-2.993700	3.078200	-9.214800	28.340649	1.707876E-5	20.747994
2512.641485	-2.994900	3.077100	-9.214900	28.326797	1.919091E-5	20.773402
2513.638490	-3.010300	3.074500	-9.254400	28.310218	1.463658E-5	20.756234
2514.636921	-2.998900	3.073800	-9.217000	28.267981	1.572566E-5	20.764442
2515.638918	-3.012300	3.071700	-9.252000	28.219700	1.691374E-5	20.772731
2516.639808	-3.016300	3.070300	-9.259900	28.222476	1.572566E-5	20.769363
2517.640509	-3.012600	3.070200	-9.247800	28.232213	1.631970E-5	20.753087
2518.637903	-3.015100	3.067500	-9.248000	28.317208	1.549464E-5	20.759479
2519.639716	-3.029300	3.069100	-9.297400	28.310769	1.678173E-5	20.761530
2520.642503	-3.023900	3.066100	-9.270600	28.331042	1.407554E-5	20.782418
2521.638233	-3.002200	3.065400	-9.202100	28.313521	1.655072E-5	20.774733
2522.639360	-3.016700	3.064300	-9.242300	28.351616	1.503261E-5	20.770891
2523.642598	-2.989900	3.063200	-9.157800	28.391471	1.387752E-5	20.768348
2524.640727	-2.987400	3.062500	-9.148100	28.469910	1.615469E-5	20.764832
2525.643713	-2.994200	3.062300	-9.167700	28.538351	1.661672E-5	20.758840
2526.644198	-3.013800	3.060100	-9.221200	28.559813	1.387752E-5	20.772394
2527.639886	-2.992600	3.058600	-9.153200	28.561404	1.562665E-5	20.770676
2528.642081	-3.015900	3.057100	-9.219100	28.533113	1.367951E-5	20.773953
2529.640518	-2.986700	3.055900	-9.125500	28.466634	1.572566E-5	20.779551
2530.639571	-2.998900	3.055700	-9.163100	28.482465	1.598968E-5	20.776527
2531.639710	-3.007800	3.054200	-9.186300	28.474143	1.625370E-5	20.777156
2532.642681	-2.994200	3.053100	-9.140700	28.501476	1.631970E-5	20.778603
2533.641696	-3.002300	3.050400	-9.156100	28.619607	1.529663E-5	20.790415
2534.640846	-3.004900	3.050800	-9.166300	28.602042	1.407554E-5	20.773672
2535.648317	-2.988600	3.049300	-9.112600	28.627886	1.440556E-5	20.783106
2536.639468	-3.002600	3.048300	-9.152500	28.580490	1.490060E-5	20.760974
2537.639601	-2.998600	3.046500	-9.133600	28.523026	1.321747E-5	20.779442
2538.640048	-3.002800	3.045900	-9.145400	28.547938	1.268943E-5	20.783667
2539.641880	-3.017900	3.043900	-9.185400	28.518869	1.341549E-5	20.775729
2540.640491	-3.030300	3.042600	-9.219000	28.493022	1.532963E-5	20.793323
2541.640039	-3.015700	3.041200	-9.169600	28.542465	1.516462E-5	20.782898
2542.646237	-2.995200	3.039700	-9.104300	28.483319	1.648471E-5	20.783077
2543.639871	-2.991500	3.039100	-9.090600	28.525150	1.569265E-5	20.784426
2544.642278	-2.974100	3.038200	-9.035500	28.581825	1.354750E-5	20.781760
2545.648409	-3.024400	3.035700	-9.180500	28.595289	1.417454E-5	20.779673
2546.639805	-3.011100	3.035100	-9.138400	28.581434	1.394353E-5	20.799858
2547.640944	-3.013900	3.033500	-9.141600	28.597295	1.275544E-5	20.766045
2548.640481	-3.000900	3.033700	-9.102900	28.625444	1.344849E-5	20.776379
2549.639873	-2.994400	3.032600	-9.080100	28.605898	1.417454E-5	20.788461
2550.643422	-3.003300	3.031500	-9.103200	28.579638	1.414154E-5	20.784299
2551.640945	-2.968300	3.030500	-8.994700	28.603892	1.404253E-5	20.778855
2552.641509	-2.982000	3.028800	-9.031600	28.607634	1.473558E-5	20.796848
2553.644525	-3.018600	3.026800	-9.136200	28.585751	1.503261E-5	20.777654
2554.641345	-2.992500	3.025000	-9.050000	28.576893	1.113832E-5	20.788173
2555.647168	-2.996500	3.023600	-9.058900	28.553475	1.463658E-5	20.791615
2556.643785	-3.011700	3.022000	-9.101000	28.613364	1.433956E-5	20.793610
2557.644428	-2.999400	3.020300	-9.058800	28.594435	1.486759E-5	20.773597
2558.643117	-2.993200	3.021000	-9.041400	28.529212	1.463658E-5	20.780930
2559.645051	-2.986000	3.019300	-9.014500	28.487957	1.430655E-5	20.781584
2560.647136	-3.007600	3.016900	-9.072900	28.513235	1.193038E-5	20.789497
2561.645196	-2.992900	3.015400	-9.023900	28.597308	1.697975E-5	20.799250
2562.644620	-2.989600	3.014700	-9.011700	28.629499	1.397653E-5	20.791843
2563.645419	-3.042900	3.012000	-9.163600	28.656804	1.285445E-5	20.785679
2564.644954	-2.999600	3.012000	-9.033300	28.693004	1.668273E-5	20.798906
2565.646235	-2.984300	3.012000	-8.986900	28.641862	1.440556E-5	20.804768
2566.646958	-3.015200	3.008600	-9.070900	28.618793	1.499960E-5	20.783431
2567.647665	-2.991200	3.008300	-8.997400	28.641788	1.539563E-5	20.794737
2568.647878	-3.025100	3.006000	-9.093000	28.715990	1.810183E-5	20.802619
2569.650608	-3.010300	3.004800	-9.043900	28.788670	1.592367E-5	20.813240
2570.648506	-3.001400	3.003800	-9.013900	28.846669	1.417454E-5	20.815716
2571.652427	-2.979000	3.002300	-8.942600	28.792888	1.318447E-5	20.818438
2572.649481	-3.000900	3.001900	-9.006800	28.693339	1.443856E-5	20.817261
2573.650059	-2.998200	2.999500	-8.992200	28.571285	1.387752E-5	20.809552
2574.649436	-2.981100	2.997800	-8.935100	28.534360	1.334948E-5	20.825469
2575.651558	-3.008300	2.997400	-9.016400	28.502699	1.202939E-5	20.819189
2576.651283	-2.997100	2.994800	-8.974600	28.525324	1.400953E-5	20.803093
2577.654773	-3.013900	2.993700	-9.022100	28.566131	1.480159E-5	20.826646
2578.649525	-3.020300	2.991800	-9.034900	28.526827	1.245842E-5	20.810296
2579.649714	-3.024300	2.990500	-9.043500	28.529603	1.480159E-5	20.794600
2580.652478	-3.016800	2.988700	-9.015600	28.644899	1.410854E-5	20.823000
2581.650951	-2.998700	2.987400	-8.957500	28.656173	1.499960E-5	20.809225
2582.655722	-2.991600	2.986700	-8.934200	28.696285	1.245842E-5	20.820703
2583.651542	-2.983300	2.986800	-8.909800	28.756068	1.374551E-5	20.831134
2584.652678	-2.993200	2.984000	-8.931100	28.832347	1.410854E-5	20.836374
2585.650515	-3.016100	2.981600	-8.992300	28.885931	1.364650E-5	20.822076
2586.651882	-2.979700	2.982400	-8.885900	28.928704	1.628670E-5	20.828184
2587.655480	-2.981100	2.980300	-8.883800	28.853747	1.301946E-5	20.815733
2588.652774	-3.017800	2.978800	-8.988500	28.814729	1.750779E-5	20.816257
2589.654409	-3.018700	2.976700	-8.983600	28.842695	1.377851E-5	20.845850
2590.653450	-3.017600	2.974800	-8.975600	28.882751	1.391052E-5	20.823615
2591.653589	-2.980500	2.974800	-8.865600	28.899597	1.592367E-5	20.818301
2592.656958	-3.013900	2.972100	-8.957200	28.852353	1.539563E-5	20.822389
2593.655921	-3.006200	2.971000	-8.930700	28.774566	1.173236E-5	20.833171
2594.663674	-2.996200	2.969100	-8.894600	28.817864	1.470258E-5	20.855923
2595.655884	-2.985500	2.967500	-8.858600	28.805675	1.245842E-5	20.816145
2596.655734	-2.997500	2.966400	-8.890900	28.784395	1.305246E-5	20.832641
2597.656976	-3.003900	2.965500	-8.907300	28.739726	1.344849E-5	20.858294
2598.657483	-3.003100	2.963500	-8.898600	28.679415	1.318447E-5	20.825522
2599.657194	-2.980900	2.962300	-8.829300	28.653241	1.424055E-5	20.826660
2600.656997	-3.028100	2.960200	-8.962500	28.671381	1.259043E-5	20.839241
2601.658013	-3.029200	2.957100	-8.957100	28.686519	1.028026E-5	20.826513
2602.657191	-3.008800	2.958300	-8.899700	28.667242	1.351449E-5	20.829856
2603.660644	-2.995200	2.956700	-8.855400	28.702468	1.400953E-5	20.838784
2604.655769	-2.974900	2.954600	-8.788800	28.693915	1.457057E-5	20.851505
2605.656826	-2.995300	2.952800	-8.843600	28.757666	1.371251E-5	20.844597
2606.658033	-3.000700	2.951500	-8.855400	28.730340	1.136934E-5	20.844572
2607.657034	-2.977400	2.950100	-8.782800	28.795023	1.298646E-5	20.850459
2608.659053	-2.990400	2.949200	-8.818400	28.783800	1.404253E-5	20.844843
2609.662536	-2.997700	2.946100	-8.831000	28.775766	1.410854E-5	20.848605
2610.657286	-2.982800	2.945000	-8.783600	28.779061	1.292045E-5	20.850975
2611.659007	-3.002900	2.943300	-8.837500	28.794044	1.450457E-5	20.848050
2612.662154	-2.991900	2.941800	-8.801100	28.814228	1.565965E-5	20.843252
2613.662501	-3.005300	2.939400	-8.833100	28.868106	1.163336E-5	20.848689
2614.663181	-3.004800	2.939400	-8.831100	28.895649	1.582466E-5	20.855099
2615.661609	-3.002400	2.936800	-8.816300	28.911975	1.301946E-5	20.848788
2616.659801	-2.987700	2.935800	-8.770600	28.870575	1.440556E-5	20.853073
2617.669669	-2.974100	2.935300	-8.728800	28.745222	1.354750E-5	20.845339
2618.660816	-3.021700	2.932000	-8.858200	28.707857	1.268943E-5	20.884038
2619.660670	-3.015100	2.929700	-8.832600	28.696852	1.305246E-5	20.851145
2620.660884	-3.021900	2.927800	-8.846600	28.733740	1.219440E-5	20.863170
2621.664557	-2.988900	2.928100	-8.751200	28.745184	1.618769E-5	20.866636
2622.660158	-3.027800	2.924500	-8.854000	28.762668	1.473558E-5	20.861962
2623.662027	-2.986500	2.924900	-8.734300	28.810460	1.453757E-5	20.866482
2624.662265	-3.011800	2.921000	-8.797000	28.870774	1.334948E-5	20.831937
2625.664925	-3.009800	2.920800	-8.789800	28.919594	1.315147E-5	20.884910
2626.661518	-2.982400	2.919700	-8.705900	28.991123	1.301946E-5	20.857878
2627.660716	-3.002500	2.917300	-8.758800	28.959664	1.262343E-5	20.855107
2628.666738	-3.007700	2.916200	-8.770300	28.985897	1.476859E-5	20.868260
2629.662580	-3.023500	2.913000	-8.806200	29.037333	1.285445E-5	20.848013
2630.666658	-3.010100	2.910500	-8.760000	29.052863	1.318447E-5	20.847539
2631.663680	-2.965300	2.910600	-8.629600	28.996610	1.374551E-5	20.870044
2632.662269	-2.962900	2.909600	-8.619900	28.972480	1.361350E-5	20.878923
2633.664946	-3.011600	2.905900	-8.750100	28.962175	1.338248E-5	20.858585
2634.666099	-2.996500	2.904300	-8.701200	28.925563	1.196338E-5	20.884286
2635.667741	-3.018600	2.903000	-8.762000	28.924231	1.384452E-5	20.869194
2636.665490	-3.001500	2.901300	-8.707400	28.988548	1.229340E-5	20.873300
2637.665718	-3.040300	2.897500	-8.807900	28.970964	1.163336E-5	20.863172
2638.666496	-3.010400	2.897100	-8.720200	28.961569	1.275544E-5	20.857500
2639.666021	-2.993800	2.896300	-8.669700	28.979759	1.407554E-5	20.852593
2640.667374	-3.013100	2.895000	-8.722700	29.002819	1.143534E-5	20.890523
2641.670238	-3.034500	2.891200	-8.773000	28.956967	1.242541E-5	20.876096
2642.668144	-2.998700	2.891000	-8.668500	28.938270	1.334948E-5	20.856312
2643.668297	-2.989500	2.890300	-8.639700	28.913075	1.301946E-5	20.870758
2644.671509	-2.968800	2.888500	-8.574500	28.913473	1.173236E-5	20.871632
2645.670645	-2.970100	2.885500	-8.569400	28.953673	1.288745E-5	20.847648
2646.674604	-2.995300	2.882700	-8.633200	28.993585	1.562665E-5	20.848505
2647.670205	-3.003300	2.881100	-8.652000	29.071411	1.391052E-5	20.847261
2648.669011	-2.992300	2.879800	-8.616200	29.148779	1.209539E-5	20.851725
2649.669803	-2.997900	2.878500	-8.627900	29.117544	1.367951E-5	20.835900
2650.669841	-2.997900	2.875700	-8.619600	29.103288	1.305246E-5	20.843345
2651.670226	-2.990900	2.875000	-8.597900	29.134498	1.453757E-5	20.842552
2652.671721	-3.003400	2.872200	-8.625700	29.166446	1.070929E-5	20.849140
2653.670411	-2.997800	2.870500	-8.604200	29.171054	1.140234E-5	20.851413
2654.671378	-2.995600	2.870300	-8.597300	29.199910	1.067629E-5	20.834024
2655.671177	-3.013200	2.866500	-8.636600	29.215308	1.473558E-5	20.831049
2656.674158	-2.982300	2.864700	-8.541900	29.222470	1.334948E-5	20.849172
2657.673778	-3.013900	2.861800	-8.624600	29.235871	1.334948E-5	20.840391
2658.671630	-2.990900	2.861200	-8.556800	29.196916	1.143534E-5	20.839067
2659.678497	-2.998300	2.857400	-8.566400	29.229046	1.229340E-5	20.831144
2660.674971	-3.013100	2.856000	-8.603700	29.253464	1.433956E-5	20.828249
2661.672025	-2.983500	2.855600	-8.519100	29.194528	1.493360E-5	20.829549
2662.677283	-3.003500	2.852900	-8.567800	29.152308	1.166636E-5	20.833472
2663.672149	-3.003000	2.851800	-8.563600	29.116919	1.146834E-5	20.837641
2664.671410	-2.979000	2.848500	-8.485000	29.094461	1.427355E-5	20.846779
2665.672481	-3.011100	2.846300	-8.569500	29.083533	1.427355E-5	20.818226
2666.673811	-2.997900	2.845000	-8.527700	29.160143	1.334948E-5	20.825720
2667.678585	-2.987400	2.842300	-8.489800	29.225693	1.160035E-5	20.843411
2668.673642	-2.980000	2.840000	-8.462000	29.239069	1.397653E-5	20.827494
2669.674910	-3.008800	2.838300	-8.539100	29.220573	1.199638E-5	20.824976
2670.675128	-3.021800	2.835000	-8.566000	29.215024	1.278844E-5	20.832186
2671.674844	-2.996200	2.832900	-8.486800	29.182792	1.295345E-5	20.817249
2672.674518	-3.002100	2.831600	-8.500100	29.192391	1.325048E-5	20.833085
2673.677022	-3.008800	2.829500	-8.512600	29.199389	1.265643E-5	20.820697
2674.675281	-3.014900	2.826400	-8.520600	29.185486	1.466958E-5	20.835136
2675.675619	-3.049700	2.823800	-8.611000	29.134350	1.410854E-5	20.798307
2676.679550	-3.011700	2.822300	-8.499300	29.096712	1.466958E-5	20.822970
2677.677203	-2.985300	2.820100	-8.418300	29.125239	1.430655E-5	20.820894
2678.680725	-3.001100	2.816800	-8.452100	29.111544	1.272244E-5	20.824164
2679.679739	-3.016600	2.814900	-8.490500	29.126919	1.288745E-5	20.824010
2680.680201	-2.997500	2.812200	-8.428300	29.233388	1.417454E-5	20.804699
2681.680507	-3.017400	2.811400	-8.482800	29.275660	1.513161E-5	20.794668
2682.681891	-3.010000	2.807500	-8.450400	29.249709	1.414154E-5	20.809293
2683.689559	-2.990400	2.805000	-8.387200	29.203055	1.268943E-5	20.822496
2684.684881	-3.002900	2.802500	-8.414900	29.219743	1.503261E-5	20.832200
2685.684407	-3.008300	2.799700	-8.421500	29.283041	1.480159E-5	20.807323
2686.685843	-2.997200	2.797300	-8.382600	29.354040	1.532963E-5	20.811074
2687.685489	-3.004400	2.794800	-8.395600	29.367659	1.400953E-5	20.826222
2688.687286	-3.003400	2.791500	-8.382900	29.308722	1.463658E-5	20.809971
2689.692563	-2.992900	2.787900	-8.342800	29.248427	1.259043E-5	20.825070
2690.687792	-2.998300	2.786500	-8.353500	29.161380	1.529663E-5	20.829811
2691.688414	-3.002200	2.781900	-8.351000	29.225128	1.499960E-5	20.812022
2692.692820	-3.007900	2.780400	-8.362600	29.265640	1.562665E-5	20.826770
2693.687968	-3.016500	2.777900	-8.378400	29.196151	1.595667E-5	20.813167
2694.690250	-2.998000	2.774300	-8.316600	29.154744	1.222740E-5	20.818857
2695.688648	-3.027200	2.771500	-8.389000	29.147741	1.463658E-5	20.817965
2696.689514	-2.993900	2.767000	-8.283000	29.126071	1.311847E-5	20.826949
2697.687129	-2.980400	2.764800	-8.239700	29.135971	1.506561E-5	20.813690
2698.688392	-3.013100	2.761800	-8.320800	29.214153	1.602268E-5	20.806178
2699.689483	-3.012000	2.759100	-8.310100	29.237636	1.232641E-5	20.827946
2700.691675	-2.992100	2.757300	-8.249400	29.251915	1.255742E-5	20.812465
2701.686752	-2.989600	2.753200	-8.230000	29.225079	1.364650E-5	20.798222
2702.688121	-2.995800	2.750000	-8.237000	29.267051	1.443856E-5	20.819183
2703.690575	-2.975200	2.749300	-8.178000	29.375210	1.539563E-5	20.803013
2704.688891	-2.992600	2.744100	-8.210700	29.419602	1.457057E-5	20.789909
2705.692853	-3.023200	2.740700	-8.285200	29.439977	1.575866E-5	20.795746
2706.687871	-3.002800	2.736100	-8.215100	29.515094	1.473558E-5	20.796547
2707.686346	-3.012700	2.734200	-8.236500	29.534721	1.348149E-5	20.786460
2708.689283	-2.957000	2.730600	-8.073200	29.515307	1.496660E-5	20.780166
2709.688873	-3.007100	2.727200	-8.200200	29.435865	1.598968E-5	20.794921
2710.690410	-2.988200	2.723400	-8.137600	29.388498	1.704575E-5	20.787482
2711.689345	-3.022000	2.719300	-8.216900	29.391815	1.420755E-5	20.800783
2712.689692	-2.998900	2.717300	-8.148200	29.416058	1.301946E-5	20.795820
2713.689919	-3.009100	2.712000	-8.160000	29.374385	1.443856E-5	20.812138
2714.688406	-2.993900	2.709500	-8.111500	29.380330	1.433956E-5	20.794422
2715.689575	-3.001800	2.705100	-8.119400	29.418344	1.641871E-5	20.800495
2716.691398	-3.003600	2.699800	-8.107800	29.435523	1.457057E-5	20.786990
2717.688581	-2.978400	2.697700	-8.034000	29.438638	1.440556E-5	20.805303
2718.689764	-3.006200	2.693700	-8.097100	29.450521	1.622069E-5	20.801633
2719.688175	-2.976700	2.689300	-8.003900	29.413682	1.417454E-5	20.804805
2720.689931	-2.984500	2.686100	-8.015100	29.406406	1.371251E-5	20.786565
2721.689953	-2.985900	2.680800	-8.003800	29.390515	1.605568E-5	20.793309
2722.689499	-3.026400	2.675700	-8.096900	29.404005	1.288745E-5	20.792680
2723.689741	-2.990300	2.672700	-7.991700	29.377636	1.582466E-5	20.794078
2724.688506	-2.987200	2.668100	-7.969600	29.431962	1.427355E-5	20.781978
2725.689221	-3.002900	2.663300	-7.995800	29.473138	1.773881E-5	20.802620
2726.694746	-3.017100	2.658000	-8.018700	29.555180	1.430655E-5	20.808980
2727.698140	-2.996000	2.654800	-7.952500	29.589126	1.546164E-5	20.785828
2728.692942	-2.998100	2.649900	-7.943500	29.556696	1.404253E-5	20.801973
2729.691989	-2.992200	2.645600	-7.915600	29.497617	1.493360E-5	20.798844
2730.694970	-2.990900	2.640800	-7.897000	29.471922	1.358050E-5	20.803765
2731.691273	-2.988200	2.636100	-7.876100	29.575980	1.608868E-5	20.799128
2732.695110	-2.989600	2.631400	-7.865900	29.603310	1.674873E-5	20.789220
2733.693089	-2.992800	2.625900	-7.858000	29.665539	1.486759E-5	20.771350
2734.692982	-2.994400	2.620000	-7.844700	29.723289	1.404253E-5	20.788321
2735.694642	-2.977300	2.617100	-7.790000	29.782624	1.668273E-5	20.787454
2736.694504	-2.992800	2.609400	-7.808100	29.759190	1.374551E-5	20.777103
2737.707091	-2.983400	2.604900	-7.770900	29.775723	1.661672E-5	20.780496
2738.696547	-2.941900	2.600500	-7.648700	29.705278	1.420755E-5	20.796241
2739.695967	-2.988800	2.593000	-7.749100	29.743543	1.391052E-5	20.780292
2740.694956	-3.009100	2.588800	-7.787100	29.796812	1.229340E-5	20.776629
2741.694646	-2.964300	2.585100	-7.661700	29.748479	1.552764E-5	20.785743
2742.695057	-2.996200	2.577500	-7.722000	29.716200	1.282144E-5	20.782122
2743.698436	-2.980600	2.572400	-7.666800	29.706794	1.377851E-5	20.784018
2744.695626	-3.016700	2.565500	-7.738100	29.745040	1.440556E-5	20.779905
2745.694921	-2.992400	2.561400	-7.664000	29.754226	1.394353E-5	20.801969
2746.702678	-2.998900	2.554100	-7.659000	29.767004	1.853086E-5	20.799205
2747.696256	-2.969500	2.548200	-7.565600	29.786981	1.648471E-5	20.779519
2748.697909	-3.013900	2.541800	-7.660000	29.835020	1.440556E-5	20.793343
2749.696835	-3.020800	2.533800	-7.653000	29.857793	1.470258E-5	20.786434
2750.697422	-3.032200	2.530000	-7.670500	29.901102	1.671573E-5	20.777949
2751.696771	-2.993900	2.523600	-7.554900	29.945082	1.747479E-5	20.761132
2752.698162	-3.015400	2.515500	-7.584700	29.996307	1.529663E-5	20.780548
2753.698178	-2.992100	2.512200	-7.516200	29.945430	1.532963E-5	20.786613
2754.697306	-2.939400	2.507200	-7.369200	29.922836	1.476859E-5	20.792753
2755.698595	-3.002400	2.498000	-7.499200	29.931648	1.450457E-5	20.762758
