LabVIEW Measurement	
Writer_Version	2
Reader_Version	2
Separator	Tab
Decimal_Separator	.
Multi_Headings	No
X_Columns	One
Time_Pref	Absolute
Operator	admin
Description	Clolumns are: time, Current, Voltage, Power, Battery Temp, and Chamber Temp
Date	2024/08/16
Time	13:07:17.8513970375061035156
***End_of_Header***	
	
Channels	6						
Samples	1	1	1	1	1	1	
Date	2024/08/28	2024/08/28	2024/08/28	2024/08/28	2024/08/28	2024/08/28	
Time	13:12:46.2234473228454589844	13:12:46.2294688224792480469	13:12:46.2344689369201660156	13:12:46.2094464302062988281	13:12:46.2094464302062988281	13:12:46.2094464302062988281	
X_Dimension	Time	Time	Time	Time	Time	Time	
X0	0.0000000000000000E+0	0.0000000000000000E+0	0.0000000000000000E+0	0.0000000000000000E+0	0.0000000000000000E+0	0.0000000000000000E+0	
Delta_X	1.000000	1.000000	1.000000	1.000000	1.000000	1.000000	
***End_of_Header***							
X_Value	Untitled	Untitled 1	Untitled 2	Untitled 3	Untitled 4	Untitled 5	Comment
0.000000	0.028325	4.090300	0.115850	20.771993	0.000452	20.715566
1.002321	-2.988200	3.931000	-11.746000	20.827943	0.000451	20.707979
2.002053	-2.984800	3.924000	-11.711000	20.793804	0.000452	20.711772
3.005967	-2.980300	3.921000	-11.685000	20.807284	0.000451	20.718615
4.010097	-2.988500	3.917100	-11.706000	20.814003	0.000450	20.716325
5.003101	-2.982600	3.914700	-11.676000	20.831915	0.000450	20.718590
6.003178	-2.992800	3.910900	-11.703000	20.826380	0.000446	20.726332
7.003270	-2.998800	3.909500	-11.723000	20.830131	0.000449	20.703055
8.002682	-2.998300	3.908200	-11.716000	20.831251	0.000449	20.721246
9.013137	-2.989400	3.906200	-11.677000	20.832649	0.000449	20.721221
10.002458	-2.988900	3.903100	-11.665000	20.838444	0.000446	20.695721
11.003628	-2.986800	3.903600	-11.659000	20.865143	0.000445	20.709620
12.007549	-3.009300	3.902400	-11.742000	20.872009	0.000446	20.704158
13.004250	-3.007000	3.900100	-11.727000	20.854990	0.000445	20.717958
14.005947	-3.009000	3.898700	-11.729000	20.841093	0.000446	20.708801
15.004653	-3.022200	3.896900	-11.777000	20.890556	0.000445	20.727449
16.004500	-3.002100	3.898300	-11.702000	20.884270	0.000443	20.720688
17.005404	-3.010100	3.895700	-11.725000	20.887466	0.000442	20.704443
18.005057	-3.018700	3.895100	-11.757000	20.898093	0.000444	20.718865
19.006467	-2.993400	3.894300	-11.657000	20.914237	0.000440	20.712251
20.007573	-2.981700	3.893100	-11.608000	20.909577	0.000442	20.712806
21.012221	-2.999100	3.892400	-11.672000	20.922869	0.000440	20.701917
22.007065	-2.978300	3.892900	-11.593000	20.922231	0.000443	20.706968
23.008406	-3.000100	3.890400	-11.671000	20.940843	0.000441	20.695236
24.018451	-2.999400	3.889900	-11.667000	20.941194	0.000441	20.676145
25.008375	-2.986900	3.891100	-11.621000	20.958132	0.000440	20.701148
26.007138	-3.009000	3.888000	-11.699000	20.960207	0.000438	20.712233
27.008921	-3.005000	3.888100	-11.682000	20.966623	0.000439	20.695890
28.009250	-3.010600	3.887800	-11.703000	20.962104	0.000440	20.722191
29.018382	-3.003100	3.886600	-11.671000	20.997905	0.000439	20.701573
30.014090	-2.995000	3.888300	-11.644000	20.986535	0.000439	20.709167
31.011099	-3.005100	3.886900	-11.680000	20.999205	0.000438	20.714727
32.008636	-3.010600	3.886800	-11.701000	21.016998	0.000437	20.699332
33.009706	-2.990000	3.885400	-11.616000	21.009413	0.000437	20.705022
34.009956	-2.997100	3.885300	-11.644000	21.008809	0.000438	20.690192
35.008785	-2.995100	3.884900	-11.635000	21.033910	0.000437	20.696806
36.017089	-3.001100	3.884400	-11.657000	21.046815	0.000436	20.711612
37.009632	-2.998900	3.883500	-11.645000	21.057015	0.000436	20.690993
38.009327	-2.975000	3.883900	-11.553000	21.070043	0.000437	20.701654
39.010047	-2.996500	3.883400	-11.635000	21.061134	0.000437	20.700804
40.015313	-3.006700	3.882800	-11.674000	21.067876	0.000436	20.722248
41.021739	-2.996500	3.882600	-11.634000	21.077529	0.000436	20.700607
42.010646	-3.015000	3.882900	-11.706000	21.092649	0.000434	20.696764
43.010396	-3.019800	3.880400	-11.717000	21.094675	0.000433	20.695946
44.010772	-3.006000	3.881200	-11.666000	21.090841	0.000436	20.698275
45.010769	-3.025600	3.881000	-11.741000	21.107351	0.000435	20.695823
46.014668	-2.982600	3.883800	-11.583000	21.107432	0.000434	20.711078
47.010985	-2.983100	3.881000	-11.576000	21.117780	0.000433	20.695823
48.011120	-2.974700	3.881800	-11.546000	21.131337	0.000435	20.693737
49.011562	-2.990300	3.880300	-11.602000	21.151449	0.000433	20.694889
50.016709	-2.988300	3.880300	-11.594000	21.160097	0.000434	20.710653
51.018224	-2.965500	3.880400	-11.506000	21.150027	0.000433	20.680663
52.015249	-2.989000	3.879900	-11.596000	21.168261	0.000433	20.689894
53.013575	-2.978700	3.878700	-11.553000	21.188193	0.000435	20.679012
54.012885	-2.990400	3.879000	-11.598000	21.182684	0.000433	20.693418
55.015368	-2.996800	3.878700	-11.622000	21.196111	0.000435	20.685985
56.013885	-2.988000	3.878700	-11.588000	21.203653	0.000432	20.692108
57.017720	-3.005800	3.878800	-11.658000	21.198144	0.000434	20.677587
58.014013	-2.998100	3.878600	-11.628000	21.215706	0.000433	20.678560
59.021743	-3.005200	3.878600	-11.655000	21.227236	0.000431	20.685353
60.014008	-2.991500	3.877500	-11.599000	21.221394	0.000434	20.694683
61.015490	-3.010700	3.877400	-11.672000	21.251981	0.000434	20.687348
62.017848	-2.993600	3.878700	-11.610000	21.254407	0.000432	20.700208
63.018083	-3.020100	3.876600	-11.707000	21.271944	0.000433	20.692147
64.016990	-2.990000	3.877400	-11.593000	21.256205	0.000432	20.681616
65.017144	-3.010600	3.876400	-11.669000	21.267131	0.000435	20.703454
66.018635	-2.994000	3.876400	-11.605000	21.287143	0.000433	20.684591
67.016263	-2.983300	3.876800	-11.564000	21.278569	0.000432	20.678385
68.019365	-2.984600	3.876800	-11.570000	21.290362	0.000433	20.679277
69.016332	-2.997800	3.875800	-11.618000	21.290639	0.000434	20.684771
70.016696	-2.997200	3.874900	-11.613000	21.289267	0.000433	20.696675
71.017330	-2.979900	3.876600	-11.551000	21.319778	0.000436	20.685473
72.018741	-3.010300	3.874500	-11.662000	21.332624	0.000434	20.670822
73.020259	-2.988200	3.874600	-11.577000	21.326807	0.000433	20.681599
74.019023	-2.984200	3.875200	-11.563000	21.329756	0.000435	20.676962
75.018489	-2.993000	3.873700	-11.594000	21.342903	0.000434	20.670201
76.020113	-2.996300	3.875100	-11.610000	21.362228	0.000433	20.671518
77.018457	-2.986200	3.875600	-11.573000	21.372606	0.000435	20.666252
78.017925	-3.015000	3.873700	-11.678000	21.360013	0.000433	20.651281
79.033405	-3.004600	3.874800	-11.642000	21.397404	0.000435	20.670201
80.019490	-2.976400	3.876100	-11.535000	21.390818	0.000434	20.651281
81.020947	-2.999600	3.874300	-11.620000	21.396154	0.000435	20.668950
82.021649	-2.993200	3.873600	-11.594000	21.400468	0.000433	20.660938
83.020856	-2.996600	3.872200	-11.602000	21.404986	0.000434	20.685849
84.021988	-2.991700	3.872900	-11.586000	21.414980	0.000435	20.654594
85.022161	-2.966300	3.872800	-11.487000	21.418975	0.000435	20.664282
86.021602	-3.000400	3.872500	-11.618000	21.443772	0.000436	20.663962
87.023351	-3.000500	3.872100	-11.616000	21.429425	0.000435	20.662884
88.022180	-3.012900	3.872300	-11.666000	21.461404	0.000437	20.666906
89.025425	-2.992600	3.871300	-11.584000	21.448209	0.000436	20.668876
90.025956	-2.986000	3.872100	-11.561000	21.455710	0.000434	20.659785
91.021871	-2.995200	3.872100	-11.596000	21.472230	0.000435	20.663987
92.024621	-3.015600	3.871000	-11.672000	21.480131	0.000434	20.652451
93.027596	-3.017400	3.871200	-11.680000	21.494656	0.000435	20.679790
94.025421	-2.990300	3.871400	-11.575000	21.486863	0.000436	20.679105
95.025607	-2.987800	3.870600	-11.563000	21.486537	0.000437	20.674036
96.025260	-3.004800	3.871100	-11.631000	21.524723	0.000433	20.670994
97.027380	-2.991600	3.871600	-11.582000	21.513080	0.000435	20.673095
98.023190	-2.997400	3.871000	-11.602000	21.543709	0.000437	20.643996
99.033747	-3.020800	3.869100	-11.686000	21.527672	0.000436	20.654503
100.026311	-3.006600	3.869900	-11.634000	21.543604	0.000437	20.667127
101.024678	-3.000600	3.870100	-11.611000	21.565327	0.000437	20.650930
102.030508	-3.030400	3.868700	-11.722000	21.567033	0.000435	20.680616
103.026433	-3.013900	3.868600	-11.658000	21.575734	0.000436	20.657552
104.029431	-2.995700	3.868900	-11.588000	21.575962	0.000437	20.651615
105.026064	-2.985800	3.869200	-11.551000	21.584965	0.000438	20.667739
106.026509	-3.002000	3.870100	-11.617000	21.572996	0.000437	20.650070
107.025162	-3.009300	3.868500	-11.640000	21.607284	0.000438	20.652139
108.025445	-3.013900	3.868300	-11.657000	21.618933	0.000437	20.659055
109.031539	-3.002900	3.868200	-11.615000	21.625215	0.000436	20.652065
110.025723	-2.990800	3.869200	-11.571000	21.647091	0.000438	20.639817
111.034959	-3.018700	3.866800	-11.672000	21.653054	0.000439	20.660485
112.026582	-2.996700	3.867700	-11.590000	21.650538	0.000439	20.654647
113.034554	-2.991800	3.867800	-11.571000	21.624128	0.000438	20.647183
114.026301	-2.994000	3.867800	-11.579000	21.652163	0.000440	20.663861
115.024870	-2.985700	3.866100	-11.542000	21.652490	0.000439	20.672724
116.026273	-2.985100	3.868400	-11.548000	21.666524	0.000440	20.664483
117.029597	-3.007500	3.866900	-11.628000	21.677324	0.000440	20.654426
118.033805	-3.011100	3.867300	-11.643000	21.686227	0.000439	20.663812
119.025093	-3.017100	3.866000	-11.664000	21.719048	0.000440	20.663468
120.029054	-2.994400	3.868400	-11.582000	21.723354	0.000440	20.681055
121.034236	-2.981500	3.868500	-11.533000	21.707604	0.000439	20.683785
122.030799	-3.007100	3.867600	-11.629000	21.706853	0.000440	20.654107
123.029725	-2.979800	3.867500	-11.524000	21.750219	0.000440	20.660050
124.026628	-2.997400	3.865100	-11.583000	21.735304	0.000439	20.656028
125.026754	-3.003800	3.866500	-11.614000	21.754198	0.000442	20.677785
126.026265	-2.990800	3.866600	-11.563000	21.723705	0.000441	20.667655
127.028001	-3.004700	3.865400	-11.613000	21.752458	0.000441	20.653281
128.027110	-3.013800	3.865100	-11.648000	21.737378	0.000442	20.666166
129.037402	-2.998900	3.866300	-11.594000	21.764628	0.000442	20.661669
130.026831	-3.019700	3.864500	-11.669000	21.785073	0.000442	20.674547
131.030946	-3.011400	3.864600	-11.637000	21.758967	0.000441	20.662642
132.038461	-3.001000	3.863900	-11.594000	21.797047	0.000442	20.668512
133.037274	-2.974200	3.865300	-11.495000	21.798141	0.000442	20.661072
134.035550	-3.028300	3.863600	-11.699000	21.810883	0.000444	20.657230
135.041634	-3.006400	3.864200	-11.616000	21.808522	0.000444	20.653917
136.029759	-2.995000	3.864300	-11.572000	21.842206	0.000442	20.662502
137.031302	-2.992100	3.864700	-11.562000	21.849361	0.000444	20.658284
138.032412	-3.009600	3.863800	-11.627000	21.843504	0.000445	20.654318
139.038097	-2.989400	3.863500	-11.549000	21.867941	0.000446	20.671667
140.047008	-2.986500	3.864000	-11.539000	21.868906	0.000444	20.673107
141.028018	-2.994600	3.863600	-11.569000	21.877816	0.000445	20.684397
142.036491	-3.009300	3.862500	-11.623000	21.892827	0.000445	20.682352
143.032377	-2.988800	3.863900	-11.548000	21.883549	0.000445	20.676859
144.033189	-2.993600	3.863200	-11.564000	21.881851	0.000445	20.670891
145.029991	-3.001400	3.862300	-11.591000	21.894655	0.000445	20.674225
146.034089	-3.000300	3.863500	-11.591000	21.914551	0.000447	20.667112
147.035822	-2.989500	3.863000	-11.547000	21.927961	0.000445	20.662043
148.035308	-2.983300	3.863300	-11.524000	21.930305	0.000447	20.659647
149.034389	-3.008700	3.860800	-11.615000	21.915849	0.000448	20.685008
150.033442	-3.010100	3.862100	-11.624000	21.922105	0.000447	20.654758
151.032234	-3.005400	3.862400	-11.607000	21.937393	0.000448	20.674804
152.032301	-2.974900	3.862900	-11.490000	21.959305	0.000448	20.651217
153.033754	-3.009100	3.861000	-11.617000	21.954193	0.000448	20.652738
154.033372	-2.990600	3.862700	-11.552000	21.967414	0.000447	20.656964
155.035908	-3.005600	3.861800	-11.606000	21.954151	0.000449	20.673087
156.050079	-3.007300	3.860700	-11.610000	21.952158	0.000448	20.643113
157.035548	-2.989200	3.860500	-11.539000	21.985764	0.000450	20.681025
158.034705	-2.987900	3.860000	-11.532000	22.004188	0.000450	20.662482
159.032996	-2.992700	3.859500	-11.550000	21.999606	0.000449	20.686821
160.034438	-3.002100	3.859700	-11.585000	21.996740	0.000452	20.693910
161.035982	-3.002900	3.859500	-11.589000	21.992747	0.000451	20.679480
162.040690	-3.013800	3.859300	-11.630000	21.995269	0.000451	20.662089
163.040412	-2.998500	3.860000	-11.573000	22.007346	0.000451	20.667541
164.037711	-3.011300	3.858300	-11.617000	22.033446	0.000451	20.656684
165.041455	-2.995700	3.859100	-11.560000	22.017391	0.000452	20.671433
166.045471	-2.994500	3.858800	-11.554000	22.020135	0.000452	20.670861
167.043203	-3.005500	3.859200	-11.598000	22.065735	0.000452	20.677155
168.052351	-2.986600	3.859900	-11.527000	22.074864	0.000452	20.674440
169.039461	-2.989000	3.859200	-11.535000	22.054227	0.000453	20.659944
170.042081	-2.994700	3.858000	-11.552000	22.079477	0.000454	20.665308
171.041821	-2.976400	3.858400	-11.483000	22.077828	0.000453	20.678357
172.050458	-2.986900	3.858100	-11.523000	22.093759	0.000454	20.663010
173.041480	-3.008100	3.858200	-11.605000	22.120250	0.000454	20.675308
174.058906	-3.012800	3.858400	-11.625000	22.131957	0.000454	20.669485
175.039482	-2.995600	3.856100	-11.551000	22.112809	0.000457	20.679713
176.042506	-2.982900	3.858300	-11.508000	22.118476	0.000454	20.674954
177.041044	-3.003000	3.858000	-11.584000	22.113119	0.000456	20.664374
178.052100	-2.967000	3.856700	-11.441000	22.128053	0.000457	20.688337
179.042200	-3.009000	3.857600	-11.607000	22.135182	0.000455	20.657538
180.043288	-3.009500	3.855700	-11.603000	22.175224	0.000453	20.675819
181.047281	-2.995800	3.856500	-11.552000	22.175395	0.000456	20.686897
182.045593	-3.000400	3.856300	-11.569000	22.158574	0.000455	20.683806
183.041595	-2.993300	3.856300	-11.542000	22.163261	0.000457	20.692767
184.049147	-3.012100	3.854700	-11.610000	22.172765	0.000457	20.671460
185.041173	-3.003800	3.856600	-11.584000	22.190361	0.000457	20.687656
186.043227	-3.008600	3.855700	-11.599000	22.199278	0.000460	20.664339
187.047308	-2.991200	3.855400	-11.531000	22.198093	0.000458	20.690656
188.043849	-2.989900	3.855800	-11.528000	22.215910	0.000459	20.685735
189.053518	-2.985700	3.855900	-11.512000	22.210104	0.000460	20.677077
190.046113	-2.998900	3.854800	-11.559000	22.226156	0.000461	20.662801
191.043869	-2.989000	3.854100	-11.519000	22.244127	0.000459	20.669890
192.046196	-2.985800	3.854500	-11.508000	22.252258	0.000461	20.675661
193.044008	-3.006600	3.854100	-11.586000	22.251041	0.000462	20.676814
194.043149	-2.998100	3.854700	-11.556000	22.253483	0.000462	20.692536
195.045465	-3.016800	3.853300	-11.624000	22.283716	0.000462	20.691514
196.046426	-2.981200	3.854000	-11.489000	22.270604	0.000462	20.700197
197.047370	-2.998700	3.852600	-11.552000	22.288133	0.000464	20.671278
198.048458	-2.997700	3.854100	-11.553000	22.292436	0.000462	20.688391
199.046339	-2.985300	3.854100	-11.505000	22.296035	0.000465	20.665440
200.053472	-2.975200	3.853000	-11.463000	22.320880	0.000465	20.694588
201.051116	-2.985100	3.853200	-11.501000	22.318782	0.000463	20.703868
202.046576	-2.996400	3.852300	-11.542000	22.339315	0.000464	20.690288
203.048544	-3.005700	3.852600	-11.579000	22.337397	0.000466	20.676037
204.050190	-3.007300	3.851700	-11.582000	22.327323	0.000464	20.692978
205.058206	-2.986900	3.851900	-11.505000	22.337404	0.000465	20.670828
206.050018	-2.977600	3.851100	-11.466000	22.354818	0.000467	20.685897
207.048286	-3.004200	3.850500	-11.567000	22.371465	0.000467	20.682652
208.057789	-2.986900	3.852200	-11.504000	22.383923	0.000466	20.691809
209.055087	-2.984400	3.852200	-11.496000	22.386968	0.000467	20.697703
210.050917	-3.008200	3.850100	-11.581000	22.404291	0.000466	20.695610
211.050015	-2.996700	3.852100	-11.542000	22.381317	0.000466	20.702003
212.050497	-2.992900	3.850900	-11.525000	22.406535	0.000469	20.718248
213.055607	-3.014600	3.851300	-11.609000	22.391408	0.000468	20.714479
214.058838	-3.021200	3.850200	-11.631000	22.402691	0.000468	20.704440
215.053333	-2.999800	3.850400	-11.550000	22.384078	0.000471	20.691489
216.051554	-3.005100	3.849000	-11.566000	22.383099	0.000469	20.695251
217.055381	-2.982100	3.850600	-11.483000	22.429353	0.000471	20.700794
218.053978	-3.001400	3.849700	-11.554000	22.398707	0.000469	20.708037
219.068297	-3.004200	3.848200	-11.560000	22.428137	0.000471	20.706214
220.053025	-2.998900	3.849800	-11.545000	22.416250	0.000471	20.693362
221.051954	-3.003400	3.847400	-11.554000	22.450113	0.000469	20.717791
222.056689	-3.000900	3.848600	-11.549000	22.458537	0.000471	20.709157
223.057160	-2.994500	3.849000	-11.525000	22.448324	0.000472	20.699877
224.064466	-2.977700	3.848400	-11.458000	22.465916	0.000470	20.698054
225.055135	-2.997000	3.848300	-11.532000	22.465516	0.000472	20.692438
226.054346	-2.996200	3.848200	-11.529000	22.468325	0.000472	20.707580
227.056768	-2.977800	3.847700	-11.457000	22.475532	0.000473	20.724756
228.055281	-3.009700	3.846700	-11.577000	22.468708	0.000473	20.697057
229.068956	-3.006900	3.847800	-11.569000	22.476781	0.000473	20.704668
230.053421	-2.991600	3.848300	-11.512000	22.489564	0.000474	20.711307
231.057390	-2.990000	3.847600	-11.503000	22.490511	0.000474	20.722213
232.057732	-2.998300	3.845400	-11.529000	22.488895	0.000475	20.740984
233.063627	-2.991300	3.846400	-11.504000	22.514135	0.000474	20.711732
234.053810	-3.002600	3.845600	-11.546000	22.538329	0.000474	20.724584
235.059552	-3.004100	3.846700	-11.555000	22.557470	0.000475	20.722417
236.059782	-2.971600	3.847400	-11.432000	22.545838	0.000476	20.752969
237.064357	-2.995300	3.845900	-11.519000	22.540655	0.000476	20.719801
238.065109	-3.005200	3.846400	-11.558000	22.550457	0.000477	20.736257
239.059785	-3.014000	3.845000	-11.588000	22.561387	0.000479	20.716383
240.071368	-3.017200	3.843400	-11.595000	22.565501	0.000476	20.730935
241.063429	-2.987400	3.845100	-11.486000	22.570284	0.000475	20.734304
242.069536	-3.015000	3.845100	-11.592000	22.565459	0.000478	20.715720
243.060991	-3.011400	3.843700	-11.574000	22.574928	0.000477	20.715246
244.060356	-3.005700	3.843900	-11.553000	22.588608	0.000478	20.732267
245.062557	-3.006100	3.845200	-11.558000	22.591367	0.000481	20.722228
246.056854	-3.000200	3.844800	-11.534000	22.635320	0.000479	20.720732
247.058763	-3.001100	3.844000	-11.536000	22.616759	0.000480	20.713995
248.058363	-3.031300	3.843600	-11.651000	22.613298	0.000479	20.731867
249.072598	-3.002700	3.842700	-11.537000	22.605349	0.000480	20.724378
250.058250	-2.996800	3.842300	-11.513000	22.638641	0.000481	20.736861
251.061134	-3.000100	3.843300	-11.530000	22.650238	0.000481	20.720027
252.061615	-2.986800	3.843600	-11.479000	22.674569	0.000482	20.720690
253.061969	-2.973400	3.843500	-11.427000	22.665526	0.000481	20.721115
254.073874	-3.017700	3.841000	-11.590000	22.664586	0.000481	20.726339
255.062628	-2.993600	3.842200	-11.501000	22.679138	0.000482	20.720526
256.063622	-3.001000	3.841100	-11.525000	22.687063	0.000483	20.727990
257.061268	-2.989900	3.841400	-11.485000	22.707891	0.000482	20.731783
258.062844	-3.016100	3.839800	-11.580000	22.696506	0.000482	20.723697
259.062857	-2.996300	3.840800	-11.507000	22.703231	0.000485	20.723796
260.060967	-2.999000	3.842100	-11.522000	22.690637	0.000485	20.739630
261.064546	-3.007600	3.839600	-11.547000	22.724915	0.000483	20.730817
262.074241	-3.007300	3.840900	-11.550000	22.742404	0.000484	20.733638
263.062999	-2.999800	3.841400	-11.522000	22.728302	0.000485	20.747962
264.074137	-3.020400	3.839400	-11.595000	22.735655	0.000485	20.739679
265.068133	-2.987600	3.839600	-11.470000	22.744526	0.000486	20.750463
266.067357	-2.995600	3.839900	-11.502000	22.768063	0.000485	20.778782
267.068061	-2.992800	3.839900	-11.491000	22.782614	0.000487	20.737407
268.063361	-3.007600	3.839700	-11.547000	22.803791	0.000487	20.720688
269.064124	-3.017200	3.837900	-11.578000	22.805309	0.000488	20.731218
270.068332	-3.002600	3.837800	-11.522000	22.808279	0.000488	20.745099
271.066738	-3.016600	3.838000	-11.576000	22.796715	0.000486	20.750111
272.070541	-3.024900	3.837100	-11.606000	22.790138	0.000488	20.756325
273.069579	-3.002100	3.838000	-11.521000	22.807773	0.000490	20.745542
274.068665	-3.005800	3.838400	-11.536000	22.799555	0.000486	20.759595
275.069037	-3.005600	3.837800	-11.534000	22.783683	0.000490	20.746539
276.067503	-3.005400	3.838300	-11.535000	22.771156	0.000488	20.775242
277.082279	-3.013900	3.838200	-11.567000	22.826208	0.000490	20.744569
278.068628	-3.000600	3.837300	-11.514000	22.824967	0.000489	20.756602
279.069984	-2.994000	3.836500	-11.485000	22.851441	0.000487	20.737129
280.066601	-3.003100	3.838000	-11.525000	22.843142	0.000490	20.762007
281.071622	-2.997200	3.837500	-11.501000	22.856850	0.000490	20.756300
282.067170	-3.011900	3.835600	-11.551000	22.854599	0.000493	20.758786
283.071482	-3.007000	3.837300	-11.538000	22.856443	0.000490	20.770117
284.069497	-3.008600	3.835900	-11.540000	22.858368	0.000491	20.757821
285.066441	-3.025600	3.835700	-11.605000	22.861699	0.000492	20.762580
286.068789	-2.990600	3.835400	-11.469000	22.922850	0.000492	20.756514
287.065945	-3.015400	3.835000	-11.563000	22.915408	0.000494	20.755696
288.073321	-2.988000	3.836300	-11.461000	22.919888	0.000493	20.762555
289.067517	-3.009300	3.835100	-11.540000	22.925763	0.000492	20.767019
290.074358	-3.002500	3.832700	-11.507000	22.949777	0.000491	20.760258
291.069145	-3.005400	3.834100	-11.522000	22.944571	0.000495	20.760258
292.074212	-2.985800	3.833700	-11.445000	22.935253	0.000493	20.762776
293.070550	-3.005200	3.834100	-11.522000	22.932438	0.000494	20.753792
294.081114	-3.012900	3.833500	-11.549000	22.929199	0.000495	20.766194
295.069351	-3.001000	3.833200	-11.502000	22.945918	0.000495	20.779151
296.074249	-3.011600	3.834300	-11.546000	22.960312	0.000494	20.775554
297.069213	-2.996600	3.834000	-11.488000	22.958149	0.000496	20.794250
298.071450	-3.004900	3.831800	-11.512000	22.947958	0.000497	20.770289
299.071815	-3.008500	3.832900	-11.530000	22.952021	0.000497	20.743065
300.070992	-2.998800	3.830900	-11.487000	22.966692	0.000498	20.762980
301.070526	-2.986000	3.832700	-11.444000	22.999616	0.000499	20.763250
302.072260	-3.014200	3.831900	-11.549000	22.978425	0.000498	20.768572
303.079783	-3.028200	3.830300	-11.598000	23.003377	0.000498	20.771761
304.071335	-2.989100	3.831500	-11.452000	23.003899	0.000499	20.780819
305.076870	-2.994100	3.831700	-11.471000	23.026940	0.000500	20.763602
306.076173	-3.018700	3.830800	-11.563000	23.009504	0.000499	20.773159
307.075042	-3.004000	3.831500	-11.509000	23.026443	0.000500	20.778750
308.075361	-3.009900	3.830600	-11.529000	23.018030	0.000499	20.787391
309.073522	-2.988900	3.831600	-11.452000	23.018275	0.000499	20.787637
310.075478	-2.996800	3.830500	-11.478000	23.018079	0.000500	20.767999
311.073391	-3.017900	3.830100	-11.558000	23.030530	0.000500	20.766250
312.071803	-3.011400	3.829400	-11.531000	23.054819	0.000502	20.774466
313.075475	-3.000100	3.829700	-11.489000	23.065548	0.000499	20.798967
314.080654	-3.004000	3.829900	-11.503000	23.089591	0.000500	20.788445
315.102653	-2.996400	3.829500	-11.474000	23.068689	0.000500	20.780777
316.078551	-2.984000	3.828400	-11.424000	23.077754	0.000501	20.794127
317.082063	-2.998900	3.826700	-11.475000	23.099325	0.000502	20.787293
318.081232	-3.006400	3.827400	-11.506000	23.101259	0.000502	20.778325
319.079329	-3.024100	3.827400	-11.573000	23.084876	0.000500	20.775660
320.084414	-2.996500	3.829400	-11.474000	23.079622	0.000501	20.781775
321.078531	-2.994100	3.827800	-11.460000	23.090204	0.000502	20.798068
322.079018	-3.011000	3.827400	-11.523000	23.086026	0.000502	20.799572
323.084970	-3.009300	3.826500	-11.514000	23.080169	0.000503	20.806979
324.077754	-2.992200	3.828200	-11.454000	23.115894	0.000502	20.783507
325.083290	-3.011600	3.825700	-11.520000	23.130555	0.000502	20.797724
326.082802	-3.002700	3.825200	-11.485000	23.108813	0.000503	20.788740
327.079533	-3.001200	3.827100	-11.485000	23.131396	0.000502	20.796196
328.081282	-2.997600	3.825500	-11.466000	23.140590	0.000505	20.802090
329.084285	-2.986800	3.826400	-11.428000	23.130898	0.000504	20.815612
330.085694	-2.995200	3.825200	-11.456000	23.157477	0.000505	20.806210
331.080643	-3.005200	3.825800	-11.495000	23.187287	0.000503	20.801942
332.094451	-2.997100	3.824300	-11.461000	23.205168	0.000506	20.806111
333.078751	-3.019800	3.824000	-11.546000	23.216580	0.000505	20.812806
334.088377	-2.985800	3.824400	-11.417000	23.210422	0.000506	20.814695
335.091517	-2.980000	3.825000	-11.397000	23.193845	0.000506	20.794290
336.085697	-2.989800	3.824200	-11.433000	23.170709	0.000506	20.809512
337.086526	-2.991400	3.823900	-11.438000	23.206767	0.000505	20.801549
338.088277	-2.998300	3.822800	-11.461000	23.202312	0.000505	20.822689
339.081334	-2.987900	3.823700	-11.424000	23.229681	0.000508	20.823564
340.088230	-3.003000	3.821900	-11.477000	23.215161	0.000507	20.819444
341.083350	-3.006700	3.823500	-11.496000	23.195688	0.000508	20.795189
342.084447	-2.990600	3.823000	-11.433000	23.196210	0.000507	20.801876
343.086348	-3.001400	3.822300	-11.471000	23.223955	0.000509	20.808816
344.084941	-3.002400	3.821800	-11.474000	23.266439	0.000510	20.817253
345.092697	-3.002600	3.821700	-11.474000	23.267784	0.000509	20.812438
346.098948	-3.040200	3.820600	-11.615000	23.275950	0.000510	20.810664
347.105819	-3.023000	3.820200	-11.547000	23.277345	0.000509	20.817751
348.091958	-2.989200	3.822200	-11.424000	23.262727	0.000511	20.810214
349.088381	-2.976500	3.822400	-11.376000	23.275102	0.000511	20.800331
350.086975	-3.008000	3.821600	-11.494000	23.287712	0.000511	20.812968
351.088481	-3.011600	3.822600	-11.512000	23.317518	0.000513	20.821977
352.088438	-2.981800	3.820600	-11.391000	23.299638	0.000512	20.822549
353.087984	-2.994000	3.821400	-11.440000	23.325006	0.000513	20.813835
354.086751	-3.006400	3.820600	-11.485000	23.324166	0.000515	20.818208
355.093916	-3.002100	3.819900	-11.467000	23.318685	0.000512	20.829784
356.090771	-2.994900	3.820500	-11.441000	23.324443	0.000511	20.827021
357.087597	-2.994600	3.818200	-11.432000	23.333456	0.000515	20.834157
358.096119	-2.987000	3.819000	-11.406000	23.342911	0.000514	20.843158
359.093151	-2.996800	3.819800	-11.446000	23.336939	0.000514	20.832907
360.095396	-2.981400	3.819100	-11.385000	23.333620	0.000512	20.829106
361.093394	-3.011000	3.818900	-11.497000	23.338457	0.000512	20.836798
362.092936	-2.987200	3.819100	-11.408000	23.363481	0.000514	20.832008
363.093096	-3.009100	3.817500	-11.486000	23.380243	0.000512	20.832212
364.088828	-3.002600	3.818400	-11.464000	23.383628	0.000514	20.832759
365.102376	-3.014300	3.817500	-11.506000	23.351654	0.000514	20.840068
366.096328	-3.007300	3.816500	-11.477000	23.385520	0.000515	20.825173
367.098529	-3.012700	3.816300	-11.496000	23.397298	0.000513	20.836503
368.092238	-3.012600	3.815700	-11.494000	23.400063	0.000514	20.837378
369.094546	-3.010900	3.815400	-11.488000	23.405494	0.000514	20.824331
370.096121	-2.992800	3.817700	-11.425000	23.383579	0.000513	20.823227
371.093801	-3.024100	3.814200	-11.534000	23.401163	0.000514	20.817619
372.095648	-2.997100	3.815700	-11.435000	23.424042	0.000513	20.828222
373.096212	-2.972100	3.816400	-11.342000	23.400813	0.000514	20.813474
374.095914	-3.006400	3.814500	-11.467000	23.409874	0.000512	20.818289
375.096477	-2.985900	3.814900	-11.390000	23.414009	0.000515	20.811529
376.095621	-3.004300	3.814000	-11.457000	23.400102	0.000517	20.846900
377.108664	-2.985100	3.813700	-11.383000	23.389670	0.000515	20.814160
378.095543	-2.992500	3.814100	-11.412000	23.404874	0.000515	20.811855
379.099092	-2.991700	3.815100	-11.413000	23.437726	0.000516	20.819653
380.093779	-3.003900	3.813900	-11.455000	23.450368	0.000514	20.814781
381.098940	-3.016600	3.813900	-11.503000	23.473506	0.000516	20.803360
382.094350	-3.023900	3.811600	-11.525000	23.489011	0.000518	20.813212
383.098300	-2.990900	3.813700	-11.405000	23.486498	0.000517	20.814012
384.094472	-2.988900	3.812500	-11.394000	23.514358	0.000517	20.809696
385.096154	-3.016600	3.812900	-11.501000	23.497679	0.000516	20.808625
386.099290	-2.992900	3.811000	-11.405000	23.489393	0.000518	20.785620
387.102674	-2.990900	3.811300	-11.398000	23.479614	0.000516	20.813275
388.099240	-2.992900	3.812300	-11.408000	23.487753	0.000519	20.813374
389.096896	-2.998500	3.811700	-11.428000	23.499130	0.000517	20.810079
390.098677	-3.004900	3.810600	-11.449000	23.500851	0.000518	20.792364
391.103368	-2.997300	3.811100	-11.422000	23.542207	0.000517	20.787352
392.097586	-2.977600	3.810600	-11.346000	23.504219	0.000520	20.775351
393.104347	-2.992200	3.810400	-11.401000	23.524281	0.000520	20.791668
394.097686	-3.006300	3.809300	-11.450000	23.531002	0.000521	20.796034
395.103385	-2.984600	3.810600	-11.372000	23.541187	0.000523	20.803399
396.101063	-2.989500	3.809500	-11.388000	23.528416	0.000519	20.780640
397.107527	-3.026800	3.807600	-11.524000	23.554684	0.000520	20.791799
398.100418	-2.991500	3.809900	-11.395000	23.564886	0.000521	20.816725
399.098636	-3.009600	3.807700	-11.459000	23.575618	0.000522	20.793818
400.104947	-3.008400	3.807700	-11.454000	23.574704	0.000523	20.808549
401.101345	-2.998500	3.807700	-11.417000	23.610269	0.000523	20.804847
402.101007	-3.000400	3.807800	-11.424000	23.599447	0.000521	20.802532
403.104148	-3.003100	3.808500	-11.437000	23.618513	0.000522	20.787981
404.105948	-3.020200	3.808000	-11.500000	23.583789	0.000524	20.772137
405.109155	-3.031900	3.806400	-11.539000	23.554341	0.000525	20.791929
406.116450	-2.986800	3.808500	-11.374000	23.601314	0.000523	20.770739
407.108563	-2.996500	3.807700	-11.409000	23.586448	0.000524	20.773380
408.115959	-3.020500	3.806700	-11.497000	23.605742	0.000523	20.774704
409.109726	-3.022200	3.807200	-11.505000	23.623341	0.000524	20.801355
410.102526	-3.003800	3.806000	-11.431000	23.626357	0.000523	20.786362
411.108385	-2.996000	3.806100	-11.402000	23.642169	0.000526	20.786566
412.102901	-3.011300	3.804700	-11.456000	23.621562	0.000524	20.780132
413.109276	-2.989100	3.806400	-11.377000	23.627279	0.000524	20.768793
414.104407	-2.988800	3.805700	-11.374000	23.632440	0.000524	20.788192
415.105467	-3.002700	3.805300	-11.425000	23.625362	0.000525	20.784416
416.107429	-3.021800	3.802500	-11.490000	23.640049	0.000525	20.749827
417.107581	-2.992900	3.804500	-11.385000	23.640000	0.000523	20.774908
418.107636	-3.007100	3.803200	-11.436000	23.650714	0.000525	20.784701
419.106779	-3.007100	3.804000	-11.438000	23.652076	0.000525	20.797921
420.114106	-2.986800	3.802800	-11.357000	23.658543	0.000525	20.775481
421.103816	-3.000600	3.803600	-11.412000	23.678488	0.000524	20.799744
422.107017	-3.007700	3.802800	-11.436000	23.675717	0.000525	20.794595
423.105389	-2.984100	3.803300	-11.348000	23.659889	0.000525	20.776830
424.109984	-2.994200	3.801100	-11.380000	23.677910	0.000525	20.783991
425.107847	-2.995800	3.801700	-11.388000	23.676222	0.000527	20.769022
426.105812	-2.996200	3.802800	-11.393000	23.702846	0.000526	20.773429
427.110809	-3.007100	3.802700	-11.434000	23.736905	0.000528	20.759212
428.108126	-3.038300	3.800300	-11.545000	23.728784	0.000527	20.789951
429.109521	-2.999900	3.800800	-11.402000	23.763430	0.000528	20.766840
430.106334	-3.003000	3.800800	-11.413000	23.761415	0.000526	20.771933
431.108241	-3.006300	3.799600	-11.421000	23.747848	0.000528	20.774451
432.108325	-2.999700	3.800000	-11.398000	23.749225	0.000526	20.752124
433.111843	-2.979500	3.799900	-11.321000	23.751166	0.000528	20.774933
434.112075	-2.984700	3.801200	-11.345000	23.721746	0.000530	20.770567
435.112521	-3.002800	3.798700	-11.406000	23.755072	0.000529	20.762253
436.109398	-2.996700	3.798900	-11.383000	23.733048	0.000528	20.773837
437.114370	-2.991600	3.799600	-11.366000	23.761366	0.000527	20.761452
438.117069	-3.006900	3.797300	-11.417000	23.766348	0.000526	20.776879
439.111948	-2.991600	3.798000	-11.361000	23.751761	0.000527	20.775056
440.115173	-3.002800	3.798300	-11.404000	23.748353	0.000527	20.767371
441.110953	-3.004900	3.797000	-11.408000	23.794568	0.000527	20.764396
442.113455	-3.004400	3.798000	-11.410000	23.784963	0.000529	20.767567
443.112884	-2.999600	3.796500	-11.387000	23.816157	0.000527	20.753799
444.117652	-2.986000	3.798200	-11.341000	23.793230	0.000529	20.779176
445.120564	-3.016900	3.797100	-11.454000	23.801767	0.000527	20.776355
446.112847	-3.007200	3.797100	-11.417000	23.799329	0.000530	20.766798
447.113884	-3.002500	3.797100	-11.399000	23.784367	0.000529	20.764600
448.110481	-3.003200	3.796600	-11.401000	23.840666	0.000527	20.745657
449.116763	-2.984800	3.795900	-11.329000	23.825134	0.000530	20.782716
450.115689	-2.994500	3.796500	-11.368000	23.805574	0.000528	20.773061
451.112817	-2.988000	3.795400	-11.340000	23.810303	0.000532	20.770690
452.116287	-3.009700	3.795600	-11.423000	23.793304	0.000530	20.791103
453.117666	-2.998100	3.794100	-11.374000	23.760021	0.000530	20.778122
454.114988	-2.987900	3.795100	-11.339000	23.789748	0.000529	20.759089
455.115577	-2.994300	3.794600	-11.361000	23.804653	0.000530	20.765025
456.126807	-3.004500	3.793800	-11.398000	23.863918	0.000532	20.767076
457.115188	-3.012000	3.793400	-11.425000	23.872177	0.000530	20.757814
458.118460	-3.006900	3.793000	-11.404000	23.880836	0.000529	20.754642
459.120646	-3.008700	3.793100	-11.412000	23.880983	0.000530	20.742935
460.116961	-2.992400	3.793400	-11.351000	23.852023	0.000530	20.750407
461.118588	-3.005200	3.792300	-11.396000	23.840673	0.000531	20.750881
462.116493	-3.019600	3.791900	-11.449000	23.837339	0.000531	20.749434
463.132876	-2.977300	3.793300	-11.292000	23.850979	0.000531	20.764533
464.123377	-2.990700	3.793200	-11.343000	23.883859	0.000533	20.758622
465.121021	-2.989000	3.791600	-11.332000	23.887568	0.000531	20.754755
466.118534	-2.997400	3.790100	-11.359000	23.894507	0.000532	20.770722
467.133510	-2.990400	3.791800	-11.338000	23.905439	0.000529	20.743751
468.120350	-3.022600	3.790000	-11.455000	23.876497	0.000530	20.744601
469.116232	-3.001900	3.789800	-11.376000	23.895999	0.000530	20.740449
470.120932	-3.003400	3.790400	-11.384000	23.853645	0.000532	20.765310
471.124933	-3.014100	3.789600	-11.421000	23.852128	0.000532	20.769479
472.119658	-3.013100	3.789400	-11.417000	23.859726	0.000531	20.761924
473.117164	-3.014500	3.790500	-11.426000	23.869453	0.000531	20.765514
474.131949	-2.993400	3.790500	-11.346000	23.899341	0.000530	20.762293
475.123640	-2.997100	3.788300	-11.353000	23.927712	0.000534	20.746171
476.123364	-2.973700	3.789100	-11.267000	23.957329	0.000531	20.756905
477.121356	-2.977100	3.788900	-11.279000	23.961161	0.000533	20.762644
478.119413	-3.001600	3.787100	-11.366000	23.957679	0.000531	20.755834
479.121977	-2.998500	3.787700	-11.357000	23.941806	0.000532	20.750822
480.119024	-2.994100	3.787400	-11.339000	23.954044	0.000533	20.760723
481.121460	-2.995500	3.787700	-11.345000	23.970404	0.000534	20.755792
482.128754	-3.016100	3.785700	-11.417000	23.972386	0.000533	20.759202
483.122360	-2.982900	3.787200	-11.296000	23.968341	0.000532	20.766526
484.125338	-2.983700	3.786800	-11.298000	24.011759	0.000533	20.754116
485.125615	-3.010600	3.786700	-11.400000	24.001211	0.000531	20.740218
486.125581	-3.015800	3.785500	-11.416000	23.992700	0.000532	20.768194
487.125187	-3.000400	3.785200	-11.356000	24.041048	0.000533	20.754092
488.128622	-3.016500	3.785300	-11.417000	24.031869	0.000533	20.748680
489.138311	-2.999700	3.785600	-11.354000	24.044187	0.000531	20.752023
490.128882	-3.004800	3.786000	-11.375000	24.018949	0.000533	20.750896
491.124960	-2.985700	3.784700	-11.298000	24.037420	0.000533	20.754721
492.137410	-2.980300	3.784600	-11.279000	24.064149	0.000533	20.744068
493.125550	-2.989400	3.784200	-11.312000	24.029726	0.000534	20.729934
494.126463	-3.019400	3.782700	-11.420000	23.984368	0.000533	20.744191
495.127235	-2.986900	3.783000	-11.299000	23.980260	0.000533	20.740545
496.126827	-3.002900	3.783900	-11.361000	23.988224	0.000535	20.746161
497.129658	-2.997200	3.784200	-11.340000	24.033271	0.000532	20.759094
498.134130	-2.995000	3.784400	-11.333000	24.014229	0.000532	20.749006
499.134974	-3.006800	3.781400	-11.369000	24.019430	0.000534	20.730039
500.132194	-3.008700	3.782300	-11.378000	23.992553	0.000534	20.738648
501.129209	-3.026000	3.780600	-11.439000	24.003582	0.000532	20.739751
502.128582	-3.026300	3.781600	-11.444000	23.993555	0.000532	20.740127
503.146115	-2.991800	3.781800	-11.313000	24.012443	0.000533	20.754802
504.129061	-3.008400	3.781600	-11.376000	24.018418	0.000533	20.729973
505.129544	-3.002900	3.780900	-11.353000	24.022200	0.000533	20.732818
506.127977	-2.970800	3.782200	-11.235000	23.988533	0.000535	20.761644
507.129426	-2.988100	3.781500	-11.299000	24.002122	0.000533	20.738287
508.133606	-3.005600	3.780100	-11.361000	23.994337	0.000537	20.729531
509.131565	-2.980500	3.781300	-11.269000	24.006483	0.000536	20.737444
510.130353	-3.005200	3.778900	-11.356000	24.013445	0.000534	20.727831
511.132375	-2.997500	3.779900	-11.329000	24.056298	0.000537	20.725762
512.131401	-3.009100	3.778300	-11.369000	24.053738	0.000536	20.742636
513.130316	-3.007000	3.778600	-11.361000	24.051497	0.000534	20.739914
514.131966	-2.992300	3.778600	-11.305000	24.044878	0.000533	20.733275
515.146993	-3.003700	3.777000	-11.344000	24.055507	0.000534	20.714062
516.141113	-2.992700	3.777700	-11.305000	24.077451	0.000533	20.729433
517.140465	-3.016800	3.777200	-11.394000	24.103576	0.000533	20.746152
518.132669	-2.998400	3.776600	-11.323000	24.073032	0.000536	20.720259
519.138122	-2.998900	3.777100	-11.326000	24.093557	0.000534	20.710023
520.143472	-3.002300	3.777500	-11.340000	24.060781	0.000534	20.726465
521.136492	-2.996200	3.777700	-11.317000	24.055605	0.000534	20.720799
522.134329	-3.009100	3.776800	-11.364000	24.059248	0.000535	20.730143
523.135235	-2.973600	3.777800	-11.232000	24.066364	0.000535	20.733961
524.139468	-3.004700	3.775200	-11.342000	24.066234	0.000533	20.719605
525.138534	-3.004800	3.775600	-11.344000	24.054642	0.000535	20.737378
526.139261	-2.996800	3.776900	-11.318000	24.084623	0.000534	20.747058
527.136449	-3.013900	3.775400	-11.378000	24.089954	0.000533	20.723480
528.148082	-2.999700	3.775300	-11.324000	24.089415	0.000534	20.699230
529.139982	-3.009500	3.773900	-11.357000	24.106109	0.000534	20.710284
530.142504	-2.986000	3.775000	-11.270000	24.120634	0.000534	20.712050
531.140840	-3.025500	3.773500	-11.415000	24.122974	0.000534	20.737157
532.140371	-2.996100	3.773400	-11.304000	24.134604	0.000533	20.712785
533.152463	-2.999700	3.773800	-11.320000	24.120740	0.000535	20.706940
534.141783	-3.019800	3.772300	-11.391000	24.129999	0.000535	20.702001
535.143359	-3.004200	3.773600	-11.334000	24.169751	0.000534	20.734762
536.142498	-3.023700	3.771500	-11.403000	24.160581	0.000536	20.721296
537.142265	-2.987500	3.772600	-11.270000	24.181602	0.000534	20.715352
538.148995	-2.977400	3.772500	-11.231000	24.197136	0.000535	20.724770
539.142468	-2.991500	3.772300	-11.284000	24.206909	0.000534	20.696164
540.142835	-3.002600	3.771000	-11.321000	24.186109	0.000535	20.723192
541.144246	-2.999600	3.770600	-11.308000	24.171576	0.000535	20.728057
542.142654	-3.009400	3.769700	-11.343000	24.173092	0.000536	20.711085
543.150640	-2.994800	3.770200	-11.290000	24.143366	0.000533	20.700235
544.149974	-3.002700	3.770400	-11.321000	24.108561	0.000532	20.720330
545.147503	-3.018100	3.769800	-11.376000	24.135973	0.000535	20.730281
546.151172	-2.968900	3.770800	-11.194000	24.192303	0.000535	20.723241
547.150360	-3.004700	3.770700	-11.328000	24.165129	0.000537	20.714003
548.149602	-3.002000	3.771300	-11.321000	24.165431	0.000535	20.709090
549.162107	-3.003900	3.769800	-11.322000	24.190503	0.000535	20.713374
550.149582	-3.004300	3.769100	-11.323000	24.161862	0.000534	20.708355
551.161205	-3.005100	3.768000	-11.322000	24.166148	0.000534	20.697006
552.159543	-3.008000	3.767700	-11.332000	24.154200	0.000535	20.717740
553.152711	-3.007200	3.767900	-11.330000	24.174707	0.000535	20.695633
554.151738	-2.995900	3.767900	-11.287000	24.174486	0.000535	20.703947
555.161025	-2.985600	3.766500	-11.244000	24.188489	0.000534	20.698077
556.152825	-3.017900	3.767200	-11.368000	24.198669	0.000535	20.727730
557.153857	-3.002700	3.767300	-11.312000	24.225232	0.000532	20.711225
558.154461	-2.997900	3.767200	-11.292000	24.269429	0.000533	20.709564
559.155735	-3.001300	3.765600	-11.301000	24.291091	0.000535	20.712802
560.156466	-2.989100	3.765500	-11.254000	24.282485	0.000532	20.693262
561.158637	-2.985800	3.766000	-11.243000	24.268035	0.000534	20.686827
562.157820	-2.967500	3.765700	-11.174000	24.258752	0.000534	20.719244
563.153671	-2.998600	3.765500	-11.290000	24.258165	0.000535	20.715809
564.173871	-2.986600	3.764300	-11.242000	24.232036	0.000535	20.704773
565.160635	-2.992800	3.765800	-11.270000	24.209622	0.000533	20.716905
566.156827	-2.978700	3.765200	-11.214000	24.232981	0.000533	20.707144
567.153031	-2.984700	3.763500	-11.231000	24.259730	0.000535	20.700308
568.157798	-3.017500	3.762900	-11.353000	24.275238	0.000532	20.699744
569.159408	-2.995100	3.763000	-11.270000	24.266943	0.000535	20.694267
570.159046	-3.007100	3.763200	-11.315000	24.270658	0.000534	20.694201
571.160401	-3.006300	3.764000	-11.315000	24.309313	0.000535	20.705950
572.160549	-2.974600	3.763700	-11.194000	24.319117	0.000534	20.705827
573.160217	-2.994000	3.764400	-11.270000	24.352887	0.000534	20.695606
574.158841	-2.991100	3.762100	-11.252000	24.350972	0.000536	20.717868
575.159893	-2.978700	3.763100	-11.209000	24.324975	0.000535	20.703643
576.160565	-3.007500	3.762500	-11.315000	24.300298	0.000534	20.672247
577.160748	-2.992700	3.762300	-11.258000	24.294308	0.000532	20.700380
578.162971	-2.993700	3.762900	-11.264000	24.312955	0.000534	20.678781
579.160623	-3.014000	3.761000	-11.334000	24.323981	0.000534	20.699800
580.162679	-3.001100	3.761800	-11.289000	24.341225	0.000533	20.689122
581.163373	-3.003600	3.760200	-11.293000	24.364287	0.000534	20.695663
582.163796	-3.005100	3.760200	-11.299000	24.308659	0.000533	20.693439
583.165284	-3.002300	3.760700	-11.289000	24.318764	0.000532	20.678444
584.167037	-2.995300	3.759800	-11.260000	24.303191	0.000533	20.699808
585.165629	-3.008700	3.758300	-11.307000	24.321625	0.000532	20.673727
586.165986	-3.007800	3.759500	-11.307000	24.281251	0.000532	20.684437
587.167732	-2.982800	3.759100	-11.212000	24.318968	0.000534	20.699987
588.166345	-2.990000	3.758000	-11.236000	24.341803	0.000533	20.693496
589.168927	-2.996100	3.758000	-11.258000	24.389703	0.000533	20.688442
590.167763	-2.995500	3.757800	-11.255000	24.355787	0.000531	20.696619
591.166518	-2.966700	3.758900	-11.151000	24.334899	0.000535	20.687992
592.166678	-2.993500	3.757200	-11.247000	24.314770	0.000533	20.675385
593.167490	-3.014600	3.756300	-11.323000	24.290607	0.000534	20.678174
594.184135	-2.993500	3.757200	-11.245000	24.330670	0.000532	20.683749
595.170985	-2.983000	3.758300	-11.210000	24.307281	0.000533	20.666449
596.169159	-3.001900	3.755900	-11.274000	24.299000	0.000534	20.678533
597.168396	-3.018200	3.756000	-11.336000	24.313181	0.000533	20.683749
598.170102	-3.006800	3.757000	-11.295000	24.336244	0.000533	20.681280
599.167832	-2.992500	3.756200	-11.240000	24.364187	0.000533	20.692717
600.171440	-2.989100	3.755500	-11.224000	24.425851	0.000534	20.685825
601.169362	-2.998000	3.755700	-11.259000	24.417466	0.000532	20.672196
602.169686	-2.993600	3.754600	-11.239000	24.391446	0.000534	20.695882
603.170477	-2.993200	3.754700	-11.238000	24.352192	0.000533	20.689218
604.168933	-3.002100	3.756000	-11.274000	24.376094	0.000535	20.685695
605.169606	-3.002300	3.753300	-11.267000	24.392416	0.000535	20.695906
606.170165	-2.995200	3.754200	-11.243000	24.379532	0.000536	20.681558
607.168818	-3.000800	3.755400	-11.268000	24.372989	0.000532	20.682580
608.171772	-2.998900	3.753900	-11.257000	24.424548	0.000531	20.693528
609.176071	-3.015800	3.753600	-11.319000	24.412659	0.000534	20.694402
610.177960	-2.984500	3.753000	-11.200000	24.368206	0.000531	20.689636
611.174644	-3.000200	3.752700	-11.258000	24.375295	0.000529	20.672565
612.171797	-2.999800	3.752500	-11.257000	24.352559	0.000531	20.686742
613.173159	-3.003600	3.752900	-11.270000	24.381832	0.000531	20.660154
614.179041	-3.023200	3.750700	-11.338000	24.397184	0.000531	20.670341
615.172962	-3.002100	3.752600	-11.264000	24.424695	0.000530	20.691304
616.176703	-2.971600	3.752900	-11.151000	24.445752	0.000530	20.675444
617.174380	-3.011300	3.751800	-11.297000	24.459196	0.000532	20.665223
618.176777	-3.018200	3.751000	-11.321000	24.448725	0.000533	20.676056
619.174530	-2.999800	3.750300	-11.249000	24.425307	0.000531	20.668208
620.174639	-2.994600	3.749500	-11.226000	24.419033	0.000532	20.660965
621.176618	-3.009700	3.749400	-11.284000	24.448759	0.000530	20.674193
622.177711	-3.022600	3.748300	-11.328000	24.407942	0.000532	20.692041
623.173795	-2.999000	3.749500	-11.244000	24.417118	0.000531	20.673270
624.173823	-3.000600	3.750500	-11.253000	24.432511	0.000530	20.683498
625.182122	-2.997600	3.750800	-11.243000	24.444929	0.000530	20.684577
626.175540	-3.008000	3.749900	-11.278000	24.472732	0.000531	20.674063
627.178042	-2.993200	3.748600	-11.219000	24.448979	0.000530	20.670621
628.183216	-3.012100	3.748000	-11.288000	24.469473	0.000529	20.669370
629.176390	-2.991500	3.748500	-11.212000	24.448051	0.000531	20.681070
630.175785	-3.009900	3.748300	-11.281000	24.448703	0.000528	20.661333
631.186135	-3.026400	3.746800	-11.339000	24.431957	0.000529	20.672036
632.180074	-3.005800	3.747100	-11.262000	24.429318	0.000530	20.686459
633.176267	-2.997000	3.747000	-11.229000	24.407381	0.000531	20.700488
634.176785	-2.996600	3.746200	-11.225000	24.403453	0.000531	20.690857
635.178102	-2.991000	3.747300	-11.208000	24.413672	0.000530	20.670287
636.179413	-3.007300	3.745300	-11.263000	24.433050	0.000530	20.684513
637.178863	-2.999900	3.745700	-11.236000	24.463028	0.000531	20.690881
638.180721	-2.986600	3.746600	-11.189000	24.456722	0.000528	20.684554
639.185126	-3.014700	3.746700	-11.293000	24.444091	0.000530	20.703178
640.180054	-2.981300	3.745600	-11.166000	24.480010	0.000530	20.672830
641.180346	-3.004200	3.746400	-11.253000	24.457773	0.000527	20.704576
642.181274	-3.022100	3.744600	-11.316000	24.479285	0.000530	20.702451
643.185497	-3.031400	3.743300	-11.346000	24.465986	0.000530	20.682468
644.180202	-2.998200	3.745400	-11.228000	24.503811	0.000527	20.672527
645.180767	-3.016900	3.743400	-11.292000	24.471283	0.000529	20.678773
646.181376	-3.008400	3.744100	-11.262000	24.480735	0.000527	20.687309
647.185468	-3.010400	3.743100	-11.267000	24.512171	0.000526	20.662896
648.184691	-3.026600	3.741800	-11.323000	24.512994	0.000528	20.701183
649.183541	-3.029700	3.742000	-11.336000	24.521427	0.000525	20.691626
650.182484	-2.996300	3.743900	-11.217000	24.536444	0.000528	20.680613
651.184331	-2.950600	3.743800	-11.045000	24.532908	0.000527	20.686549
652.184561	-2.996500	3.741600	-11.210000	24.524035	0.000524	20.693768
653.183325	-3.004300	3.742400	-11.242000	24.529111	0.000526	20.693171
654.184087	-2.996900	3.742600	-11.215000	24.522120	0.000526	20.682837
655.183194	-2.997900	3.741200	-11.214000	24.509580	0.000525	20.690171
656.183175	-3.020500	3.740000	-11.296000	24.468790	0.000526	20.704724
657.184772	-2.993200	3.741200	-11.198000	24.437940	0.000526	20.681832
658.200151	-2.989100	3.742100	-11.184000	24.439186	0.000526	20.662692
659.189197	-2.966700	3.741700	-11.099000	24.438780	0.000526	20.704013
660.184477	-2.986400	3.740900	-11.171000	24.459257	0.000527	20.685200
661.189043	-2.997000	3.739400	-11.206000	24.471561	0.000525	20.700392
662.190471	-2.974700	3.741600	-11.129000	24.487410	0.000526	20.693058
663.187370	-3.011600	3.739900	-11.263000	24.527124	0.000527	20.711094
664.189964	-3.004400	3.740700	-11.238000	24.552245	0.000527	20.697891
665.187685	-3.019400	3.737500	-11.283000	24.571938	0.000527	20.692994
666.184777	-3.017000	3.739500	-11.281000	24.593203	0.000525	20.690623
667.186086	-3.018700	3.739600	-11.288000	24.583150	0.000525	20.703296
668.185699	-3.010800	3.737900	-11.253000	24.550469	0.000526	20.661967
669.185357	-3.038200	3.736500	-11.352000	24.552181	0.000526	20.699723
670.189022	-3.006200	3.737800	-11.235000	24.574318	0.000524	20.696804
671.188531	-2.982300	3.738300	-11.148000	24.554071	0.000525	20.704939
672.186388	-3.000400	3.737800	-11.214000	24.613484	0.000525	20.688687
673.186717	-2.992600	3.737400	-11.183000	24.609321	0.000525	20.693994
674.186158	-2.987700	3.737800	-11.166000	24.569896	0.000524	20.698531
675.188272	-3.001100	3.737100	-11.215000	24.578843	0.000525	20.695180
676.187478	-3.014900	3.735900	-11.263000	24.558326	0.000525	20.691664
677.187747	-2.991500	3.736500	-11.177000	24.560290	0.000523	20.691264
678.187871	-3.005700	3.736000	-11.228000	24.571127	0.000525	20.700241
679.200978	-2.989100	3.736000	-11.166000	24.578191	0.000524	20.703536
680.193466	-2.993300	3.735900	-11.182000	24.555785	0.000525	20.706185
681.189248	-3.008300	3.735000	-11.235000	24.544810	0.000524	20.716037
682.190375	-2.986700	3.735400	-11.155000	24.575870	0.000525	20.687455
683.189762	-2.987400	3.734900	-11.157000	24.539205	0.000523	20.690971
684.189882	-3.003100	3.733900	-11.213000	24.571658	0.000523	20.690342
685.190262	-2.978400	3.735300	-11.125000	24.570640	0.000522	20.713978
686.193600	-3.000500	3.734200	-11.203000	24.579587	0.000522	20.695453
687.189814	-3.011100	3.733900	-11.241000	24.580368	0.000524	20.702401
688.191695	-3.021300	3.733300	-11.279000	24.548649	0.000522	20.702344
689.192312	-3.002100	3.733500	-11.207000	24.553336	0.000521	20.701357
690.193538	-3.011300	3.733200	-11.241000	24.565126	0.000522	20.717929
691.195369	-2.976300	3.733400	-11.111000	24.591712	0.000521	20.719948
692.193486	-2.997200	3.732800	-11.187000	24.596437	0.000521	20.714258
693.193685	-2.991700	3.731200	-11.161000	24.579523	0.000520	20.703450
694.195552	-3.004900	3.732900	-11.216000	24.588372	0.000519	20.718020
695.196854	-3.026700	3.732300	-11.295000	24.631790	0.000521	20.715592
696.196754	-3.011300	3.731900	-11.237000	24.637044	0.000519	20.711381
697.198857	-3.032000	3.731400	-11.312000	24.622461	0.000520	20.705757
698.195457	-2.973300	3.731600	-11.095000	24.595632	0.000520	20.708708
699.196417	-3.005500	3.730500	-11.211000	24.627733	0.000519	20.698718
700.197882	-2.976400	3.731800	-11.107000	24.620221	0.000519	20.714889
701.202555	-3.009000	3.730800	-11.225000	24.629672	0.000521	20.736228
702.198356	-2.989000	3.730400	-11.149000	24.642594	0.000521	20.725012
703.199466	-3.001500	3.730400	-11.196000	24.683875	0.000518	20.703371
704.197148	-2.997900	3.729700	-11.179000	24.652192	0.000521	20.741756
705.201833	-3.016300	3.728400	-11.245000	24.625324	0.000521	20.728545
706.200856	-3.005200	3.727800	-11.202000	24.657463	0.000519	20.730449
707.204664	-2.993800	3.728700	-11.162000	24.686760	0.000520	20.730923
708.200846	-2.977800	3.729300	-11.104000	24.697897	0.000519	20.727874
709.203529	-3.017900	3.728500	-11.250000	24.689416	0.000518	20.746866
710.202447	-3.003700	3.728800	-11.199000	24.692300	0.000518	20.734112
711.201984	-3.007400	3.727300	-11.209000	24.652569	0.000517	20.728857
712.205528	-3.016900	3.727500	-11.244000	24.662818	0.000516	20.725390
713.206565	-3.027300	3.727400	-11.283000	24.628844	0.000518	20.739665
714.203633	-3.010400	3.726900	-11.218000	24.625186	0.000517	20.730304
715.203364	-3.014400	3.727100	-11.233000	24.665947	0.000517	20.741807
716.209377	-3.009300	3.726800	-11.213000	24.707927	0.000517	20.724189
717.206849	-3.022300	3.726100	-11.260000	24.698753	0.000517	20.742485
718.207200	-3.013400	3.726900	-11.230000	24.716456	0.000518	20.727058
719.203559	-3.019500	3.724200	-11.244000	24.725490	0.000519	20.738495
720.203606	-2.999700	3.726000	-11.176000	24.719113	0.000517	20.712654
721.210002	-3.009500	3.725500	-11.211000	24.716995	0.000518	20.726651
722.205595	-2.983800	3.724800	-11.113000	24.748285	0.000516	20.742404
723.204926	-2.997100	3.724000	-11.161000	24.752709	0.000517	20.739731
724.204850	-2.983900	3.725000	-11.114000	24.734502	0.000517	20.737107
725.208295	-3.001900	3.724300	-11.178000	24.768643	0.000517	20.754300
726.205967	-2.998200	3.724600	-11.166000	24.738289	0.000515	20.741856
727.206344	-2.989000	3.725200	-11.134000	24.723187	0.000515	20.752305
728.206929	-2.997700	3.725200	-11.166000	24.718511	0.000515	20.743345
729.208849	-2.981400	3.724700	-11.103000	24.699659	0.000516	20.739127
730.207617	-2.994300	3.724700	-11.151000	24.719284	0.000515	20.744121
731.209291	-2.988600	3.723300	-11.125000	24.746640	0.000516	20.770626
732.208415	-2.990700	3.724000	-11.137000	24.695326	0.000518	20.740468
733.209919	-3.000900	3.721600	-11.167000	24.684637	0.000516	20.736854
734.214046	-2.979900	3.723100	-11.094000	24.727236	0.000517	20.741195
735.211525	-2.983300	3.722600	-11.105000	24.737973	0.000515	20.741539
736.211780	-2.973500	3.723300	-11.071000	24.700825	0.000515	20.769221
737.211881	-2.985200	3.721500	-11.109000	24.702862	0.000515	20.752772
738.212125	-3.010800	3.722000	-11.205000	24.694430	0.000513	20.745733
739.223002	-3.020200	3.721600	-11.238000	24.690926	0.000515	20.755968
740.214085	-2.987900	3.721500	-11.119000	24.709053	0.000512	20.745709
741.213851	-2.995400	3.721300	-11.146000	24.715090	0.000513	20.783062
742.213932	-3.010200	3.719900	-11.197000	24.719490	0.000514	20.768985
743.213135	-2.996500	3.720900	-11.149000	24.755774	0.000512	20.743755
744.215520	-3.030200	3.720000	-11.271000	24.762983	0.000513	20.769009
745.218621	-2.996800	3.720000	-11.147000	24.759399	0.000512	20.760197
746.215324	-3.020200	3.718000	-11.228000	24.756736	0.000514	20.778861
747.216040	-2.989200	3.719900	-11.119000	24.802314	0.000512	20.762486
748.218388	-3.017500	3.718500	-11.220000	24.792017	0.000513	20.749782
749.216985	-3.023000	3.718200	-11.239000	24.807153	0.000512	20.748377
750.219033	-2.995700	3.717300	-11.135000	24.781395	0.000511	20.774210
751.216566	-2.973000	3.718900	-11.055000	24.762538	0.000510	20.745328
752.217598	-2.992600	3.718400	-11.128000	24.774276	0.000510	20.761850
753.217558	-2.988500	3.717600	-11.109000	24.769478	0.000512	20.760354
754.216947	-2.990400	3.718900	-11.120000	24.742564	0.000511	20.779338
755.217947	-2.988400	3.717800	-11.109000	24.741342	0.000513	20.751084
756.221252	-2.997100	3.717400	-11.141000	24.760063	0.000512	20.753276
757.219078	-3.017500	3.715800	-11.212000	24.733660	0.000510	20.764238
758.217509	-3.013400	3.716300	-11.197000	24.728276	0.000512	20.774009
759.219162	-3.016900	3.715400	-11.208000	24.766727	0.000511	20.763757
760.219737	-3.013600	3.716200	-11.198000	24.782539	0.000510	20.769668
761.223612	-3.013800	3.716400	-11.199000	24.781814	0.000510	20.775579
762.218171	-2.999800	3.716500	-11.148000	24.776991	0.000509	20.784964
763.220599	-3.023600	3.715200	-11.233000	24.759608	0.000509	20.767044
764.218626	-3.010000	3.715000	-11.182000	24.732749	0.000510	20.770437
765.220239	-2.993100	3.714600	-11.118000	24.769726	0.000510	20.776250
766.221532	-2.998200	3.715000	-11.137000	24.755551	0.000510	20.781940
767.221430	-2.988900	3.714600	-11.102000	24.759796	0.000509	20.784777
768.218678	-2.990000	3.714100	-11.104000	24.730054	0.000508	20.773896
769.219813	-2.997500	3.713600	-11.131000	24.728538	0.000509	20.773324
770.221407	-2.979300	3.713600	-11.062000	24.726918	0.000509	20.810578
771.221026	-2.986800	3.714700	-11.095000	24.784390	0.000510	20.762516
772.223524	-3.004900	3.713700	-11.159000	24.808657	0.000507	20.775965
773.222816	-2.986500	3.713500	-11.090000	24.793881	0.000510	20.764929
774.223416	-2.988500	3.713700	-11.098000	24.803925	0.000508	20.771216
775.226465	-2.996900	3.713700	-11.128000	24.800936	0.000507	20.801881
776.224484	-3.002100	3.712500	-11.144000	24.759757	0.000505	20.785212
777.229700	-2.972300	3.712400	-11.033000	24.782020	0.000506	20.792381
778.225677	-3.000800	3.712200	-11.139000	24.803673	0.000507	20.788981
779.224378	-2.986600	3.711700	-11.085000	24.811403	0.000506	20.782515
780.225761	-2.989800	3.712100	-11.097000	24.804317	0.000504	20.788204
781.224148	-2.984300	3.711700	-11.076000	24.779405	0.000504	20.787386
782.225164	-2.990400	3.711700	-11.099000	24.775163	0.000504	20.788819
783.229974	-2.983700	3.711200	-11.073000	24.770592	0.000507	20.792767
784.228395	-3.009500	3.710400	-11.166000	24.818116	0.000504	20.787829
785.227858	-2.991300	3.711000	-11.099000	24.847131	0.000504	20.782335
786.232430	-3.006400	3.709900	-11.152000	24.867576	0.000506	20.797638
787.230786	-2.997500	3.709400	-11.118000	24.937910	0.000504	20.795211
788.233282	-2.985400	3.710600	-11.077000	24.931027	0.000503	20.778820
789.231884	-3.000700	3.709300	-11.130000	24.902283	0.000504	20.816826
790.231250	-3.007900	3.708600	-11.154000	24.909639	0.000503	20.799078
791.265229	-3.001300	3.709800	-11.133000	24.906112	0.000504	20.812133
792.251190	-3.009200	3.709200	-11.160000	24.890081	0.000502	20.780397
793.243750	-2.998100	3.709700	-11.121000	24.898830	0.000503	20.788229
794.233217	-3.004900	3.708700	-11.143000	24.892387	0.000504	20.799781
795.234778	-3.011700	3.708300	-11.168000	24.862624	0.000501	20.801677
796.232513	-3.019100	3.706600	-11.189000	24.864440	0.000503	20.793069
797.235450	-3.007400	3.707500	-11.149000	24.811802	0.000503	20.791450
798.235037	-3.001900	3.708000	-11.131000	24.820356	0.000502	20.797663
799.253653	-3.015300	3.707500	-11.179000	24.808919	0.000502	20.801358
800.253126	-3.010200	3.705900	-11.154000	24.826897	0.000499	20.799486
801.253781	-3.006800	3.706400	-11.143000	24.819656	0.000500	20.804073
802.253735	-3.005100	3.705700	-11.135000	24.865385	0.000501	20.816302
803.254062	-2.995200	3.706200	-11.099000	24.901884	0.000500	20.815951
804.256370	-3.002800	3.705200	-11.125000	24.901388	0.000501	20.820194
805.237138	-3.001100	3.705800	-11.120000	24.930139	0.000500	20.803532
806.263482	-2.986400	3.706100	-11.067000	24.914525	0.000500	20.817258
807.258949	-3.008800	3.705100	-11.147000	24.871079	0.000499	20.809689
808.259048	-3.027800	3.704000	-11.214000	24.883386	0.000499	20.804972
809.256465	-2.971900	3.706300	-11.014000	24.910714	0.000499	20.805372
810.262461	-2.984300	3.704700	-11.056000	24.914241	0.000499	20.801326
811.262566	-2.990700	3.704600	-11.079000	24.930856	0.000500	20.810890
812.260205	-3.003600	3.704000	-11.124000	24.940020	0.000498	20.819140
813.262849	-2.985900	3.704700	-11.060000	24.915291	0.000499	20.810915
814.240193	-3.012100	3.703900	-11.156000	24.931948	0.000500	20.807244
815.243356	-2.993300	3.703200	-11.083000	24.904467	0.000499	20.820439
816.240561	-3.009000	3.702800	-11.141000	24.895971	0.000498	20.816654
817.254039	-3.000400	3.703800	-11.112000	24.869311	0.000499	20.820243
818.239861	-2.982000	3.704400	-11.045000	24.882393	0.000498	20.818199
819.244923	-3.025200	3.702700	-11.200000	24.932298	0.000498	20.822768
820.240320	-3.000800	3.702100	-11.109000	24.928217	0.000498	20.833845
821.243838	-3.005900	3.702100	-11.127000	24.930775	0.000498	20.817447
822.262704	-2.973200	3.703800	-11.011000	24.922566	0.000496	20.812052
823.249936	-2.978700	3.702200	-11.027000	24.942862	0.000496	20.814880
824.265497	-3.000500	3.702100	-11.107000	24.982112	0.000497	20.823456
825.271847	-2.992500	3.700200	-11.071000	24.988831	0.000495	20.833993
826.261125	-3.000600	3.700200	-11.102000	24.999639	0.000494	20.819238
827.244414	-3.016900	3.700500	-11.163000	24.973585	0.000493	20.840027
828.246185	-3.005500	3.701200	-11.123000	24.947456	0.000495	20.835138
829.241642	-3.004800	3.701300	-11.120000	24.917442	0.000493	20.830143
830.245046	-3.022700	3.700500	-11.184000	24.870298	0.000493	20.853474
831.241344	-3.017100	3.699400	-11.160000	24.850529	0.000494	20.822255
832.244325	-2.993700	3.699900	-11.076000	24.874427	0.000494	20.849558
833.257969	-3.002500	3.699900	-11.108000	24.887802	0.000495	20.844490
834.268022	-2.990300	3.700000	-11.063000	24.865077	0.000493	20.811725
835.249025	-2.989000	3.699600	-11.057000	24.878973	0.000494	20.845112
836.263819	-2.989600	3.699400	-11.059000	24.913338	0.000494	20.829817
837.245582	-3.016500	3.699300	-11.158000	24.925645	0.000492	20.823677
838.247223	-3.015900	3.697700	-11.150000	24.962370	0.000492	20.854373
839.245661	-3.006100	3.698800	-11.118000	24.937805	0.000492	20.852951
840.245519	-2.975500	3.698200	-11.003000	24.958965	0.000493	20.850956
841.249693	-2.985500	3.697500	-11.037000	24.976461	0.000493	20.837224
842.245385	-2.980800	3.697500	-11.021000	24.989516	0.000494	20.840845
843.245058	-2.991300	3.698400	-11.062000	25.025840	0.000494	20.831787
844.245330	-2.998100	3.697500	-11.084000	24.980818	0.000493	20.853450
845.246753	-3.016800	3.695500	-11.148000	24.969497	0.000492	20.853941
846.249837	-3.007700	3.696900	-11.119000	24.977038	0.000492	20.843967
847.248702	-3.014400	3.696300	-11.142000	24.972559	0.000492	20.838523
848.247662	-3.003800	3.696500	-11.103000	24.992977	0.000492	20.831991
849.264761	-3.018100	3.694700	-11.150000	25.010497	0.000490	20.839145
850.248782	-3.022700	3.695200	-11.168000	24.963014	0.000489	20.837002
851.248507	-3.001500	3.695100	-11.090000	24.980933	0.000491	20.843608
852.267854	-3.021100	3.694600	-11.161000	24.979092	0.000487	20.848399
853.252397	-2.985500	3.695500	-11.032000	25.010318	0.000490	20.834698
854.248224	-3.020000	3.693000	-11.152000	25.023642	0.000490	20.837641
855.268878	-2.987900	3.694700	-11.037000	25.011231	0.000490	20.833244
856.271616	-2.985300	3.693100	-11.024000	25.029083	0.000489	20.817499
857.255640	-3.001700	3.694200	-11.087000	25.004846	0.000487	20.832998
858.248434	-2.997500	3.694800	-11.074000	25.019653	0.000489	20.828421
859.256921	-3.022000	3.692600	-11.158000	25.021175	0.000487	20.823786
860.250473	-3.005500	3.692700	-11.097000	25.048117	0.000487	20.827122
861.250870	-3.022200	3.693400	-11.160000	25.088886	0.000489	20.837226
862.252436	-3.007100	3.693300	-11.105000	25.084089	0.000489	20.826721
863.251577	-2.998700	3.691900	-11.070000	25.101884	0.000487	20.827989
864.276958	-3.005300	3.691900	-11.094000	25.093651	0.000488	20.824940
865.253580	-3.005700	3.692100	-11.097000	25.064324	0.000487	20.806881
866.252435	-2.990800	3.692900	-11.044000	25.087315	0.000487	20.824270
867.254322	-3.004600	3.691000	-11.089000	25.119825	0.000486	20.815654
868.256287	-2.995900	3.691100	-11.057000	25.116274	0.000488	20.809245
869.252047	-2.995500	3.690700	-11.054000	25.077868	0.000484	20.803881
870.253987	-2.998300	3.690200	-11.064000	25.064912	0.000485	20.790875
871.286402	-3.007700	3.689900	-11.097000	25.091713	0.000485	20.803081
872.277868	-3.005300	3.691100	-11.092000	25.098570	0.000486	20.813283
873.273493	-2.990500	3.690500	-11.035000	25.113962	0.000486	20.804078
874.276611	-3.008400	3.690900	-11.104000	25.110533	0.000486	20.819128
875.274393	-3.016000	3.688800	-11.125000	25.120697	0.000486	20.818425
876.276761	-2.993400	3.690800	-11.048000	25.114784	0.000483	20.812490
877.269973	-3.020700	3.689100	-11.143000	25.127757	0.000484	20.807969
878.283894	-3.004500	3.689100	-11.083000	25.069285	0.000483	20.800956
879.271638	-3.004800	3.687600	-11.079000	25.041392	0.000484	20.816104
880.271130	-2.984300	3.688100	-11.005000	25.002812	0.000481	20.781645
881.254762	-2.994700	3.688100	-11.044000	25.045080	0.000482	20.793254
882.255599	-3.003400	3.688500	-11.077000	25.054356	0.000484	20.779331
883.255289	-2.977000	3.687700	-10.977000	25.086346	0.000482	20.789158
884.255256	-2.964000	3.687600	-10.929000	25.103032	0.000484	20.802115
885.260895	-2.984500	3.688300	-11.007000	25.136119	0.000481	20.790760
886.255648	-2.982800	3.687600	-10.999000	25.060227	0.000480	20.798501
887.270196	-2.987100	3.687700	-11.014000	25.029996	0.000479	20.792337
888.255430	-2.993600	3.686500	-11.035000	25.010752	0.000480	20.800995
889.263556	-3.005400	3.686200	-11.078000	24.996213	0.000480	20.797307
890.254889	-3.000200	3.686300	-11.058000	24.978140	0.000479	20.798132
891.272942	-3.009100	3.685600	-11.089000	24.999079	0.000482	20.787856
892.279250	-2.987400	3.686200	-11.011000	25.036022	0.000480	20.794592
893.288141	-2.990600	3.685600	-11.022000	25.044084	0.000480	20.786563
894.275830	-3.003700	3.686300	-11.072000	25.036722	0.000481	20.778699
895.260208	-3.003700	3.685000	-11.068000	25.052789	0.000481	20.795302
896.282259	-2.987500	3.685100	-11.008000	25.062481	0.000479	20.781797
897.281895	-3.030600	3.684500	-11.165000	25.057660	0.000481	20.772216
898.287893	-2.980800	3.684000	-10.980000	25.020042	0.000479	20.790406
899.259581	-2.992300	3.683600	-11.022000	25.020889	0.000479	20.789359
900.263188	-2.976600	3.684100	-10.964000	24.993670	0.000478	20.792384
901.261827	-3.003200	3.684700	-11.064000	24.976534	0.000477	20.781348
902.262553	-3.001600	3.684400	-11.057000	25.000129	0.000476	20.793651
903.263101	-3.009500	3.682900	-11.083000	24.991854	0.000478	20.785819
904.278377	-3.002800	3.683400	-11.059000	24.952498	0.000475	20.783301
905.277441	-2.981000	3.682300	-10.975000	24.966971	0.000477	20.787396
906.279258	-2.982300	3.683600	-10.984000	24.964977	0.000477	20.778282
907.280293	-2.999800	3.681800	-11.044000	24.974953	0.000476	20.772648
908.280305	-2.992900	3.683100	-11.022000	24.977780	0.000473	20.769322
909.283097	-3.012500	3.681800	-11.090000	24.997229	0.000477	20.769403
910.286501	-2.998300	3.682400	-11.039000	24.983432	0.000475	20.772149
911.282496	-2.998500	3.681000	-11.036000	24.996186	0.000475	20.748915
912.267042	-2.986400	3.681800	-10.994000	25.011375	0.000473	20.760843
913.264513	-3.009200	3.680600	-11.074000	25.041876	0.000474	20.772019
914.265271	-2.992800	3.680600	-11.014000	25.030750	0.000474	20.770808
915.265634	-3.009200	3.681200	-11.076000	25.052104	0.000475	20.767587
916.270033	-2.983700	3.679900	-10.979000	25.067520	0.000473	20.765993
917.268926	-3.000400	3.679400	-11.038000	25.060386	0.000472	20.776375
918.275159	-2.983700	3.679500	-10.978000	25.061600	0.000470	20.771430
919.264589	-3.003800	3.679500	-11.052000	25.089671	0.000472	20.771633
920.270369	-2.985600	3.679500	-10.984000	25.103646	0.000471	20.787084
921.266268	-2.972000	3.681100	-10.939000	25.119428	0.000472	20.786807
922.284426	-2.985100	3.677600	-10.977000	25.093108	0.000474	20.759435
923.279584	-2.991800	3.678600	-11.004000	25.049977	0.000471	20.758814
924.290267	-3.017400	3.677700	-11.096000	25.060418	0.000472	20.767398
925.297388	-3.010200	3.677000	-11.067000	25.051167	0.000471	20.773284
926.268906	-2.986200	3.678800	-10.985000	25.026359	0.000470	20.776832
927.274153	-3.021700	3.676100	-11.108000	25.022157	0.000469	20.781623
928.266429	-2.982600	3.677800	-10.968000	25.043592	0.000470	20.753826
929.268010	-3.014900	3.677500	-11.086000	25.092114	0.000470	20.747532
930.266086	-2.982200	3.677100	-10.965000	25.095844	0.000468	20.755544
931.267969	-2.984800	3.677300	-10.975000	25.087545	0.000469	20.747212
932.264969	-2.983100	3.676500	-10.966000	25.078440	0.000468	20.765575
933.268198	-3.004200	3.676900	-11.044000	25.111878	0.000469	20.746984
934.283653	-2.995300	3.676300	-11.011000	25.090623	0.000469	20.759787
935.290751	-2.991400	3.676200	-10.996000	25.090875	0.000468	20.751505
936.268186	-2.997300	3.675800	-11.017000	25.043665	0.000467	20.749632
937.268081	-3.013700	3.674000	-11.071000	25.021293	0.000466	20.769850
938.269653	-2.978700	3.675800	-10.947000	25.048959	0.000466	20.776758
939.281597	-3.016500	3.673800	-11.081000	25.038494	0.000467	20.740648
940.270927	-3.004400	3.674700	-11.040000	25.048039	0.000464	20.753549
941.274559	-3.008600	3.674800	-11.055000	25.078766	0.000466	20.761634
942.271337	-3.003900	3.674000	-11.036000	25.115738	0.000464	20.759393
943.286578	-2.986500	3.674600	-10.973000	25.076656	0.000463	20.744817
944.300169	-2.990100	3.673400	-10.983000	25.067486	0.000464	20.745569
945.270842	-2.983700	3.673000	-10.958000	25.111788	0.000466	20.750212
946.269869	-2.987900	3.671900	-10.971000	25.110899	0.000467	20.758330
947.277255	-2.977000	3.672700	-10.932000	25.126829	0.000462	20.738758
948.275702	-3.010000	3.672600	-11.054000	25.113286	0.000465	20.769734
949.277713	-3.003800	3.672900	-11.032000	25.058347	0.000461	20.756784
950.272252	-2.999400	3.672900	-11.016000	25.039722	0.000463	20.748519
951.290349	-3.004800	3.672500	-11.034000	25.016877	0.000461	20.747399
952.274441	-3.009600	3.670300	-11.045000	25.066531	0.000463	20.742714
953.294215	-3.014800	3.671900	-11.069000	25.085002	0.000462	20.734228
954.291326	-2.976600	3.671700	-10.929000	25.090474	0.000463	20.750627
955.290059	-3.014600	3.669600	-11.062000	25.121526	0.000461	20.748134
956.274054	-3.012800	3.669500	-11.054000	25.092591	0.000460	20.732837
957.300092	-3.009400	3.668300	-11.037000	25.070618	0.000460	20.743498
958.278185	-2.999900	3.670000	-11.009000	25.054713	0.000462	20.741281
959.297351	-2.982200	3.669400	-10.941000	25.006385	0.000460	20.751566
960.275941	-3.004100	3.668600	-11.020000	25.036959	0.000459	20.750961
961.295302	-3.024000	3.668500	-11.093000	25.055559	0.000460	20.737864
962.294724	-3.003900	3.668900	-11.019000	25.048344	0.000460	20.735837
963.296194	-3.001400	3.667300	-11.006000	25.053254	0.000460	20.760206
964.294491	-3.002300	3.667400	-11.010000	25.067669	0.000459	20.734847
965.277743	-3.018700	3.667600	-11.070000	25.098176	0.000458	20.730857
966.278910	-3.009800	3.667200	-11.036000	25.052414	0.000459	20.747035
967.286238	-3.018900	3.666400	-11.067000	25.021907	0.000459	20.730162
968.282665	-3.030800	3.666200	-11.111000	25.029815	0.000458	20.735729
969.281541	-2.999300	3.666700	-10.997000	25.045305	0.000459	20.745114
970.279058	-2.991100	3.667000	-10.967000	25.079216	0.000458	20.751654
971.280728	-3.006800	3.665900	-11.022000	25.083027	0.000457	20.729874
972.279321	-3.001700	3.666900	-11.006000	25.106049	0.000455	20.719319
973.277182	-3.002000	3.665800	-11.004000	25.102596	0.000456	20.743829
974.299875	-3.022200	3.664800	-11.074000	25.108134	0.000456	20.745121
975.278557	-2.992600	3.665200	-10.967000	25.140732	0.000454	20.721420
976.279881	-3.010200	3.665400	-11.033000	25.150454	0.000454	20.724543
977.279884	-3.003600	3.664800	-11.006000	25.150657	0.000453	20.738498
978.277800	-2.980100	3.665400	-10.922000	25.177432	0.000454	20.728867
979.299460	-2.985700	3.664900	-10.942000	25.191699	0.000456	20.722801
980.302034	-2.996800	3.664200	-10.980000	25.171520	0.000453	20.717715
981.296560	-2.991900	3.664600	-10.963000	25.163662	0.000454	20.730216
982.308474	-2.992900	3.663600	-10.963000	25.132000	0.000452	20.722137
983.282753	-2.994200	3.663600	-10.969000	25.142415	0.000453	20.712204
984.305696	-2.996000	3.662600	-10.972000	25.195093	0.000453	20.734744
985.305645	-2.992200	3.662600	-10.959000	25.160671	0.000451	20.708246
986.298762	-3.009200	3.662300	-11.019000	25.136282	0.000451	20.736395
987.281875	-2.988500	3.662500	-10.945000	25.124286	0.000449	20.699219
988.279932	-2.982400	3.662000	-10.920000	25.115703	0.000450	20.716209
989.282873	-3.013200	3.662000	-11.034000	25.086027	0.000450	20.721506
990.281590	-2.997100	3.661100	-10.972000	25.120955	0.000453	20.723378
991.284120	-2.994700	3.660300	-10.961000	25.130703	0.000450	20.723206
992.282434	-3.008700	3.661300	-11.014000	25.107510	0.000452	20.717467
993.310127	-2.989900	3.659600	-10.941000	25.075944	0.000450	20.719919
994.309390	-3.032800	3.658700	-11.096000	25.126819	0.000449	20.711720
995.283974	-3.006100	3.658800	-10.998000	25.109879	0.000448	20.707042
996.286967	-2.984200	3.661200	-10.925000	25.108959	0.000449	20.710386
997.284156	-2.986300	3.659400	-10.926000	25.097118	0.000449	20.724105
998.301299	-2.990400	3.658800	-10.941000	25.080545	0.000446	20.720744
999.284158	-2.989600	3.659400	-10.939000	25.082084	0.000450	20.726083
1000.284948	-2.976000	3.660000	-10.892000	25.095936	0.000448	20.730505
1001.286649	-2.998800	3.658400	-10.970000	25.102752	0.000448	20.728813
1002.285991	-3.001900	3.657900	-10.979000	25.108616	0.000449	20.719051
1003.302286	-3.005400	3.657600	-10.992000	25.113836	0.000447	20.722395
1004.306200	-3.007700	3.658200	-11.002000	25.141060	0.000447	20.728862
1005.302522	-2.972000	3.657900	-10.870000	25.150880	0.000446	20.715486
1006.304820	-3.005100	3.657200	-10.989000	25.172981	0.000445	20.713491
1007.312625	-3.013500	3.657300	-11.020000	25.166540	0.000445	20.708447
1008.292416	-3.010700	3.657000	-11.008000	25.164137	0.000444	20.720734
1009.306353	-2.989300	3.657300	-10.931000	25.182850	0.000445	20.726719
1010.315181	-3.010900	3.655500	-11.006000	25.158795	0.000443	20.701620
1011.290119	-2.999300	3.656500	-10.967000	25.149649	0.000445	20.698602
1012.293003	-3.024400	3.655200	-11.054000	25.150888	0.000445	20.688939
1013.289728	-3.009600	3.654300	-10.997000	25.171302	0.000443	20.673396
1014.292034	-3.018600	3.655100	-11.032000	25.178264	0.000444	20.716425
1015.299949	-3.008600	3.655000	-10.995000	25.196929	0.000443	20.701022
1016.290864	-2.995800	3.655300	-10.950000	25.142075	0.000440	20.734623
1017.296077	-3.025100	3.653100	-11.050000	25.106847	0.000442	20.710637
1018.292158	-2.984800	3.654700	-10.908000	25.127034	0.000440	20.678268
1019.311041	-2.990600	3.653600	-10.926000	25.157287	0.000440	20.691096
1020.313842	-2.991800	3.653600	-10.930000	25.190104	0.000443	20.682789
1021.320015	-2.993200	3.652300	-10.931000	25.175714	0.000441	20.690630
1022.292733	-3.008400	3.652600	-10.988000	25.215331	0.000440	20.682512
1023.298149	-2.964700	3.653500	-10.832000	25.195495	0.000440	20.712386
1024.317548	-3.014300	3.651800	-11.006000	25.188190	0.000439	20.702681
1025.311071	-3.010700	3.651300	-10.992000	25.208173	0.000441	20.710415
1026.322423	-3.002800	3.651700	-10.965000	25.225843	0.000439	20.701128
1027.294242	-3.012700	3.651100	-10.999000	25.184877	0.000440	20.702674
1028.313815	-3.015600	3.651300	-11.010000	25.143908	0.000440	20.703271
1029.313653	-3.034100	3.650500	-11.075000	25.170935	0.000437	20.701480
1030.329745	-2.992200	3.650500	-10.922000	25.178565	0.000439	20.689224
1031.302345	-3.003300	3.650600	-10.963000	25.197132	0.000439	20.687949
1032.296044	-2.993900	3.649900	-10.926000	25.202953	0.000436	20.700433
1033.298937	-3.016600	3.650300	-11.011000	25.238269	0.000434	20.685627
1034.294945	-3.006700	3.649200	-10.972000	25.197726	0.000438	20.671001
1035.312642	-2.997400	3.649700	-10.939000	25.155121	0.000435	20.697932
1036.318663	-3.020900	3.648100	-11.020000	25.166131	0.000437	20.701398
1037.296799	-3.016600	3.649800	-11.010000	25.173810	0.000437	20.692037
1038.331484	-2.970800	3.649400	-10.840000	25.149250	0.000436	20.695831
1039.302445	-2.996900	3.648100	-10.933000	25.182385	0.000438	20.683101
1040.319780	-3.005300	3.647700	-10.961000	25.169560	0.000432	20.662637
1041.322970	-2.997800	3.647200	-10.933000	25.160684	0.000436	20.689765
1042.305109	-3.003400	3.647300	-10.954000	25.175626	0.000434	20.682480
1043.298242	-3.018700	3.646800	-11.008000	25.187703	0.000433	20.696502
1044.301363	-3.004100	3.646100	-10.952000	25.193003	0.000433	20.684278
1045.302419	-3.000900	3.646000	-10.940000	25.238115	0.000433	20.685946
1046.322412	-3.014000	3.645300	-10.985000	25.248082	0.000432	20.676037
1047.318804	-3.004400	3.646200	-10.954000	25.274284	0.000433	20.671050
1048.320218	-3.013900	3.646400	-10.989000	25.231479	0.000432	20.693983
1049.304518	-3.000100	3.645000	-10.935000	25.250688	0.000433	20.683870
1050.303385	-2.993000	3.645000	-10.909000	25.291774	0.000433	20.687190
1051.305421	-2.997900	3.644900	-10.927000	25.311063	0.000433	20.683797
1052.303193	-2.998500	3.644400	-10.927000	25.304281	0.000430	20.682202
1053.305830	-2.999800	3.643900	-10.930000	25.274098	0.000432	20.671811
1054.301486	-2.955200	3.645600	-10.773000	25.293964	0.000430	20.675637
1055.304901	-3.009900	3.644500	-10.968000	25.310388	0.000429	20.678851
1056.303805	-3.032000	3.643800	-11.046000	25.332559	0.000429	20.655116
1057.326725	-3.018000	3.642200	-10.992000	25.303874	0.000430	20.690804
1058.306921	-3.006800	3.641900	-10.949000	25.285408	0.000428	20.673684
1059.303062	-3.010200	3.643600	-10.967000	25.293233	0.000428	20.660202
1060.308784	-3.006300	3.641500	-10.946000	25.309803	0.000429	20.695809
1061.303987	-3.017100	3.641400	-10.985000	25.267308	0.000429	20.671632
1062.305242	-3.011100	3.641500	-10.964000	25.212443	0.000428	20.668231
1063.304433	-3.017600	3.641100	-10.986000	25.229812	0.000427	20.679981
1064.302536	-2.986300	3.641900	-10.875000	25.244852	0.000427	20.673268
1065.330965	-3.021100	3.640800	-10.998000	25.211474	0.000429	20.677691
1066.322936	-3.013000	3.640500	-10.967000	25.202168	0.000428	20.683996
1067.319988	-3.005300	3.640400	-10.939000	25.197322	0.000428	20.667276
1068.309121	-2.997300	3.638900	-10.906000	25.218869	0.000425	20.667096
1069.331826	-2.990800	3.639200	-10.883000	25.233233	0.000427	20.652592
1070.318822	-3.020100	3.640000	-10.992000	25.241458	0.000428	20.667489
1071.333498	-2.997300	3.638800	-10.906000	25.276559	0.000425	20.678551
1072.309239	-3.002500	3.637600	-10.921000	25.317963	0.000424	20.667015
1073.303743	-2.999800	3.638000	-10.911000	25.308746	0.000425	20.661079
1074.305286	-2.991000	3.639300	-10.885000	25.310579	0.000425	20.666239
1075.322392	-2.993500	3.636700	-10.886000	25.310302	0.000424	20.656477
1076.324744	-2.987100	3.638600	-10.867000	25.288334	0.000423	20.672354
1077.305159	-2.982000	3.638000	-10.848000	25.284395	0.000421	20.676934
1078.330867	-3.001900	3.638000	-10.920000	25.288229	0.000419	20.686000
1079.333430	-2.984800	3.637300	-10.856000	25.284321	0.000421	20.680654
1080.328617	-2.976300	3.636900	-10.824000	25.314650	0.000422	20.657524
1081.332371	-2.991100	3.636000	-10.874000	25.335722	0.000424	20.653076
1082.323758	-3.015600	3.635300	-10.962000	25.322891	0.000424	20.666273
1083.337273	-3.012600	3.635500	-10.951000	25.358634	0.000421	20.670868
1084.338437	-2.975500	3.636400	-10.819000	25.301868	0.000422	20.671718
1085.310038	-2.976800	3.636000	-10.823000	25.313698	0.000422	20.668423
1086.309464	-2.967600	3.635200	-10.786000	25.296299	0.000420	20.682723
1087.317418	-2.991200	3.634800	-10.871000	25.310344	0.000420	20.677384
1088.311925	-2.990600	3.634100	-10.867000	25.298335	0.000420	20.655366
1089.309614	-2.983900	3.634400	-10.844000	25.290282	0.000421	20.671465
1090.311890	-2.995800	3.633800	-10.885000	25.307828	0.000418	20.688610
1091.312757	-2.999900	3.633000	-10.898000	25.341528	0.000419	20.690204
1092.315197	-3.021100	3.632100	-10.972000	25.327508	0.000420	20.678971
1093.313709	-2.995800	3.634200	-10.886000	25.363772	0.000420	20.669389
1094.313428	-3.015800	3.632000	-10.953000	25.356241	0.000418	20.687907
1095.312786	-3.014100	3.631600	-10.945000	25.303855	0.000417	20.661858
1096.314049	-3.008400	3.631100	-10.923000	25.290876	0.000418	20.680597
1097.332771	-2.994000	3.630900	-10.871000	25.236216	0.000415	20.683091
1098.332994	-2.993900	3.632200	-10.873000	25.232032	0.000416	20.686951
1099.337556	-3.000100	3.630600	-10.891000	25.226868	0.000417	20.676551
1100.334478	-2.964000	3.630700	-10.760000	25.237772	0.000416	20.685128
1101.336700	-2.988300	3.630900	-10.850000	25.242642	0.000416	20.657772
1102.344078	-2.988800	3.630000	-10.849000	25.275498	0.000417	20.665155
1103.332043	-3.001200	3.630000	-10.893000	25.241470	0.000416	20.681728
1104.331499	-2.982400	3.630900	-10.828000	25.240217	0.000416	20.677150
1105.340518	-3.008600	3.629600	-10.919000	25.224933	0.000413	20.689782
1106.337826	-2.987900	3.629800	-10.845000	25.229127	0.000414	20.673602
1107.342337	-2.991600	3.628800	-10.855000	25.234697	0.000415	20.678246
1108.334902	-3.013600	3.627800	-10.932000	25.280555	0.000413	20.692521
1109.345524	-2.984700	3.627900	-10.826000	25.258800	0.000413	20.683005
1110.336492	-3.002900	3.627200	-10.892000	25.277193	0.000411	20.697207
1111.318761	-3.008000	3.627100	-10.908000	25.252513	0.000411	20.665312
1112.351441	-2.997700	3.627200	-10.872000	25.258645	0.000413	20.689489
1113.333454	-2.993600	3.626800	-10.856000	25.279278	0.000409	20.671322
1114.350106	-3.038600	3.624900	-11.014000	25.304307	0.000409	20.670374
1115.332828	-3.010100	3.626500	-10.915000	25.312353	0.000412	20.684143
1116.319231	-3.000000	3.626300	-10.878000	25.298804	0.000412	20.688084
1117.337136	-2.992800	3.626100	-10.851000	25.316180	0.000409	20.662853
1118.336624	-3.017600	3.624600	-10.937000	25.328874	0.000410	20.679868
1119.335182	-3.006800	3.623800	-10.895000	25.337822	0.000408	20.683163
1120.337106	-3.018300	3.624200	-10.938000	25.358526	0.000407	20.678347
1121.337815	-2.984900	3.624100	-10.817000	25.319926	0.000407	20.670408
1122.349293	-2.977700	3.624800	-10.792000	25.342781	0.000406	20.691463
1123.336327	-2.986500	3.623600	-10.821000	25.346811	0.000407	20.687922
1124.321138	-2.993900	3.624400	-10.850000	25.360229	0.000407	20.702819
1125.317508	-2.981200	3.622500	-10.799000	25.364496	0.000404	20.663951
1126.318242	-2.998800	3.622700	-10.863000	25.355223	0.000406	20.699688
1127.326716	-2.989400	3.622700	-10.829000	25.376082	0.000405	20.696450
1128.343365	-2.992300	3.621600	-10.836000	25.386463	0.000404	20.696917
1129.324322	-2.992000	3.621500	-10.835000	25.374234	0.000405	20.699337
1130.319666	-3.001100	3.621200	-10.866000	25.368918	0.000404	20.688782
1131.336963	-3.008100	3.620300	-10.889000	25.343166	0.000405	20.695642
1132.323215	-2.974600	3.621200	-10.771000	25.326882	0.000404	20.696836
1133.339006	-2.982600	3.621100	-10.799000	25.346838	0.000403	20.669455
1134.350937	-3.010600	3.620600	-10.899000	25.343060	0.000403	20.710710
1135.339013	-2.962200	3.620400	-10.723000	25.330555	0.000402	20.704792
1136.318564	-2.997200	3.620200	-10.850000	25.331499	0.000403	20.687246
1137.319087	-2.991800	3.620500	-10.831000	25.375930	0.000401	20.682546
1138.334194	-3.007500	3.619000	-10.883000	25.395242	0.000402	20.703836
1139.354966	-3.002900	3.618400	-10.865000	25.387459	0.000403	20.695072
1140.334535	-2.993100	3.619200	-10.832000	25.383136	0.000404	20.694050
1141.337387	-2.999000	3.619100	-10.852000	25.377413	0.000402	20.704900
1142.342100	-2.984800	3.619300	-10.802000	25.408383	0.000401	20.697116
1143.338997	-3.006600	3.617400	-10.875000	25.448536	0.000401	20.697134
1144.344341	-2.999600	3.617900	-10.851000	25.456147	0.000399	20.688654
1145.328959	-3.009500	3.616000	-10.881000	25.437277	0.000400	20.688672
1146.345297	-3.002300	3.617800	-10.859000	25.402929	0.000400	20.690217
1147.341851	-2.999100	3.616600	-10.845000	25.348275	0.000398	20.705040
1148.325142	-2.992200	3.616500	-10.820000	25.315365	0.000397	20.682900
1149.326200	-2.982200	3.615100	-10.780000	25.275591	0.000398	20.689908
1150.323445	-3.001900	3.616000	-10.854000	25.292022	0.000398	20.689335
1151.322975	-2.992000	3.615000	-10.815000	25.306214	0.000397	20.705482
1152.323769	-2.969800	3.616300	-10.739000	25.303951	0.000398	20.724074
1153.324505	-2.972400	3.616200	-10.748000	25.326489	0.000395	20.686957
1154.324850	-3.013900	3.614700	-10.893000	25.356117	0.000396	20.683515
1155.323360	-2.994300	3.614000	-10.820000	25.365928	0.000396	20.720396
1156.348504	-3.006500	3.613400	-10.862000	25.390190	0.000396	20.713937
1157.348993	-2.994800	3.613800	-10.821000	25.396972	0.000397	20.717428
1158.321710	-3.010100	3.612600	-10.874000	25.405415	0.000395	20.714052
1159.323032	-2.991400	3.614500	-10.811000	25.380364	0.000393	20.725408
1160.325178	-2.994000	3.612300	-10.814000	25.375463	0.000395	20.711003
1161.343919	-2.977200	3.613300	-10.756000	25.339746	0.000395	20.709753
1162.349929	-3.014100	3.610200	-10.881000	25.307707	0.000395	20.715517
1163.325659	-2.988500	3.611800	-10.792000	25.302652	0.000394	20.722296
1164.327222	-3.004600	3.611800	-10.851000	25.294606	0.000393	20.702837
1165.329025	-3.009400	3.610900	-10.866000	25.294673	0.000393	20.709068
1166.327531	-2.996700	3.611800	-10.822000	25.313717	0.000392	20.717758
1167.347412	-2.995100	3.609900	-10.811000	25.306650	0.000392	20.695962
1168.351631	-2.987200	3.610700	-10.785000	25.350911	0.000393	20.714800
1169.352810	-3.011700	3.609800	-10.871000	25.387058	0.000391	20.723121
1170.353468	-2.995000	3.610800	-10.813000	25.445425	0.000391	20.713925
1171.343944	-3.006600	3.608600	-10.849000	25.398506	0.000391	20.730824
1172.345597	-2.992300	3.608900	-10.798000	25.395502	0.000392	20.698407
1173.347415	-2.992300	3.609000	-10.798000	25.416947	0.000390	20.702397
1174.330305	-3.014400	3.608800	-10.877000	25.363937	0.000389	20.721242
1175.329355	-3.007400	3.608400	-10.851000	25.391993	0.000389	20.727128
1176.352622	-3.019400	3.607700	-10.892000	25.410752	0.000389	20.722256
1177.349750	-2.996300	3.607400	-10.808000	25.449472	0.000389	20.704712
1178.330341	-2.995300	3.607600	-10.805000	25.397726	0.000388	20.718660
1179.334494	-2.992100	3.606800	-10.792000	25.364776	0.000387	20.726826
1180.331275	-2.988300	3.607300	-10.779000	25.375581	0.000387	20.719657
1181.350463	-2.989300	3.607700	-10.783000	25.353705	0.000386	20.721873
1182.331983	-2.984600	3.605500	-10.760000	25.292461	0.000385	20.720124
1183.351262	-3.001000	3.606700	-10.822000	25.302907	0.000385	20.728716
1184.351816	-3.014300	3.606300	-10.869000	25.295896	0.000384	20.721677
1185.351642	-2.982700	3.606200	-10.755000	25.312506	0.000383	20.743096
1186.352941	-3.014800	3.605000	-10.867000	25.335369	0.000384	20.727170
1187.356836	-2.992300	3.604700	-10.785000	25.342599	0.000383	20.714989
1188.334802	-2.991000	3.603000	-10.775000	25.377446	0.000384	20.714891
1189.332497	-2.996300	3.603400	-10.796000	25.393249	0.000383	20.739769
1190.357123	-3.016700	3.602900	-10.868000	25.379733	0.000380	20.731888
1191.352042	-2.975800	3.603900	-10.724000	25.358711	0.000383	20.734487
1192.351268	-3.006700	3.601400	-10.827000	25.371013	0.000382	20.743521
1193.334697	-2.991100	3.602700	-10.775000	25.409335	0.000382	20.741698
1194.332590	-2.998200	3.601500	-10.797000	25.454771	0.000381	20.712878
1195.354572	-2.993300	3.602200	-10.782000	25.436576	0.000381	20.718790
1196.351448	-3.011900	3.600300	-10.843000	25.442218	0.000383	20.713075
1197.337377	-2.977900	3.600800	-10.722000	25.437674	0.000384	20.726531
1198.334450	-3.003000	3.600200	-10.811000	25.458100	0.000384	20.755579
1199.352433	-2.975900	3.601500	-10.717000	25.477142	0.000380	20.706893
1200.372944	-3.006400	3.598600	-10.818000	25.472916	0.000380	20.743430
1201.357114	-2.975000	3.602000	-10.715000	25.439937	0.000380	20.714104
1202.358593	-2.990400	3.599500	-10.762000	25.428157	0.000378	20.728354
1203.367621	-2.997500	3.599900	-10.789000	25.430119	0.000379	20.724160
1204.363074	-3.029000	3.598400	-10.899000	25.431519	0.000378	20.724617
1205.359529	-2.995000	3.598000	-10.775000	25.427587	0.000376	20.746749
1206.339350	-3.007800	3.597900	-10.822000	25.396145	0.000378	20.740307
1207.358126	-3.003700	3.597200	-10.804000	25.403236	0.000378	20.743634
1208.356733	-3.010300	3.597900	-10.830000	25.418444	0.000378	20.758905
1209.341188	-3.024100	3.598100	-10.880000	25.418941	0.000376	20.745179
1210.359916	-3.006500	3.597200	-10.815000	25.370832	0.000374	20.743339
1211.340202	-2.995300	3.596800	-10.773000	25.375620	0.000374	20.735818
1212.341097	-2.991000	3.596500	-10.756000	25.371028	0.000376	20.743535
1213.338431	-2.993100	3.596400	-10.764000	25.387034	0.000376	20.727838
1214.345073	-3.013200	3.596200	-10.835000	25.409276	0.000376	20.709394
1215.339859	-2.990000	3.596100	-10.751000	25.366655	0.000377	20.759060
1216.371394	-3.006000	3.595500	-10.807000	25.376124	0.000375	20.736799
1217.346113	-3.003900	3.595000	-10.798000	25.400084	0.000374	20.736202
1218.363602	-2.996000	3.594100	-10.767000	25.467510	0.000373	20.743690
1219.345475	-2.992900	3.594100	-10.756000	25.486071	0.000375	20.739096
1220.344771	-2.992400	3.593300	-10.752000	25.523420	0.000373	20.759060
1221.369418	-3.008800	3.593000	-10.809000	25.496742	0.000371	20.741751
1222.372156	-2.992300	3.593300	-10.751000	25.525886	0.000372	20.750156
1223.363279	-2.997900	3.594200	-10.774000	25.499624	0.000371	20.749862
1224.365705	-3.009800	3.592800	-10.813000	25.429410	0.000372	20.755218
1225.359998	-3.024900	3.591800	-10.864000	25.400158	0.000370	20.765674
1226.376268	-3.008000	3.591500	-10.802000	25.404261	0.000371	20.757466
1227.365675	-3.010800	3.593100	-10.818000	25.356812	0.000369	20.756289
1228.360118	-2.989600	3.591800	-10.737000	25.368096	0.000369	20.752921
1229.376153	-3.013100	3.591600	-10.820000	25.407167	0.000371	20.765600
1230.373642	-2.994400	3.590000	-10.749000	25.451399	0.000368	20.760704
1231.366588	-2.991400	3.591500	-10.743000	25.483238	0.000369	20.752373
1232.376570	-3.001500	3.590700	-10.776000	25.504828	0.000370	20.769787
1233.360261	-2.987200	3.590900	-10.726000	25.502719	0.000369	20.763401
1234.370053	-2.999900	3.589900	-10.769000	25.469318	0.000370	20.770163
1235.345065	-3.006600	3.590200	-10.794000	25.528306	0.000368	20.746896
1236.366602	-2.984400	3.588900	-10.710000	25.505919	0.000366	20.757606
1237.366934	-3.016600	3.589400	-10.827000	25.531887	0.000367	20.756183
1238.347406	-2.996000	3.588200	-10.749000	25.535738	0.000365	20.767163
1239.347028	-3.003600	3.587400	-10.774000	25.499578	0.000366	20.764040
1240.350993	-2.999400	3.587900	-10.760000	25.502859	0.000364	20.771128
1241.348698	-3.002400	3.587800	-10.771000	25.502418	0.000364	20.771634
1242.361355	-3.011300	3.586600	-10.800000	25.478159	0.000364	20.762446
1243.363939	-2.996400	3.586700	-10.746000	25.463081	0.000363	20.773383
1244.367436	-2.979000	3.587300	-10.686000	25.501841	0.000364	20.765839
1245.347238	-3.000200	3.585700	-10.757000	25.519937	0.000363	20.773106
1246.344989	-2.995600	3.585700	-10.740000	25.511732	0.000365	20.762495
1247.366403	-2.970600	3.586300	-10.653000	25.481521	0.000361	20.766296
1248.364963	-2.996700	3.585700	-10.744000	25.501376	0.000363	20.766320
1249.361282	-2.968900	3.584900	-10.642000	25.516835	0.000362	20.770939
1250.369243	-2.995100	3.586400	-10.740000	25.537634	0.000363	20.771912
1251.377418	-3.026700	3.584600	-10.848000	25.543674	0.000362	20.770391
1252.362784	-3.007700	3.584500	-10.780000	25.538928	0.000360	20.780798
1253.365359	-3.005400	3.583600	-10.769000	25.548045	0.000361	20.778575
1254.363048	-3.011700	3.582000	-10.787000	25.493731	0.000359	20.780928
1255.347723	-2.982400	3.583500	-10.687000	25.443705	0.000359	20.788065
1256.354489	-2.992300	3.582000	-10.717000	25.425786	0.000358	20.780977
1257.354469	-2.989500	3.584500	-10.714000	25.411204	0.000361	20.757800
1258.355116	-3.014500	3.580800	-10.793000	25.430816	0.000360	20.763268
1259.360637	-2.972100	3.581800	-10.644000	25.493535	0.000358	20.776464
1260.352468	-2.991800	3.582400	-10.716000	25.461785	0.000359	20.785832
1261.354249	-2.988100	3.582700	-10.704000	25.493004	0.000358	20.783517
1262.353494	-3.004600	3.579900	-10.755000	25.497726	0.000358	20.789207
1263.376861	-3.019100	3.580300	-10.808000	25.500559	0.000356	20.769767
1264.353779	-3.009500	3.579700	-10.772000	25.467140	0.000357	20.789313
1265.353094	-2.985400	3.579500	-10.686000	25.453699	0.000356	20.785298
1266.356029	-2.968600	3.580500	-10.627000	25.485359	0.000355	20.787694
1267.383748	-3.023100	3.579500	-10.820000	25.519728	0.000357	20.786173
1268.378040	-3.019700	3.578800	-10.806000	25.542661	0.000357	20.809203
1269.355105	-3.013000	3.578000	-10.780000	25.525279	0.000355	20.778945
1270.354660	-3.021600	3.579200	-10.813000	25.529920	0.000355	20.791666
1271.354238	-3.009300	3.577800	-10.765000	25.501713	0.000355	20.778987
1272.358002	-3.021100	3.577200	-10.806000	25.470403	0.000355	20.777891
1273.356417	-3.009000	3.576900	-10.762000	25.435738	0.000354	20.793816
1274.354714	-3.002200	3.575900	-10.735000	25.399526	0.000354	20.761720
1275.372728	-3.002700	3.577200	-10.740000	25.401545	0.000354	20.781291
1276.381065	-2.982900	3.576600	-10.666000	25.422272	0.000352	20.800683
1277.378099	-2.992800	3.577200	-10.705000	25.458281	0.000353	20.795590
1278.370702	-3.004900	3.577100	-10.748000	25.410069	0.000353	20.792221
1279.372711	-2.971600	3.576900	-10.628000	25.427068	0.000351	20.812610
1280.374867	-2.995200	3.576800	-10.712000	25.450799	0.000354	20.796612
1281.353651	-3.029100	3.574900	-10.827000	25.433059	0.000350	20.788281
1282.376370	-3.015100	3.574300	-10.776000	25.416207	0.000351	20.774203
1283.379013	-2.978900	3.576600	-10.653000	25.426522	0.000351	20.796415
1284.378687	-3.011300	3.573700	-10.761000	25.407113	0.000349	20.801108
1285.374705	-2.995400	3.573800	-10.704000	25.391457	0.000351	20.791077
1286.375749	-2.979900	3.574000	-10.649000	25.372789	0.000350	20.796039
1287.357609	-2.973400	3.575100	-10.630000	25.386238	0.000351	20.788681
1288.360692	-2.987200	3.574000	-10.675000	25.351140	0.000348	20.813657
1289.357589	-3.005900	3.572700	-10.739000	25.367651	0.000350	20.806527
1290.359577	-3.013600	3.572400	-10.764000	25.421223	0.000348	20.800103
1291.359660	-3.024300	3.572400	-10.804000	25.471600	0.000351	20.789524
1292.360343	-3.004100	3.570800	-10.727000	25.443545	0.000347	20.807345
1293.379510	-3.012300	3.572300	-10.760000	25.465217	0.000347	20.794968
1294.359625	-2.997700	3.570500	-10.702000	25.487849	0.000347	20.803471
1295.360246	-3.019600	3.570100	-10.779000	25.446745	0.000344	20.806765
1296.360138	-2.996200	3.571400	-10.700000	25.474849	0.000347	20.805115
1297.360960	-3.001200	3.570600	-10.715000	25.515878	0.000345	20.819290
1298.389189	-3.000500	3.570000	-10.710000	25.518067	0.000344	20.808687
1299.380468	-3.026300	3.570100	-10.803000	25.547788	0.000346	20.825257
1300.383335	-2.992200	3.568700	-10.677000	25.540804	0.000343	20.826304
1301.392303	-2.998800	3.568000	-10.699000	25.519980	0.000344	20.806815
1302.362997	-2.990600	3.569100	-10.673000	25.516920	0.000345	20.813224
1303.361963	-2.991200	3.569300	-10.675000	25.552331	0.000343	20.811328
1304.365382	-3.001400	3.567500	-10.707000	25.572755	0.000344	20.816192
1305.361972	-2.995600	3.567500	-10.685000	25.549246	0.000342	20.824825
1306.387818	-3.010500	3.568400	-10.742000	25.548204	0.000343	20.800545
1307.362988	-3.025900	3.567800	-10.793000	25.515601	0.000340	20.819012
1308.363399	-3.030000	3.566900	-10.807000	25.501657	0.000341	20.821130
1309.367331	-2.993100	3.567600	-10.678000	25.468987	0.000342	20.833367
1310.368014	-2.991900	3.566200	-10.669000	25.461701	0.000339	20.822732
1311.365172	-3.020600	3.565300	-10.769000	25.491766	0.000340	20.820680
1312.368869	-3.005800	3.567200	-10.722000	25.520795	0.000339	20.821857
1313.369671	-2.987100	3.566000	-10.651000	25.497121	0.000341	20.825110
1314.366193	-3.028800	3.563400	-10.792000	25.498237	0.000341	20.828601
1315.370312	-3.028600	3.564600	-10.794000	25.513622	0.000339	20.816551
1316.382226	-3.007100	3.564600	-10.718000	25.554625	0.000338	20.838287
1317.388829	-3.005400	3.565000	-10.714000	25.544189	0.000339	20.811212
1318.393395	-3.012100	3.563000	-10.731000	25.530025	0.000339	20.823540
1319.387847	-3.011800	3.562500	-10.729000	25.564523	0.000337	20.802235
1320.393069	-2.997500	3.562900	-10.678000	25.594113	0.000336	20.819150
1321.368554	-2.989400	3.562000	-10.648000	25.566590	0.000339	20.800992
1322.370309	-2.982400	3.562300	-10.622000	25.555039	0.000335	20.812150
1323.389182	-3.001800	3.561900	-10.691000	25.523821	0.000337	20.795025
1324.401521	-2.985600	3.563000	-10.637000	25.506677	0.000337	20.818110
1325.400908	-2.984300	3.562900	-10.632000	25.507149	0.000337	20.810524
1326.390893	-3.021000	3.559900	-10.754000	25.515207	0.000335	20.823358
1327.384903	-3.038500	3.559900	-10.816000	25.512675	0.000335	20.810858
1328.369476	-3.016400	3.559800	-10.737000	25.506855	0.000335	20.807384
1329.369889	-3.006400	3.560500	-10.704000	25.566996	0.000335	20.791443
1330.369246	-3.009200	3.559600	-10.710000	25.582031	0.000334	20.808438
1331.372714	-3.017200	3.559300	-10.738000	25.570504	0.000335	20.783112
1332.372311	-3.021400	3.558800	-10.751000	25.511535	0.000335	20.801179
1333.377533	-3.018800	3.559100	-10.743000	25.532342	0.000333	20.795047
1334.370710	-2.985500	3.559300	-10.625000	25.512829	0.000333	20.794892
1335.370650	-2.983600	3.558800	-10.617000	25.514026	0.000334	20.802257
1336.372080	-3.020300	3.557000	-10.742000	25.511322	0.000332	20.775834
1337.374467	-2.987300	3.559100	-10.631000	25.522353	0.000332	20.806352
1338.391009	-3.003300	3.557100	-10.682000	25.496661	0.000332	20.795725
1339.392949	-2.985000	3.557000	-10.617000	25.442735	0.000331	20.793256
1340.374049	-3.000000	3.557400	-10.672000	25.468558	0.000332	20.812074
1341.399250	-2.996400	3.556900	-10.658000	25.462420	0.000331	20.793108
1342.395503	-3.007700	3.555000	-10.692000	25.515652	0.000330	20.788244
1343.390390	-3.011400	3.556000	-10.707000	25.461483	0.000332	20.773675
1344.375049	-2.991600	3.555500	-10.636000	25.521553	0.000331	20.794643
1345.377185	-3.018500	3.555200	-10.731000	25.513365	0.000330	20.787843
1346.373721	-3.023900	3.553500	-10.744000	25.484546	0.000328	20.785929
1347.395271	-3.007800	3.553500	-10.688000	25.484896	0.000329	20.772530
1348.390898	-3.007400	3.553300	-10.685000	25.485547	0.000330	20.767494
1349.396835	-2.989200	3.555300	-10.626000	25.484130	0.000329	20.763700
1350.397997	-2.996500	3.554400	-10.650000	25.489967	0.000328	20.775726
1351.398802	-3.026900	3.552900	-10.753000	25.518108	0.000328	20.765105
1352.392035	-3.015000	3.552600	-10.710000	25.536742	0.000327	20.790931
1353.402385	-2.983600	3.552700	-10.599000	25.511222	0.000328	20.757715
1354.374986	-2.979800	3.552600	-10.585000	25.485750	0.000328	20.771017
1355.395844	-2.969500	3.551800	-10.546000	25.397776	0.000326	20.765179
1356.405668	-2.998300	3.551300	-10.647000	25.450018	0.000325	20.768801
1357.397417	-2.996100	3.551500	-10.639000	25.450466	0.000325	20.776837
1358.380203	-3.001400	3.551500	-10.658000	25.479115	0.000326	20.756293
1359.377115	-3.001500	3.549900	-10.654000	25.484984	0.000324	20.780679
1360.375874	-2.979400	3.552200	-10.582000	25.531979	0.000325	20.782355
1361.376481	-2.994600	3.550400	-10.631000	25.551215	0.000323	20.771326
1362.379009	-3.002400	3.549100	-10.655000	25.568652	0.000323	20.767975
1363.380033	-2.997800	3.550000	-10.641000	25.578721	0.000323	20.773346
1364.378010	-3.001000	3.549100	-10.650000	25.630206	0.000322	20.776689
1365.377259	-3.015900	3.547100	-10.697000	25.616214	0.000321	20.761688
1366.377098	-3.012600	3.547900	-10.688000	25.611378	0.000322	20.759676
1367.378885	-3.005100	3.549100	-10.665000	25.601432	0.000321	20.769601
1368.406878	-2.995700	3.548000	-10.627000	25.610255	0.000321	20.752858
1369.409276	-3.003300	3.548100	-10.655000	25.580861	0.000321	20.759374
1370.401412	-2.988900	3.546300	-10.599000	25.539093	0.000321	20.755359
1371.398519	-3.004100	3.547100	-10.655000	25.561015	0.000320	20.758882
1372.381273	-2.999000	3.546200	-10.633000	25.578899	0.000322	20.755981
1373.394562	-3.025000	3.544900	-10.722000	25.612182	0.000319	20.766174
1374.411136	-3.008200	3.545900	-10.666000	25.555765	0.000318	20.764042
1375.393575	-3.017000	3.545200	-10.695000	25.533809	0.000320	20.773287
1376.377507	-2.996600	3.546000	-10.624000	25.561095	0.000319	20.764653
1377.378299	-3.009200	3.544200	-10.664000	25.593990	0.000318	20.746954
1378.378175	-2.999400	3.544900	-10.631000	25.608511	0.000320	20.770547
1379.379612	-3.015200	3.543800	-10.684000	25.604961	0.000319	20.738058
1380.377794	-3.008800	3.543700	-10.660000	25.574640	0.000320	20.749807
1381.378355	-2.997200	3.543800	-10.621000	25.599548	0.000317	20.749691
1382.378727	-3.015400	3.543400	-10.684000	25.607290	0.000317	20.759838
1383.378505	-3.027300	3.541300	-10.719000	25.565628	0.000316	20.770154
1384.385173	-2.988600	3.541900	-10.584000	25.611921	0.000315	20.748367
1385.380694	-2.977500	3.543600	-10.550000	25.620370	0.000316	20.745947
1386.382904	-3.002600	3.543000	-10.637000	25.628004	0.000317	20.744605
1387.380300	-2.988900	3.540600	-10.582000	25.586011	0.000316	20.744630
1388.382369	-2.981100	3.541000	-10.555000	25.553434	0.000315	20.752217
1389.390668	-3.007800	3.541700	-10.652000	25.477449	0.000315	20.750352
1390.399843	-3.028400	3.541100	-10.723000	25.456575	0.000313	20.740770
1391.407917	-3.014100	3.542300	-10.676000	25.420038	0.000316	20.756239
1392.408095	-3.009300	3.540800	-10.655000	25.471986	0.000313	20.738702
1393.381597	-3.008900	3.540700	-10.653000	25.465424	0.000314	20.744441
1394.384301	-3.005900	3.539900	-10.640000	25.510622	0.000314	20.744311
1395.387326	-3.014900	3.539400	-10.670000	25.560278	0.000313	20.727321
1396.384501	-2.992700	3.538900	-10.590000	25.569721	0.000313	20.738702
1397.383490	-3.017100	3.537800	-10.673000	25.544869	0.000314	20.721803
1398.382264	-3.019500	3.537500	-10.679000	25.560237	0.000314	20.735341
1399.384070	-2.996200	3.538400	-10.601000	25.568043	0.000313	20.741758
1400.385731	-3.009600	3.538200	-10.647000	25.527554	0.000311	20.717216
1401.385584	-2.990100	3.537900	-10.577000	25.505093	0.000312	20.749190
1402.390845	-2.967300	3.538100	-10.497000	25.461223	0.000312	20.728842
1403.388094	-2.976500	3.536500	-10.526000	25.501446	0.000310	20.749320
1404.385230	-2.973900	3.537500	-10.519000	25.565504	0.000309	20.740630
1405.407850	-3.016400	3.535400	-10.663000	25.620245	0.000309	20.711681
1406.411498	-3.011600	3.534500	-10.643000	25.614059	0.000311	20.735341
1407.408158	-2.991200	3.534600	-10.572000	25.596786	0.000309	20.724157
1408.409639	-3.018500	3.534700	-10.669000	25.551543	0.000309	20.738937
1409.411181	-3.008400	3.534500	-10.632000	25.554725	0.000310	20.730754
1410.393047	-3.009000	3.532800	-10.629000	25.544835	0.000310	20.724140
1411.391006	-3.005500	3.534700	-10.622000	25.521797	0.000308	20.728506
1412.390038	-2.994800	3.532800	-10.579000	25.551322	0.000307	20.741087
1413.391445	-2.987700	3.534000	-10.558000	25.580220	0.000308	20.732176
1414.392127	-2.971700	3.532800	-10.497000	25.551868	0.000307	20.733100
1415.393362	-2.992400	3.532500	-10.570000	25.561612	0.000308	20.740989
1416.394242	-2.996300	3.531400	-10.580000	25.556582	0.000306	20.730247
1417.393149	-3.011000	3.532300	-10.635000	25.592300	0.000308	20.726764
1418.392577	-2.985200	3.532400	-10.544000	25.620025	0.000307	20.720943
1419.413660	-2.983200	3.533200	-10.539000	25.589460	0.000307	20.734343
1420.422901	-3.015300	3.529700	-10.642000	25.552592	0.000305	20.731930
1421.392541	-3.001900	3.529300	-10.594000	25.551689	0.000308	20.724859
1422.394030	-2.996000	3.529700	-10.573000	25.567602	0.000306	20.734677
1423.412915	-3.002600	3.529900	-10.597000	25.535106	0.000306	20.746139
1424.423080	-3.022500	3.528000	-10.661000	25.513526	0.000304	20.734898
1425.413725	-2.985600	3.530100	-10.539000	25.494346	0.000305	20.715162
1426.421564	-3.012800	3.529200	-10.632000	25.511613	0.000303	20.737245
1427.410197	-2.998200	3.529400	-10.581000	25.556296	0.000305	20.715735
1428.415867	-2.982100	3.529800	-10.524000	25.574709	0.000302	20.722847
1429.394629	-3.004000	3.527600	-10.596000	25.575775	0.000302	20.739092
1430.393536	-3.006200	3.528300	-10.605000	25.577769	0.000304	20.717386
1431.394522	-2.995200	3.528300	-10.567000	25.593357	0.000303	20.724032
1432.397955	-3.020800	3.527500	-10.654000	25.578339	0.000303	20.735503
1433.394513	-2.988600	3.527300	-10.541000	25.568977	0.000303	20.720410
1434.396998	-3.007100	3.526400	-10.604000	25.560381	0.000303	20.733589
1435.400771	-3.016900	3.525900	-10.636000	25.590223	0.000301	20.732265
1436.394743	-2.983100	3.524900	-10.514000	25.611003	0.000300	20.711882
1437.398045	-3.005600	3.525400	-10.595000	25.650929	0.000300	20.716420
1438.392782	-2.991900	3.525500	-10.547000	25.663521	0.000299	20.707730
1439.394571	-3.005600	3.523600	-10.589000	25.614179	0.000299	20.686145
1440.412577	-2.999600	3.525600	-10.575000	25.627439	0.000300	20.710845
1441.410406	-2.992800	3.523400	-10.543000	25.643376	0.000302	20.716894
1442.415126	-2.993800	3.523400	-10.547000	25.648422	0.000301	20.717221
1443.400859	-2.998900	3.522500	-10.562000	25.650702	0.000297	20.728046
1444.397533	-3.022000	3.522000	-10.643000	25.662634	0.000299	20.719641
1445.396984	-3.014600	3.522300	-10.617000	25.643505	0.000298	20.730776
1446.399011	-3.022200	3.522000	-10.643000	25.616588	0.000297	20.715594
1447.395229	-2.993400	3.522200	-10.543000	25.654087	0.000297	20.701099
1448.396857	-3.015900	3.521200	-10.618000	25.645866	0.000297	20.705644
1449.395511	-3.001700	3.521900	-10.570000	25.621512	0.000296	20.710108
1450.396819	-2.983100	3.520800	-10.502000	25.600942	0.000297	20.711735
1451.398231	-3.002000	3.521100	-10.569000	25.607674	0.000295	20.715651
1452.397614	-3.000100	3.521400	-10.563000	25.618777	0.000294	20.701197
1453.399251	-3.009800	3.520600	-10.594000	25.639452	0.000296	20.701099
1454.399685	-2.998000	3.518500	-10.548000	25.610808	0.000295	20.723066
1455.398513	-3.006900	3.520400	-10.584000	25.580617	0.000295	20.725461
1456.417353	-2.981600	3.520400	-10.495000	25.538443	0.000294	20.710133
1457.415117	-3.005400	3.517700	-10.572000	25.511310	0.000294	20.682883
1458.417478	-2.976600	3.519000	-10.472000	25.518018	0.000295	20.713803
1459.414785	-3.021600	3.517700	-10.627000	25.510904	0.000293	20.709978
1460.422180	-3.006200	3.516400	-10.570000	25.498310	0.000291	20.703020
1461.417874	-2.990700	3.518300	-10.521000	25.506207	0.000292	20.707157
1462.418089	-2.979200	3.518500	-10.481000	25.539534	0.000291	20.706012
1463.426476	-2.998800	3.516200	-10.543000	25.550344	0.000292	20.679883
1464.407705	-2.984500	3.516200	-10.493000	25.572583	0.000293	20.692735
1465.420991	-2.983400	3.516800	-10.491000	25.582302	0.000289	20.700600
1466.424126	-3.005100	3.515400	-10.562000	25.627821	0.000292	20.723083
1467.401369	-3.003600	3.515100	-10.558000	25.612745	0.000290	20.703673
1468.401114	-3.003800	3.515100	-10.558000	25.620666	0.000289	20.686971
1469.409126	-2.990700	3.515000	-10.511000	25.597011	0.000289	20.703044
1470.403148	-3.004800	3.513300	-10.556000	25.616263	0.000288	20.696300
1471.403114	-2.997900	3.513900	-10.532000	25.611842	0.000288	20.714147
1472.403521	-3.007400	3.513200	-10.565000	25.603621	0.000287	20.701622
1473.404079	-3.015800	3.513700	-10.596000	25.582424	0.000287	20.687445
1474.405100	-3.020600	3.511900	-10.607000	25.614007	0.000288	20.717270
1475.408321	-2.997700	3.512400	-10.529000	25.636319	0.000288	20.720238
1476.404217	-3.031600	3.510900	-10.643000	25.603173	0.000288	20.687895
1477.405055	-3.008800	3.511100	-10.564000	25.591916	0.000288	20.702669
1478.409662	-2.995400	3.511300	-10.517000	25.574569	0.000286	20.693308
1479.406644	-2.991800	3.511400	-10.505000	25.558566	0.000285	20.687666
1480.421443	-3.010600	3.511700	-10.571000	25.559958	0.000286	20.700445
1481.405983	-3.017600	3.509600	-10.589000	25.544500	0.000285	20.692981
1482.406506	-2.978400	3.511700	-10.458000	25.558395	0.000286	20.699823
1483.407109	-3.002400	3.510100	-10.537000	25.590817	0.000285	20.676907
1484.407632	-2.983800	3.510000	-10.472000	25.564483	0.000284	20.695981
1485.408666	-2.994500	3.510000	-10.510000	25.610475	0.000284	20.701393
1486.407272	-2.991200	3.508000	-10.492000	25.639998	0.000286	20.705440
1487.407374	-2.972500	3.509500	-10.431000	25.606698	0.000284	20.690487
1488.432980	-3.011100	3.507100	-10.560000	25.656734	0.000283	20.701386
1489.407253	-3.010900	3.507300	-10.559000	25.671148	0.000284	20.681723
1490.428512	-2.991500	3.507400	-10.491000	25.622358	0.000284	20.687723
1491.428857	-2.989200	3.507700	-10.484000	25.578672	0.000282	20.689841
1492.407392	-2.984200	3.507400	-10.466000	25.591688	0.000281	20.703388
1493.407234	-3.003000	3.507500	-10.533000	25.611688	0.000283	20.688860
1494.408687	-2.983500	3.505400	-10.457000	25.640788	0.000282	20.692008
1495.408045	-3.003600	3.506300	-10.531000	25.705708	0.000283	20.697470
1496.408257	-2.998700	3.505900	-10.512000	25.637011	0.000282	20.684895
1497.409298	-2.991500	3.505200	-10.485000	25.639672	0.000279	20.676187
1498.429399	-3.008800	3.505100	-10.545000	25.614391	0.000282	20.690153
1499.443435	-3.001600	3.504300	-10.518000	25.613755	0.000285	20.695678
1500.429986	-3.021100	3.503300	-10.582000	25.612567	0.000279	20.690691
1501.414680	-2.990800	3.503600	-10.478000	25.667624	0.000278	20.672966
1502.430301	-2.988300	3.504900	-10.472000	25.634364	0.000280	20.677969
1503.432049	-2.991200	3.504100	-10.481000	25.624117	0.000282	20.698025
1504.414838	-3.023400	3.502700	-10.589000	25.641585	0.000280	20.675263
1505.414706	-3.022900	3.502700	-10.588000	25.651230	0.000280	20.681632
1506.437201	-3.012700	3.502700	-10.551000	25.655405	0.000278	20.677290
1507.445334	-3.011200	3.502000	-10.545000	25.681199	0.000277	20.673799
1508.433240	-3.014000	3.501100	-10.552000	25.721147	0.000277	20.681207
1509.431996	-3.017100	3.500700	-10.560000	25.736196	0.000277	20.687789
1510.436867	-2.984900	3.501200	-10.450000	25.742316	0.000275	20.678288
1511.416465	-3.007100	3.499900	-10.523000	25.685497	0.000276	20.681910
1512.421144	-2.979700	3.501400	-10.431000	25.647803	0.000277	20.677241
1513.416146	-3.011000	3.498600	-10.533000	25.635577	0.000277	20.656900
1514.416301	-2.997700	3.500000	-10.491000	25.631801	0.000275	20.667332
1515.420802	-3.015000	3.500000	-10.552000	25.644271	0.000276	20.677961
1516.419201	-3.012300	3.498300	-10.537000	25.708156	0.000276	20.699929
1517.420869	-2.993000	3.499100	-10.472000	25.686888	0.000275	20.680937
1518.417996	-3.024300	3.498200	-10.579000	25.664578	0.000274	20.691720
1519.418907	-2.983700	3.499100	-10.439000	25.703191	0.000275	20.658902
1520.418134	-3.014900	3.497200	-10.543000	25.701180	0.000275	20.666367
1521.420799	-3.002800	3.496900	-10.500000	25.685822	0.000274	20.684133
1522.422507	-2.989500	3.497400	-10.455000	25.642683	0.000274	20.687747
1523.422793	-2.977800	3.497700	-10.414000	25.644953	0.000275	20.684337
1524.428047	-2.985100	3.496700	-10.437000	25.614893	0.000272	20.675008
1525.420593	-2.996900	3.494600	-10.473000	25.619061	0.000274	20.676349
1526.424181	-3.000200	3.495200	-10.485000	25.605321	0.000272	20.670136
1527.423426	-2.992500	3.494300	-10.455000	25.597652	0.000272	20.683298
1528.424600	-2.972500	3.495400	-10.388000	25.612060	0.000271	20.684492
1529.423492	-3.015000	3.493700	-10.532000	25.612882	0.000272	20.679153
1530.423521	-2.989100	3.493600	-10.441000	25.589423	0.000271	20.665074
1531.423786	-3.004200	3.493400	-10.493000	25.590497	0.000270	20.674689
1532.423732	-2.980800	3.494400	-10.415000	25.573249	0.000273	20.660683
1533.440380	-3.016900	3.492900	-10.537000	25.596781	0.000272	20.667249
1534.439017	-3.020800	3.491500	-10.546000	25.602951	0.000271	20.671074
1535.453793	-2.983600	3.492500	-10.419000	25.624416	0.000268	20.669873
1536.426424	-2.983700	3.491500	-10.416000	25.653913	0.000268	20.658720
1537.426161	-2.985700	3.492200	-10.426000	25.643845	0.000271	20.668998
1538.428373	-3.011000	3.490700	-10.510000	25.590822	0.000269	20.670747
1539.430096	-2.997700	3.492500	-10.469000	25.628144	0.000269	20.664607
1540.430322	-3.028700	3.489800	-10.569000	25.653571	0.000269	20.679241
1541.424251	-3.008300	3.491300	-10.502000	25.617163	0.000269	20.676814
1542.428668	-3.016100	3.489700	-10.524000	25.626962	0.000270	20.680966
1543.428174	-2.999300	3.489300	-10.465000	25.653588	0.000267	20.669300
1544.449485	-2.959800	3.490800	-10.331000	25.649745	0.000268	20.667337
1545.442459	-3.001500	3.490100	-10.475000	25.599555	0.000268	20.667190
1546.446462	-2.978000	3.488800	-10.389000	25.532310	0.000269	20.689747
1547.447030	-3.037000	3.486600	-10.587000	25.596405	0.000267	20.679674
1548.442622	-3.010600	3.489700	-10.505000	25.584000	0.000267	20.662472
1549.428890	-2.976700	3.489700	-10.387000	25.530086	0.000267	20.678979
1550.427312	-2.977100	3.487000	-10.380000	25.515124	0.000265	20.681497
1551.446410	-3.017200	3.487500	-10.522000	25.529460	0.000265	20.672659
1552.447264	-3.006600	3.486900	-10.483000	25.537136	0.000264	20.675153
1553.444257	-2.968000	3.487700	-10.350000	25.554116	0.000266	20.670868
1554.445177	-2.993300	3.487600	-10.438000	25.590487	0.000265	20.659030
1555.444119	-2.999300	3.486100	-10.455000	25.624756	0.000263	20.670214
1556.452109	-2.992000	3.485500	-10.428000	25.642728	0.000265	20.693956
1557.446933	-2.981300	3.485600	-10.390000	25.644836	0.000267	20.679003
1558.448176	-2.989500	3.485100	-10.418000	25.665087	0.000264	20.673264
1559.429120	-2.989400	3.484700	-10.416000	25.672022	0.000262	20.670271
1560.434529	-2.997700	3.484900	-10.446000	25.683677	0.000263	20.670124
1561.448668	-2.987000	3.484400	-10.407000	25.702210	0.000264	20.674988
1562.453926	-2.995500	3.483600	-10.434000	25.632618	0.000263	20.680482
1563.446822	-3.007300	3.483700	-10.476000	25.570844	0.000262	20.672495
1564.449378	-3.019400	3.482900	-10.515000	25.576461	0.000260	20.690465
1565.462138	-2.993600	3.482800	-10.424000	25.546765	0.000261	20.679133
1566.458299	-3.027900	3.481300	-10.540000	25.555124	0.000262	20.674726
1567.433604	-2.986600	3.482500	-10.400000	25.531461	0.000259	20.667556
1568.432411	-2.968000	3.482500	-10.335000	25.552910	0.000262	20.673925
1569.432752	-2.990000	3.481900	-10.410000	25.582655	0.000261	20.672502
1570.435977	-2.985300	3.481400	-10.392000	25.607173	0.000260	20.677212
1571.436250	-2.994100	3.480000	-10.419000	25.632471	0.000260	20.652357
1572.449779	-2.988400	3.480800	-10.400000	25.637818	0.000258	20.645398
1573.453485	-2.994100	3.479200	-10.416000	25.625935	0.000259	20.667605
1574.454479	-2.998300	3.479900	-10.432000	25.652429	0.000259	20.669558
1575.455510	-3.020900	3.479700	-10.511000	25.591828	0.000258	20.694045
1576.438049	-2.983300	3.479200	-10.377000	25.593237	0.000259	20.669853
1577.436147	-2.978500	3.478600	-10.360000	25.638193	0.000259	20.678969
1578.443468	-2.992000	3.478900	-10.408000	25.684010	0.000260	20.682313
1579.436370	-3.015800	3.478700	-10.490000	25.684580	0.000256	20.682411
1580.437502	-3.005600	3.478100	-10.453000	25.722517	0.000258	20.687325
1581.439966	-2.988300	3.477000	-10.390000	25.663962	0.000254	20.678772
1582.437894	-3.007600	3.476800	-10.455000	25.663832	0.000254	20.671529
1583.437018	-3.019600	3.476200	-10.496000	25.642263	0.000256	20.689222
1584.456901	-3.008800	3.476400	-10.458000	25.617144	0.000254	20.686278
1585.453428	-2.995600	3.476000	-10.412000	25.616378	0.000255	20.676974
1586.469406	-2.985300	3.476400	-10.377000	25.617958	0.000255	20.669077
1587.456738	-2.986500	3.475800	-10.380000	25.637769	0.000255	20.681389
1588.436585	-2.998700	3.474300	-10.417000	25.695168	0.000256	20.678347
1589.436565	-3.001900	3.474700	-10.429000	25.705075	0.000253	20.691617
1590.440694	-2.974800	3.474800	-10.335000	25.725276	0.000254	20.681087
1591.464828	-3.007800	3.474500	-10.450000	25.671736	0.000254	20.695116
1592.470381	-2.995100	3.473600	-10.403000	25.661773	0.000254	20.697438
1593.452221	-2.993900	3.473400	-10.399000	25.616686	0.000254	20.694355
1594.445479	-3.027300	3.472500	-10.512000	25.592853	0.000251	20.683694
1595.458500	-3.003200	3.472800	-10.428000	25.631209	0.000253	20.689974
1596.458780	-3.006800	3.472200	-10.439000	25.679191	0.000251	20.677473
1597.438779	-3.015200	3.471200	-10.465000	25.642669	0.000253	20.689630
1598.466780	-2.999700	3.472600	-10.416000	25.632136	0.000251	20.679998
1599.462180	-2.989700	3.471600	-10.378000	25.665329	0.000255	20.681094
1600.437026	-2.996700	3.470500	-10.399000	25.668341	0.000251	20.693603
1601.440546	-3.016200	3.470400	-10.467000	25.653429	0.000253	20.690480
1602.480171	-2.975700	3.471200	-10.328000	25.684423	0.000251	20.703119
1603.462165	-2.978200	3.470000	-10.333000	25.622124	0.000251	20.702187
1604.576165	-3.027700	3.469500	-10.504000	25.639998	0.000251	20.685524
1605.470166	-2.997800	3.469400	-10.400000	25.595214	0.000249	20.714042
1606.438115	-2.989600	3.470400	-10.374000	25.640414	0.000249	20.709177
1607.472118	-2.990700	3.469400	-10.375000	25.663921	0.000250	20.702440
1608.459126	-3.010000	3.468200	-10.439000	25.653689	0.000249	20.693111
1609.474769	-2.982200	3.469300	-10.345000	25.679605	0.000250	20.694485
1610.468771	-2.995200	3.467100	-10.384000	25.716801	0.000248	20.709087
1611.456332	-2.981400	3.468000	-10.338000	25.730466	0.000249	20.701475
1612.440987	-3.004400	3.467000	-10.415000	25.728683	0.000246	20.693519
1613.472222	-3.010000	3.466600	-10.434000	25.691610	0.000245	20.726934
1614.459051	-2.985600	3.468000	-10.353000	25.665848	0.000247	20.698686
1615.485075	-2.992800	3.466000	-10.372000	25.681574	0.000244	20.702153
1616.474260	-2.975200	3.466800	-10.313000	25.689655	0.000245	20.699364
1617.472836	-2.997300	3.467500	-10.391000	25.704982	0.000245	20.706224
1618.461728	-2.996600	3.466100	-10.386000	25.701262	0.000245	20.702487
1619.478384	-2.991300	3.465500	-10.366000	25.722830	0.000243	20.694279
1620.473520	-2.962200	3.466000	-10.265000	25.736992	0.000244	20.696650
1621.447556	-2.987300	3.464900	-10.350000	25.698755	0.000243	20.696175
1622.449477	-3.002200	3.465000	-10.401000	25.720795	0.000244	20.712625
1623.449020	-3.013400	3.463200	-10.435000	25.744894	0.000244	20.691785
1624.451218	-2.995000	3.462700	-10.370000	25.750315	0.000242	20.701497
1625.471871	-3.020800	3.462200	-10.458000	25.761472	0.000242	20.689945
1626.474349	-3.018600	3.462700	-10.452000	25.785823	0.000243	20.704922
1627.478875	-2.998400	3.463100	-10.383000	25.727964	0.000245	20.707497
1628.470738	-2.989100	3.461800	-10.346000	25.711824	0.000242	20.699345
1629.471143	-2.999200	3.461900	-10.382000	25.660482	0.000241	20.688554
1630.473808	-3.006000	3.461800	-10.405000	25.669581	0.000243	20.715713
1631.469681	-3.000200	3.462000	-10.385000	25.655492	0.000241	20.708200
1632.452926	-2.976800	3.462100	-10.304000	25.681628	0.000240	20.726865
1633.457202	-3.009500	3.460300	-10.413000	25.683524	0.000242	20.728295
1634.451899	-2.994500	3.460600	-10.362000	25.659349	0.000241	20.718239
1635.479573	-3.003800	3.461300	-10.396000	25.653481	0.000240	20.697171
1636.469064	-3.000900	3.458400	-10.377000	25.692591	0.000242	20.724126
1637.482218	-3.000600	3.458300	-10.376000	25.724927	0.000241	20.699230
1638.473047	-2.983800	3.458700	-10.319000	25.761421	0.000239	20.701748
1639.471632	-2.988200	3.458200	-10.332000	25.711163	0.000240	20.706269
1640.491271	-2.993100	3.458200	-10.350000	25.661294	0.000240	20.705967
1641.475077	-2.975800	3.459500	-10.293000	25.718049	0.000238	20.721246
1642.475936	-2.995500	3.459000	-10.360000	25.727906	0.000239	20.723087
1643.481650	-2.988600	3.458200	-10.334000	25.733725	0.000239	20.704274
1644.483470	-2.951300	3.457900	-10.204000	25.713548	0.000239	20.725261
1645.482031	-3.010500	3.456900	-10.407000	25.650940	0.000241	20.715008
1646.459934	-2.984300	3.456000	-10.313000	25.643240	0.000237	20.705377
1647.459237	-2.982800	3.456300	-10.309000	25.702617	0.000236	20.712859
1648.482530	-2.994400	3.456000	-10.347000	25.687983	0.000237	20.715229
1649.482319	-2.996500	3.456900	-10.358000	25.686077	0.000236	20.706203
1650.455163	-2.989800	3.455900	-10.331000	25.724723	0.000238	20.727951
1651.458969	-3.017700	3.454600	-10.423000	25.792755	0.000237	20.709040
1652.461234	-3.014800	3.453500	-10.411000	25.793422	0.000237	20.722040
1653.459320	-3.008400	3.454000	-10.390000	25.798191	0.000237	20.702647
1654.458654	-3.024700	3.451900	-10.440000	25.733155	0.000236	20.716030
1655.482237	-3.020700	3.452700	-10.429000	25.676531	0.000236	20.723168
1656.479648	-2.994200	3.454900	-10.344000	25.721647	0.000237	20.720593
1657.482001	-2.984200	3.453000	-10.304000	25.773971	0.000234	20.738064
1658.481803	-3.014000	3.453000	-10.407000	25.760208	0.000233	20.714281
1659.484189	-2.999000	3.452700	-10.354000	25.720531	0.000235	20.725637
1660.487064	-3.000500	3.452500	-10.357000	25.677573	0.000234	20.714257
1661.488505	-2.989400	3.452500	-10.320000	25.638235	0.000233	20.721689
1662.484333	-2.990300	3.451500	-10.320000	25.656500	0.000233	20.733870
1663.463208	-3.025700	3.450000	-10.437000	25.710545	0.000232	20.745953
1664.483693	-3.013900	3.451100	-10.400000	25.684930	0.000234	20.740140
1665.490769	-2.991200	3.450800	-10.321000	25.687958	0.000234	20.733698
1666.482483	-2.993000	3.451000	-10.328000	25.681210	0.000233	20.727394
1667.498014	-2.967600	3.451300	-10.241000	25.679119	0.000231	20.721025
1668.496231	-3.032500	3.449900	-10.461000	25.660039	0.000233	20.737425
1669.467125	-3.022200	3.448100	-10.419000	25.653154	0.000231	20.750899
1670.468728	-2.994300	3.448600	-10.325000	25.666103	0.000230	20.745887
1671.467030	-2.984000	3.449000	-10.291000	25.630598	0.000230	20.720183
1672.469815	-3.012900	3.448500	-10.389000	25.657907	0.000229	20.748560
1673.468490	-3.010000	3.448300	-10.378000	25.721588	0.000231	20.757994
1674.467431	-2.999000	3.446900	-10.337000	25.767996	0.000230	20.735855
1675.469639	-3.015500	3.447500	-10.395000	25.778136	0.000228	20.737506
1676.486698	-3.009600	3.447400	-10.374000	25.778584	0.000227	20.755975
1677.484609	-2.978600	3.446300	-10.265000	25.797368	0.000229	20.741177
1678.489090	-3.019100	3.445700	-10.402000	25.755234	0.000225	20.758599
1679.485388	-2.971300	3.447800	-10.243000	25.765472	0.000226	20.753709
1680.487120	-2.972000	3.446100	-10.241000	25.725585	0.000226	20.751577
1681.487654	-2.997900	3.446100	-10.330000	25.712797	0.000225	20.740155
1682.484429	-3.008700	3.446900	-10.370000	25.703063	0.000225	20.742705
1683.494504	-2.997400	3.444500	-10.324000	25.717526	0.000226	20.758655
1684.468944	-3.026900	3.444300	-10.425000	25.695167	0.000226	20.757061
1685.470058	-3.017900	3.443400	-10.391000	25.696363	0.000227	20.761581
1686.474047	-2.990900	3.444500	-10.301000	25.751423	0.000227	20.752874
1687.470626	-3.033600	3.443700	-10.446000	25.805204	0.000228	20.752842
1688.468483	-3.000000	3.444900	-10.334000	25.784662	0.000226	20.764925
1689.471158	-3.031700	3.442200	-10.435000	25.784393	0.000223	20.764181
1690.485786	-2.995200	3.442700	-10.310000	25.756616	0.000223	20.735804
1691.470579	-3.017800	3.442900	-10.390000	25.710631	0.000226	20.760739
1692.503736	-2.996600	3.442900	-10.315000	25.719551	0.000225	20.767802
1693.486874	-2.994400	3.441800	-10.305000	25.744595	0.000225	20.764508
1694.472274	-2.990900	3.442000	-10.294000	25.768645	0.000224	20.765905
1695.469658	-3.001300	3.441400	-10.328000	25.749469	0.000224	20.780310
1696.470095	-2.996200	3.440700	-10.308000	25.810362	0.000223	20.754705
1697.470057	-3.012500	3.439400	-10.360000	25.822236	0.000221	20.759520
1698.476601	-3.020500	3.440100	-10.389000	25.836453	0.000224	20.768112
1699.475550	-3.000100	3.440800	-10.321000	25.802663	0.000223	20.764041
1700.476300	-2.961100	3.439600	-10.183000	25.820607	0.000223	20.763100
1701.472872	-3.025200	3.438700	-10.402000	25.769799	0.000224	20.757108
1702.491789	-3.006700	3.439000	-10.340000	25.772411	0.000221	20.774431
1703.493063	-3.047200	3.438600	-10.478000	25.776799	0.000221	20.769355
1704.501242	-2.990300	3.438200	-10.280000	25.793995	0.000221	20.777146
1705.475375	-2.981600	3.438700	-10.252000	25.818467	0.000220	20.775649
1706.475478	-2.979000	3.437400	-10.239000	25.868378	0.000219	20.760353
1707.478370	-3.006800	3.437900	-10.336000	25.909148	0.000221	20.753894
1708.475328	-2.959500	3.437600	-10.172000	25.877989	0.000219	20.784708
1709.496717	-3.010100	3.436900	-10.344000	25.851264	0.000219	20.771610
1710.499330	-3.001100	3.436100	-10.311000	25.781705	0.000220	20.784241
1711.497988	-2.988800	3.435700	-10.268000	25.778003	0.000222	20.759658
1712.502067	-2.991900	3.436200	-10.280000	25.807895	0.000219	20.785892
1713.500287	-2.998600	3.436200	-10.302000	25.758086	0.000217	20.781379
1714.502687	-3.005200	3.434300	-10.319000	25.754009	0.000217	20.775861
1715.502165	-3.004100	3.434500	-10.316000	25.775422	0.000217	20.782197
1716.497968	-2.997800	3.435600	-10.299000	25.723105	0.000219	20.777536
1717.503431	-2.993500	3.435200	-10.283000	25.741264	0.000219	20.784396
1718.503943	-2.983000	3.434400	-10.244000	25.739750	0.000217	20.787617
1719.502298	-3.011400	3.432900	-10.337000	25.698680	0.000220	20.794255
1720.518103	-2.980600	3.433800	-10.234000	25.706192	0.000217	20.778566
1721.484541	-2.994200	3.432700	-10.277000	25.731341	0.000216	20.783912
1722.504756	-3.003900	3.433700	-10.313000	25.774941	0.000216	20.786455
1723.499637	-2.976600	3.433800	-10.219000	25.849594	0.000215	20.791744
1724.484324	-3.017800	3.430800	-10.353000	25.835840	0.000217	20.788359
1725.504942	-3.000900	3.431100	-10.296000	25.819214	0.000215	20.784460
1726.517025	-3.002400	3.431700	-10.302000	25.819092	0.000214	20.781018
1727.484014	-2.998000	3.430800	-10.283000	25.783575	0.000214	20.790860
1728.483843	-3.008600	3.430000	-10.319000	25.771644	0.000213	20.788833
1729.487107	-3.007100	3.430200	-10.314000	25.804735	0.000214	20.785089
1730.483149	-3.022100	3.431100	-10.368000	25.797036	0.000213	20.774510
1731.493512	-2.998400	3.428900	-10.281000	25.799372	0.000214	20.792029
1732.485687	-2.998200	3.428800	-10.279000	25.847102	0.000213	20.794931
1733.488634	-3.010000	3.429700	-10.323000	25.816739	0.000211	20.794302
1734.485837	-3.001500	3.429100	-10.292000	25.822826	0.000212	20.798994
1735.488034	-2.986300	3.428300	-10.238000	25.822980	0.000212	20.793934
1736.488499	-2.988800	3.428400	-10.246000	25.832250	0.000213	20.789020
1737.487373	-2.965100	3.428400	-10.164000	25.813596	0.000211	20.775972
1738.486710	-2.974900	3.428300	-10.198000	25.823810	0.000213	20.797611
1739.485965	-2.984400	3.428000	-10.230000	25.757319	0.000212	20.794359
1740.503909	-2.988000	3.426500	-10.238000	25.765092	0.000211	20.782726
1741.507083	-3.020700	3.425800	-10.348000	25.807582	0.000209	20.792690
1742.508110	-3.007300	3.425200	-10.300000	25.787390	0.000209	20.811288
1743.507554	-2.989600	3.426400	-10.242000	25.811432	0.000210	20.802721
1744.520496	-3.005700	3.425700	-10.296000	25.778495	0.000209	20.799034
1745.507234	-2.992000	3.425300	-10.247000	25.783956	0.000210	20.798356
1746.512312	-2.973600	3.425400	-10.184000	25.777649	0.000209	20.798658
1747.512601	-3.006000	3.424200	-10.292000	25.716688	0.000209	20.801437
1748.487771	-3.008100	3.423500	-10.296000	25.727196	0.000208	20.804879
1749.488882	-3.006300	3.423300	-10.291000	25.764334	0.000209	20.799508
1750.491484	-2.992300	3.423600	-10.243000	25.791736	0.000209	20.789101
1751.492332	-3.001600	3.423200	-10.274000	25.863116	0.000208	20.820027
1752.495876	-2.984500	3.423600	-10.217000	25.863955	0.000206	20.801903
1753.492113	-3.004600	3.422600	-10.283000	25.862595	0.000205	20.821874
1754.511962	-3.015200	3.421500	-10.315000	25.871287	0.000207	20.821122
1755.516387	-2.991700	3.422300	-10.237000	25.903732	0.000206	20.823370
1756.519467	-3.003800	3.422500	-10.280000	25.918339	0.000206	20.815759
1757.526258	-2.986400	3.422600	-10.220000	25.851862	0.000206	20.815359
1758.521992	-3.020100	3.421200	-10.332000	25.855703	0.000206	20.819218
1759.508813	-2.999900	3.421000	-10.262000	25.827244	0.000206	20.817182
1760.512606	-3.004800	3.419600	-10.274000	25.834715	0.000202	20.811411
1761.509732	-2.987900	3.420600	-10.220000	25.892502	0.000204	20.804977
1762.507455	-2.992000	3.421100	-10.235000	25.905571	0.000206	20.826166
1763.517018	-2.993600	3.419100	-10.235000	25.927705	0.000205	20.812367
1764.492738	-3.022200	3.417700	-10.328000	25.953436	0.000203	20.823518
1765.495323	-3.015900	3.418900	-10.309000	25.937267	0.000202	20.821024
1766.493930	-3.022200	3.418400	-10.330000	25.830125	0.000203	20.793524
1767.494111	-3.006600	3.419300	-10.280000	25.799834	0.000203	20.809089
1768.494670	-3.016200	3.417300	-10.306000	25.817055	0.000202	20.812637
1769.492522	-2.993900	3.419700	-10.237000	25.815362	0.000204	20.812359
1770.493100	-2.993500	3.417700	-10.229000	25.824233	0.000201	20.824589
1771.496905	-2.990800	3.418200	-10.223000	25.802415	0.000199	20.820216
1772.493492	-3.030700	3.416200	-10.352000	25.822369	0.000201	20.793320
1773.495767	-2.983900	3.417800	-10.198000	25.865486	0.000202	20.794906
1774.496555	-3.016700	3.415000	-10.301000	25.835627	0.000203	20.807112
1775.514481	-3.021700	3.415500	-10.320000	25.847354	0.000201	20.816995
1776.497849	-2.986100	3.416100	-10.200000	25.896417	0.000202	20.810332
1777.495597	-2.991700	3.415800	-10.219000	25.915866	0.000202	20.822758
1778.495506	-2.989800	3.415000	-10.209000	25.913238	0.000200	20.810160
1779.498785	-2.996200	3.414900	-10.231000	25.894375	0.000199	20.801643
1780.497844	-2.985000	3.414000	-10.189000	25.903815	0.000201	20.790737
1781.494137	-2.998400	3.414600	-10.237000	25.879523	0.000199	20.801896
1782.495951	-2.982200	3.414400	-10.182000	25.839525	0.000200	20.795381
1783.520924	-2.986500	3.412900	-10.191000	25.843871	0.000200	20.793582
1784.497556	-2.997100	3.414400	-10.233000	25.875821	0.000198	20.790116
1785.503583	-2.997000	3.412500	-10.226000	25.863524	0.000198	20.786298
1786.522793	-3.009800	3.413500	-10.272000	25.884471	0.000198	20.791219
1787.499624	-3.005000	3.411900	-10.252000	25.898053	0.000198	20.807234
1788.521445	-2.987200	3.411900	-10.191000	25.927544	0.000198	20.794661
1789.515199	-2.982200	3.411400	-10.173000	25.928414	0.000195	20.794113
1790.503232	-2.989200	3.410300	-10.193000	25.905564	0.000197	20.806719
1791.496778	-2.995200	3.410500	-10.213000	25.929008	0.000195	20.788546
1792.499984	-2.987600	3.411700	-10.192000	25.940783	0.000196	20.788995
1793.497913	-2.987300	3.410200	-10.186000	25.961679	0.000196	20.778694
1794.499956	-2.988100	3.410600	-10.190000	25.964291	0.000196	20.788431
1795.503237	-3.014600	3.409200	-10.276000	25.908444	0.000194	20.772154
1796.505842	-3.007900	3.409300	-10.253000	25.916671	0.000196	20.778522
1797.500080	-3.017200	3.409100	-10.285000	25.902886	0.000194	20.795020
1798.523417	-3.018900	3.407500	-10.285000	25.873322	0.000195	20.793769
1799.525972	-3.003000	3.410100	-10.239000	25.900387	0.000196	20.795354
1800.518166	-3.000000	3.408400	-10.224000	25.901551	0.000195	20.785144
1801.520598	-3.011500	3.408400	-10.263000	25.918941	0.000194	20.794553
1802.527775	-2.974500	3.408500	-10.137000	25.920674	0.000194	20.795346
1803.538382	-2.998500	3.406200	-10.212000	25.895733	0.000194	20.778825
1804.522353	-3.008900	3.406200	-10.248000	25.907239	0.000194	20.792755
1805.525777	-2.976700	3.407600	-10.142000	25.900208	0.000192	20.762932
1806.503106	-2.990800	3.406200	-10.186000	25.906848	0.000194	20.773870
1807.502014	-2.985900	3.407500	-10.173000	25.940610	0.000193	20.787399
1808.522274	-2.988000	3.406400	-10.178000	25.944899	0.000192	20.786967
1809.504639	-3.016100	3.404000	-10.266000	25.947357	0.000192	20.787065
1810.503651	-3.011500	3.404700	-10.253000	25.941945	0.000193	20.773567
1811.508960	-2.992700	3.404100	-10.187000	25.855572	0.000191	20.778309
1812.506641	-3.013600	3.403800	-10.257000	25.842705	0.000191	20.764910
1813.524282	-2.988500	3.404400	-10.173000	25.881206	0.000190	20.762809
1814.511376	-3.006300	3.403300	-10.230000	25.904464	0.000188	20.770526
1815.504754	-3.010500	3.403100	-10.244000	25.945770	0.000190	20.776936
1816.506477	-2.999500	3.405200	-10.212000	25.947780	0.000190	20.761411
1817.520728	-3.034900	3.402200	-10.324000	25.943410	0.000191	20.771246
1818.525025	-3.005000	3.403500	-10.226000	25.940806	0.000192	20.776216
1819.506251	-2.992200	3.403000	-10.181000	25.938959	0.000188	20.760136
1820.509617	-2.991000	3.402000	-10.174000	25.907166	0.000189	20.792681
1821.508372	-2.999700	3.401600	-10.201000	25.877748	0.000189	20.767396
1822.510997	-3.005800	3.401000	-10.222000	25.873312	0.000190	20.747766
1823.508044	-3.011100	3.402100	-10.244000	25.877878	0.000188	20.738602
1824.508406	-3.036400	3.400100	-10.323000	25.875567	0.000188	20.762833
1825.508971	-3.001600	3.400500	-10.206000	25.889922	0.000186	20.762556
1826.527822	-3.017400	3.399800	-10.258000	25.916850	0.000186	20.748355
1827.529137	-3.019000	3.400400	-10.265000	25.894121	0.000186	20.761084
1828.544251	-3.017900	3.399700	-10.259000	25.911308	0.000187	20.776454
1829.528889	-2.997200	3.400500	-10.191000	25.968563	0.000185	20.764273
1830.510729	-2.998000	3.399500	-10.191000	25.957838	0.000186	20.751601
1831.516382	-3.004700	3.398600	-10.210000	25.952915	0.000183	20.766096
1832.512546	-3.007000	3.398500	-10.218000	25.959474	0.000186	20.751348
1833.514624	-3.026800	3.397700	-10.283000	25.936518	0.000183	20.750571
1834.514211	-2.995800	3.398300	-10.180000	25.902138	0.000182	20.756335
1835.536143	-2.969400	3.397900	-10.089000	25.877570	0.000182	20.771009
1836.546443	-2.972000	3.398700	-10.100000	25.887132	0.000183	20.756907
1837.514887	-2.985200	3.397400	-10.141000	25.902959	0.000185	20.753367
1838.536994	-3.000800	3.397900	-10.195000	25.912692	0.000185	20.750343
1839.533134	-3.007300	3.397300	-10.216000	25.904847	0.000182	20.747677
1840.539829	-3.009900	3.395200	-10.218000	25.903065	0.000183	20.746834
1841.535543	-2.989300	3.395600	-10.149000	25.923205	0.000182	20.758534
1842.530792	-2.996400	3.394400	-10.170000	25.911805	0.000179	20.744235
1843.534949	-3.022000	3.395600	-10.261000	25.931791	0.000182	20.746770
1844.518300	-3.024200	3.394000	-10.263000	25.927299	0.000180	20.770707
1845.515273	-3.000900	3.394800	-10.186000	25.905962	0.000181	20.751168
1846.520607	-3.001400	3.394100	-10.185000	25.943094	0.000180	20.757177
1847.519526	-2.982900	3.394300	-10.123000	25.943965	0.000179	20.750940
1848.519517	-3.007700	3.393500	-10.205000	25.990290	0.000180	20.738685
1849.524169	-2.999200	3.392600	-10.173000	25.974146	0.000181	20.758502
1850.542624	-2.985800	3.392700	-10.129000	25.926746	0.000178	20.758772
1851.542271	-2.999300	3.392900	-10.175000	25.902284	0.000178	20.744154
1852.544530	-2.997000	3.392000	-10.165000	25.879051	0.000180	20.752109
1853.519061	-3.017200	3.391300	-10.230000	25.926421	0.000177	20.731417
1854.540086	-2.980800	3.391500	-10.109000	25.949946	0.000179	20.740827
1855.544158	-3.024400	3.390700	-10.254000	25.987783	0.000179	20.751340
1856.537991	-2.993200	3.390700	-10.149000	26.011316	0.000178	20.749379
1857.541568	-2.989900	3.390600	-10.137000	25.999892	0.000180	20.753548
1858.530012	-2.998800	3.390600	-10.167000	26.026117	0.000177	20.742913
1859.542332	-3.017100	3.390000	-10.228000	26.030348	0.000177	20.729619
1860.542243	-2.993700	3.390800	-10.150000	26.009323	0.000179	20.743109
1861.523160	-3.011200	3.389900	-10.205000	26.009226	0.000177	20.739217
1862.521524	-2.975400	3.389300	-10.083000	26.067598	0.000177	20.750924
1863.522861	-2.992500	3.388900	-10.141000	26.111330	0.000177	20.720896
1864.527737	-2.981600	3.388600	-10.103000	26.095530	0.000174	20.752438
1865.535200	-3.005800	3.388400	-10.183000	26.067216	0.000176	20.744377
1866.538409	-2.989700	3.388300	-10.129000	26.065548	0.000176	20.757400
1867.540070	-3.011400	3.388000	-10.202000	26.018674	0.000176	20.751556
1868.536981	-2.974600	3.388000	-10.076000	25.984922	0.000174	20.735188
1869.543222	-3.004900	3.388100	-10.179000	25.938914	0.000174	20.750607
1870.522944	-3.002300	3.385900	-10.165000	25.919483	0.000173	20.742939
1871.522454	-2.992500	3.385800	-10.131000	25.918644	0.000173	20.747313
1872.522446	-3.016300	3.385000	-10.209000	25.970259	0.000174	20.744165
1873.523393	-2.999600	3.386000	-10.156000	26.020212	0.000173	20.739350
1874.524155	-3.004000	3.385300	-10.169000	26.030765	0.000173	20.730038
1875.527338	-2.999300	3.385300	-10.153000	26.063524	0.000172	20.741615
1876.525259	-2.999400	3.385100	-10.152000	26.101048	0.000171	20.727161
1877.525778	-2.992900	3.384400	-10.129000	26.079317	0.000171	20.732352
1878.526104	-2.996300	3.384200	-10.139000	26.077250	0.000172	20.741657
1879.548345	-3.016900	3.383400	-10.206000	26.058276	0.000172	20.724488
1880.543513	-3.005500	3.384600	-10.172000	26.027227	0.000173	20.722215
1881.548460	-3.015000	3.383500	-10.200000	26.046901	0.000171	20.735819
1882.523900	-2.988700	3.383400	-10.111000	26.045485	0.000169	20.756683
1883.543689	-2.995700	3.383400	-10.133000	26.044119	0.000169	20.764793
1884.544273	-2.984900	3.382300	-10.095000	26.049359	0.000169	20.738288
1885.529439	-2.988200	3.382900	-10.108000	26.043321	0.000169	20.728429
1886.547182	-2.998000	3.381900	-10.138000	26.052686	0.000171	20.744003
1887.544475	-2.993200	3.381300	-10.120000	26.028684	0.000169	20.701867
1888.552795	-2.997800	3.381500	-10.137000	25.987203	0.000168	20.746489
1889.530178	-3.004200	3.380400	-10.155000	25.975338	0.000168	20.738362
1890.550670	-3.006600	3.380500	-10.163000	25.939616	0.000167	20.738035
1891.547171	-3.012900	3.379200	-10.180000	25.932211	0.000168	20.719215
1892.533383	-3.006100	3.380400	-10.160000	25.959976	0.000169	20.725773
1893.550248	-2.997400	3.379300	-10.128000	25.969838	0.000165	20.719559
1894.529966	-2.994200	3.378600	-10.115000	25.962710	0.000167	20.737529
1895.530748	-3.010200	3.377800	-10.167000	25.943685	0.000167	20.714147
1896.532394	-3.008300	3.377900	-10.159000	25.982825	0.000165	20.717908
1897.536650	-2.986400	3.378100	-10.087000	25.972411	0.000166	20.724515
1898.548207	-3.012300	3.377600	-10.173000	25.998872	0.000165	20.730237
1899.533491	-3.003700	3.376100	-10.140000	25.952263	0.000166	20.724188
1900.559155	-3.002800	3.377100	-10.139000	26.010174	0.000166	20.714090
1901.551384	-2.989400	3.376600	-10.093000	26.047913	0.000165	20.735887
1902.552852	-2.995300	3.376300	-10.112000	26.017920	0.000161	20.731357
1903.552010	-2.997900	3.375900	-10.120000	26.017343	0.000164	20.735045
1904.558851	-3.007500	3.376400	-10.154000	26.039719	0.000163	20.722438
1905.558947	-3.005300	3.376100	-10.145000	26.032266	0.000164	20.720166
1906.533867	-2.993100	3.375600	-10.103000	26.073201	0.000165	20.724785
1907.533382	-3.002500	3.375500	-10.134000	26.118772	0.000163	20.725055
1908.536710	-2.997500	3.374700	-10.115000	26.126567	0.000162	20.740948
1909.536040	-2.983300	3.373800	-10.064000	26.066066	0.000161	20.731841
1910.536458	-3.000600	3.375000	-10.126000	26.039215	0.000164	20.737580
1911.533254	-2.998300	3.373600	-10.115000	26.017580	0.000162	20.703038
1912.535120	-3.010000	3.373800	-10.154000	26.023348	0.000163	20.726853
1913.535495	-2.982100	3.373800	-10.061000	26.048629	0.000161	20.704363
1914.536235	-2.993400	3.374000	-10.099000	26.108505	0.000162	20.736551
1915.534433	-3.011000	3.372100	-10.152000	26.153009	0.000160	20.710144
1916.534627	-2.997900	3.370800	-10.104000	26.151723	0.000158	20.712645
1917.535431	-2.985700	3.371900	-10.067000	26.170419	0.000160	20.703456
1918.539146	-3.011800	3.371600	-10.153000	26.197071	0.000158	20.714591
1919.535380	-2.994100	3.371100	-10.093000	26.186976	0.000159	20.725310
1920.534678	-3.006200	3.371000	-10.133000	26.125038	0.000158	20.736568
1921.535713	-3.013700	3.370700	-10.158000	26.097441	0.000158	20.692714
1922.536508	-3.016400	3.371200	-10.167000	26.058615	0.000160	20.706809
1923.541863	-2.988500	3.369700	-10.069000	26.061121	0.000157	20.729244
1924.542610	-3.016900	3.369600	-10.165000	26.116366	0.000157	20.715524
1925.536009	-2.997800	3.370400	-10.103000	26.133151	0.000159	20.723856
1926.547534	-2.987300	3.369200	-10.064000	26.139219	0.000158	20.705296
1927.538454	-2.989800	3.369000	-10.072000	26.172463	0.000156	20.704561
1928.538703	-3.011200	3.368900	-10.144000	26.213214	0.000156	20.719433
1929.540099	-2.992900	3.369300	-10.083000	26.231493	0.000158	20.693704
1930.540335	-3.004700	3.367700	-10.118000	26.167241	0.000154	20.694097
1931.545274	-3.003900	3.367400	-10.115000	26.127432	0.000156	20.709573
1932.538983	-3.010700	3.367800	-10.139000	26.080470	0.000157	20.716441
1933.540425	-3.013200	3.367100	-10.145000	26.109036	0.000154	20.714323
1934.542082	-2.979500	3.368400	-10.035000	26.072692	0.000154	20.740395
1935.542768	-3.015300	3.364900	-10.145000	26.108231	0.000154	20.703556
1936.540601	-3.031200	3.365000	-10.199000	26.122486	0.000153	20.709819
1937.543960	-3.022200	3.365300	-10.169000	26.132077	0.000152	20.707603
1938.545129	-2.984000	3.365600	-10.041000	26.143997	0.000153	20.703458
1939.548458	-2.987300	3.365500	-10.053000	26.166475	0.000153	20.683370
1940.548141	-2.984600	3.364200	-10.040000	26.204835	0.000151	20.700581
1941.545987	-2.981900	3.366300	-10.037000	26.176482	0.000155	20.705755
1942.545348	-2.990600	3.363800	-10.059000	26.125121	0.000152	20.705829
1943.553601	-2.997200	3.364800	-10.084000	26.063271	0.000151	20.701055
1944.545195	-3.002700	3.362900	-10.097000	26.035012	0.000154	20.708699
1945.554517	-3.017700	3.362700	-10.147000	26.014450	0.000150	20.687090
1946.547634	-3.001200	3.361100	-10.087000	26.083871	0.000152	20.704210
1947.549093	-2.984700	3.362900	-10.036000	26.119581	0.000153	20.708797
1948.550104	-3.010100	3.361500	-10.118000	26.188499	0.000148	20.679421
1949.548035	-2.991100	3.362300	-10.057000	26.184105	0.000151	20.707252
1950.549102	-2.986000	3.361600	-10.037000	26.202410	0.000149	20.690557
1951.571557	-3.026000	3.361500	-10.170000	26.209463	0.000150	20.691480
1952.549546	-3.001300	3.361300	-10.087000	26.222105	0.000149	20.704660
1953.548076	-2.966900	3.361200	-9.971800	26.182795	0.000148	20.688390
1954.565454	-2.997300	3.360600	-10.072000	26.163050	0.000151	20.698896
1955.574994	-2.984900	3.360000	-10.027000	26.150529	0.000148	20.689633
1956.549951	-3.011400	3.359500	-10.116000	26.138016	0.000150	20.672790
1957.548446	-3.001800	3.358900	-10.082000	26.148894	0.000149	20.703163
1958.548694	-2.993300	3.358300	-10.051000	26.130816	0.000145	20.676935
1959.562486	-3.008700	3.359700	-10.108000	26.158527	0.000146	20.679650
1960.572944	-2.992000	3.358200	-10.047000	26.189003	0.000148	20.711225
1961.552454	-2.994400	3.357200	-10.052000	26.190474	0.000145	20.686149
1962.549281	-3.017500	3.357900	-10.132000	26.173081	0.000147	20.666773
1963.553015	-2.990300	3.356700	-10.037000	26.207909	0.000145	20.684227
1964.551554	-2.991800	3.356500	-10.041000	26.235894	0.000145	20.676313
1965.553479	-3.004000	3.356900	-10.083000	26.197594	0.000144	20.680974
1966.554075	-2.979700	3.356700	-10.001000	26.200237	0.000145	20.671775
1967.552372	-2.989600	3.356100	-10.032000	26.210341	0.000146	20.679559
1968.550072	-2.996800	3.355900	-10.056000	26.154124	0.000145	20.691348
1969.552873	-2.999800	3.356000	-10.067000	26.152376	0.000145	20.684849
1970.566636	-2.986000	3.356100	-10.021000	26.170933	0.000144	20.664613
1971.575164	-2.982700	3.355400	-10.008000	26.239001	0.000145	20.680859
1972.553935	-2.972500	3.355300	-9.972500	26.226734	0.000143	20.707414
1973.568396	-3.004400	3.353100	-10.073000	26.220624	0.000143	20.666183
1974.569803	-2.973700	3.355000	-9.976100	26.186154	0.000145	20.679911
1975.556623	-2.987100	3.355300	-10.021000	26.197699	0.000143	20.686770
1976.559973	-2.994100	3.353800	-10.041000	26.204190	0.000142	20.685707
1977.555435	-2.996000	3.354100	-10.048000	26.192589	0.000142	20.679739
1978.577448	-2.987700	3.353500	-10.019000	26.192289	0.000143	20.669952
1979.556245	-3.017300	3.352100	-10.113000	26.186626	0.000144	20.668055
1980.578537	-2.987900	3.351200	-10.012000	26.151341	0.000143	20.694242
1981.575006	-2.994600	3.352500	-10.039000	26.134444	0.000140	20.684375
1982.582279	-3.013200	3.351700	-10.098000	26.154865	0.000140	20.668382
1983.560103	-3.006700	3.350400	-10.072000	26.161414	0.000141	20.683974
1984.576466	-3.012900	3.350500	-10.094000	26.132354	0.000139	20.674213
1985.578938	-2.974500	3.352000	-9.969400	26.161121	0.000142	20.663763
1986.584953	-2.992000	3.349900	-10.022000	26.222682	0.000141	20.671571
1987.579244	-3.027900	3.349100	-10.140000	26.226831	0.000140	20.668628
1988.560704	-3.000300	3.350600	-10.052000	26.229183	0.000140	20.675259
1989.558005	-2.998200	3.348700	-10.039000	26.250042	0.000138	20.660183
1990.559176	-3.019000	3.348400	-10.108000	26.229802	0.000137	20.658810
1991.563169	-3.004100	3.348100	-10.057000	26.254141	0.000141	20.673313
1992.562869	-2.998700	3.348700	-10.041000	26.246837	0.000138	20.657910
1993.563120	-2.992500	3.349200	-10.022000	26.235733	0.000138	20.676151
1994.560544	-2.987700	3.348400	-10.003000	26.205380	0.000138	20.676471
1995.577926	-2.991100	3.348200	-10.013000	26.237221	0.000137	20.679544
1996.560879	-3.008500	3.347100	-10.068000	26.226442	0.000133	20.658753
1997.563594	-2.989300	3.346500	-10.003000	26.171455	0.000137	20.647593
1998.582605	-3.005200	3.345300	-10.053000	26.178631	0.000135	20.690370
1999.565685	-2.997400	3.345900	-10.028000	26.201256	0.000136	20.658099
2000.563385	-2.993100	3.346900	-10.017000	26.220895	0.000136	20.653652
2001.561504	-3.004100	3.345000	-10.048000	26.238011	0.000136	20.672751
2002.565510	-3.001400	3.345600	-10.040000	26.239402	0.000135	20.661345
2003.563412	-3.002600	3.344900	-10.043000	26.206569	0.000135	20.659645
2004.582324	-2.996600	3.344600	-10.021000	26.222734	0.000135	20.668303
2005.600233	-2.998500	3.345400	-10.030000	26.283648	0.000133	20.661239
2006.583200	-3.013000	3.343300	-10.073000	26.291149	0.000132	20.670674
2007.565506	-3.005600	3.345400	-10.054000	26.290156	0.000132	20.668728
2008.562390	-3.006600	3.343400	-10.050000	26.267484	0.000134	20.670126
2009.579289	-2.998300	3.343200	-10.023000	26.256461	0.000134	20.677068
2010.578688	-2.991200	3.343500	-9.999900	26.253427	0.000134	20.640349
2011.579013	-2.993500	3.343300	-10.007000	26.240859	0.000132	20.659964
2012.591542	-2.999400	3.342900	-10.026000	26.255811	0.000134	20.682579
2013.563938	-3.011600	3.341400	-10.062000	26.301871	0.000132	20.640669
2014.592667	-3.012200	3.341800	-10.065000	26.334229	0.000133	20.659915
2015.590418	-2.999800	3.340000	-10.019000	26.320670	0.000133	20.666203
2016.584187	-2.994500	3.341600	-10.006000	26.278590	0.000130	20.671804
2017.587782	-2.958000	3.340700	-9.881000	26.219000	0.000130	20.691107
2018.569259	-2.977100	3.340900	-9.945300	26.200168	0.000129	20.665067
2019.586758	-3.008900	3.340300	-10.050000	26.211622	0.000129	20.668043
2020.585209	-3.005400	3.338300	-10.032000	26.261060	0.000129	20.659401
2021.603056	-2.989400	3.339400	-9.981600	26.271310	0.000129	20.653106
2022.590698	-2.976900	3.340100	-9.941700	26.284325	0.000129	20.668559
2023.593398	-2.996500	3.340400	-10.009000	26.277762	0.000128	20.660065
2024.593711	-3.013900	3.338500	-10.061000	26.256041	0.000128	20.654831
2025.592940	-3.010300	3.338500	-10.049000	26.204708	0.000128	20.664414
2026.569936	-2.989100	3.338500	-9.978100	26.248988	0.000128	20.679514
2027.571902	-2.998400	3.337700	-10.007000	26.281138	0.000127	20.661561
2028.570605	-2.999300	3.336200	-10.005000	26.316848	0.000128	20.658568
2029.585826	-2.995200	3.336000	-9.991400	26.306892	0.000128	20.654251
2030.593374	-2.999900	3.335600	-10.006000	26.359708	0.000126	20.675092
2031.570607	-3.005100	3.336000	-10.023000	26.402063	0.000125	20.663131
2032.571136	-3.005800	3.335600	-10.025000	26.438217	0.000127	20.658691
2033.570377	-3.001100	3.335800	-10.010000	26.422324	0.000126	20.677807
2034.601349	-2.978800	3.336300	-9.937000	26.399484	0.000124	20.668600
2035.593936	-2.978200	3.334200	-9.929500	26.379215	0.000124	20.647278
2036.598410	-2.984000	3.335300	-9.952200	26.302988	0.000125	20.672615
2037.593867	-3.004200	3.334600	-10.017000	26.344953	0.000125	20.680178
2038.596750	-2.990900	3.333400	-9.969100	26.324008	0.000125	20.651064
2039.572398	-2.988300	3.333600	-9.960100	26.317858	0.000125	20.672861
2040.601851	-2.995000	3.333300	-9.982700	26.318330	0.000123	20.658160
2041.597505	-3.000800	3.332800	-9.999800	26.301076	0.000123	20.659313
2042.575193	-3.009200	3.332800	-10.028000	26.322544	0.000124	20.669984
2043.571816	-2.979400	3.332700	-9.927700	26.333672	0.000125	20.684013
2044.571439	-2.975600	3.333800	-9.919000	26.303029	0.000123	20.673605
2045.578306	-3.002200	3.330900	-9.998100	26.317980	0.000122	20.684839
2046.572218	-2.996500	3.331000	-9.980200	26.319933	0.000121	20.673998
2047.577967	-2.983800	3.331400	-9.939700	26.411329	0.000122	20.671971
2048.570913	-2.991200	3.329900	-9.960000	26.447556	0.000123	20.660966
2049.572692	-3.003500	3.330700	-10.003000	26.414387	0.000123	20.678839
2050.606819	-2.985000	3.330600	-9.941000	26.449028	0.000122	20.652487
2051.573610	-2.997500	3.330600	-9.982000	26.466206	0.000121	20.692991
2052.576475	-3.015600	3.328700	-10.037000	26.423130	0.000121	20.680988
2053.577850	-3.006600	3.328800	-10.008000	26.465864	0.000119	20.660875
2054.590236	-3.023700	3.328200	-10.063000	26.465060	0.000119	20.662912
2055.575554	-3.013300	3.328100	-10.028000	26.490086	0.000117	20.678111
2056.596083	-3.000900	3.327700	-9.985000	26.514989	0.000121	20.676590
2057.574286	-3.018800	3.326700	-10.042000	26.509532	0.000119	20.675372
2058.577576	-3.007800	3.327200	-10.006000	26.484831	0.000121	20.681364
2059.576262	-2.990000	3.327100	-9.947600	26.448695	0.000118	20.658792
2060.575682	-3.017700	3.325900	-10.035000	26.477007	0.000118	20.687726
2061.576852	-3.016700	3.325300	-10.031000	26.490289	0.000119	20.672151
2062.577786	-2.987700	3.326000	-9.936300	26.516949	0.000119	20.663861
2063.579266	-3.008400	3.327300	-10.009000	26.495991	0.000119	20.686893
2064.578663	-2.972300	3.326100	-9.884900	26.438048	0.000115	20.672748
2065.579463	-3.030200	3.324900	-10.074000	26.486808	0.000116	20.668178
2066.579209	-2.980700	3.326000	-9.913000	26.470249	0.000117	20.670499
2067.578502	-2.997600	3.325300	-9.967400	26.500195	0.000118	20.689222
2068.582498	-2.990600	3.324400	-9.941100	26.461977	0.000116	20.665504
2069.585860	-2.975200	3.324900	-9.891100	26.439627	0.000114	20.675283
2070.586014	-2.984700	3.324400	-9.921200	26.439977	0.000114	20.683696
2071.598862	-2.990100	3.323900	-9.938000	26.442433	0.000115	20.688536
2072.597878	-2.997800	3.323100	-9.961300	26.406702	0.000114	20.678701
2073.601221	-2.989000	3.324000	-9.934500	26.388824	0.000115	20.670214
2074.607570	-3.002200	3.321400	-9.971200	26.432624	0.000117	20.669192
2075.599079	-3.003300	3.322500	-9.977700	26.471275	0.000115	20.673428
2076.607647	-3.009400	3.321800	-9.996600	26.527906	0.000114	20.672978
2077.604917	-3.005200	3.320300	-9.977600	26.528825	0.000115	20.681490
2078.601977	-3.013900	3.320400	-10.006000	26.453748	0.000114	20.692322
2079.609277	-3.026900	3.319400	-10.046000	26.451186	0.000115	20.694015
2080.585767	-2.979000	3.320100	-9.889500	26.522742	0.000113	20.667787
2081.587092	-2.997300	3.319200	-9.948200	26.499425	0.000113	20.680861
2082.592657	-3.002400	3.319700	-9.966300	26.458832	0.000114	20.681784
2083.592482	-3.003100	3.318500	-9.964900	26.431910	0.000112	20.696927
2084.589361	-3.001400	3.318900	-9.960300	26.399667	0.000112	20.677320
2085.588358	-3.015000	3.318200	-10.003000	26.389102	0.000110	20.691833
2086.589137	-2.999100	3.318000	-9.949700	26.438148	0.000113	20.678064
2087.590863	-3.008000	3.318200	-9.981000	26.443078	0.000111	20.681598
2088.590653	-3.013000	3.317400	-9.994700	26.503306	0.000112	20.707049
2089.623439	-2.980500	3.317800	-9.887300	26.552347	0.000111	20.696126
2090.605938	-2.991500	3.317300	-9.922700	26.608128	0.000111	20.694352
2091.606556	-3.002400	3.315100	-9.952900	26.656580	0.000110	20.676202
2092.618966	-3.008700	3.315600	-9.975100	26.618595	0.000109	20.705349
2093.607154	-2.995400	3.315600	-9.931200	26.619531	0.000109	20.701074
2094.614841	-3.006400	3.314500	-9.963800	26.624695	0.000110	20.687772
2095.609614	-2.995300	3.316000	-9.931900	26.626997	0.000111	20.694354
2096.608315	-3.008900	3.313600	-9.969900	26.634121	0.000108	20.687290
2097.612033	-3.010200	3.314400	-9.976300	26.618483	0.000109	20.692907
2098.611905	-3.010400	3.314100	-9.976100	26.626403	0.000107	20.690438
2099.614588	-3.002500	3.314100	-9.948900	26.641489	0.000107	20.710821
2100.612487	-2.993800	3.314400	-9.921500	26.663600	0.000107	20.675674
2101.611635	-2.955700	3.313700	-9.793100	26.689646	0.000108	20.699963
2102.598119	-2.964600	3.313700	-9.822500	26.627178	0.000107	20.694062
2103.596581	-2.993800	3.312000	-9.914100	26.652322	0.000105	20.680457
2104.596879	-2.995100	3.313300	-9.923000	26.686362	0.000108	20.716577
2105.596823	-3.002400	3.313300	-9.947200	26.709521	0.000108	20.707143
2106.598079	-2.997700	3.313000	-9.931100	26.695169	0.000106	20.689394
2107.597105	-3.000400	3.310600	-9.932800	26.635790	0.000107	20.696081
2108.600126	-2.988500	3.311000	-9.894300	26.623942	0.000106	20.700293
2109.602495	-2.985200	3.310500	-9.881700	26.625504	0.000106	20.697121
2110.599538	-2.988400	3.310700	-9.892100	26.555304	0.000104	20.719014
2111.603497	-2.990700	3.310400	-9.899600	26.582386	0.000103	20.706882
2112.598206	-2.984400	3.310400	-9.878800	26.525164	0.000105	20.711951
2113.599730	-3.008800	3.309400	-9.956800	26.573319	0.000105	20.704880
2114.599063	-3.009500	3.308300	-9.955200	26.590575	0.000105	20.714641
2115.599079	-3.003900	3.309100	-9.938500	26.621185	0.000105	20.685666
2116.616585	-3.021500	3.308400	-9.995100	26.581540	0.000103	20.708877
2117.620510	-2.997800	3.306800	-9.912600	26.541072	0.000103	20.706130
2118.632169	-3.009000	3.307800	-9.952000	26.519471	0.000103	20.722825
2119.617953	-3.008200	3.307800	-9.949300	26.482181	0.000102	20.706204
2120.613542	-3.021100	3.305500	-9.984900	26.529377	0.000102	20.724248
2121.617831	-3.006100	3.306900	-9.939900	26.549116	0.000101	20.718010
2122.619023	-3.000000	3.305300	-9.915200	26.582679	0.000101	20.712393
2123.620386	-3.029500	3.305100	-10.012000	26.592308	0.000100	20.718280
2124.617477	-2.998400	3.305600	-9.910600	26.618096	0.000103	20.725712
2125.617877	-3.033100	3.304100	-10.020000	26.621007	9.988182E-5	20.713938
2126.615205	-3.000000	3.304300	-9.912500	26.603824	0.000101	20.714683
2127.606135	-2.999100	3.303200	-9.905400	26.596878	0.000101	20.724771
2128.622907	-2.992800	3.303700	-9.886100	26.655585	9.866073E-5	20.725466
2129.624833	-3.012500	3.303600	-9.951300	26.733177	0.000100	20.726186
2130.624774	-2.986700	3.304000	-9.867400	26.757481	9.918877E-5	20.711265
2131.605055	-3.007500	3.302900	-9.932000	26.773865	9.816570E-5	20.704978
2132.605142	-3.020400	3.302400	-9.973500	26.833107	9.991483E-5	20.708118
2133.608988	-3.031300	3.301400	-10.006000	26.859564	9.866073E-5	20.710064
2134.603926	-3.004800	3.301500	-9.919600	26.812902	9.796768E-5	20.715779
2135.623144	-2.985300	3.302200	-9.857300	26.774313	9.552551E-5	20.720602
2136.624403	-2.993200	3.302200	-9.882600	26.732657	9.654858E-5	20.723766
2137.621694	-3.003400	3.301100	-9.913400	26.736105	9.885875E-5	20.729130
2138.626690	-2.997500	3.300000	-9.891000	26.784632	9.595454E-5	20.721968
2139.621490	-2.996600	3.300000	-9.887800	26.832912	9.582253E-5	20.715983
2140.645388	-3.027700	3.298300	-9.985700	26.849612	9.476645E-5	20.735621
2141.630782	-2.987100	3.299000	-9.854000	26.851774	9.661458E-5	20.729260
2142.635096	-2.988400	3.299400	-9.858800	26.884605	9.387538E-5	20.722916
2143.634761	-3.006400	3.298800	-9.917500	26.832555	9.470045E-5	20.717047
2144.623519	-3.012500	3.297700	-9.933400	26.772646	9.611955E-5	20.721297
2145.610121	-3.034200	3.296900	-10.002000	26.773980	9.423841E-5	20.727854
2146.606091	-2.990000	3.299300	-9.864300	26.761450	9.437042E-5	20.718575
2147.606138	-3.007200	3.298100	-9.917300	26.777711	9.486546E-5	20.727813
2148.606589	-2.988100	3.297700	-9.852500	26.723403	9.298432E-5	20.741964
2149.645772	-2.992900	3.296500	-9.865400	26.759759	9.265430E-5	20.732048
2150.629974	-2.997900	3.296900	-9.882900	26.733478	9.328134E-5	20.722221
2151.636210	-3.005400	3.296500	-9.906200	26.681728	9.334735E-5	20.748905
2152.643437	-2.979500	3.294500	-9.815200	26.683940	9.143321E-5	20.736429
2153.613497	-3.002900	3.295900	-9.896700	26.682574	9.120219E-5	20.743591
2154.633558	-3.014900	3.293400	-9.928500	26.684964	9.156522E-5	20.734139
2155.611047	-3.007400	3.294300	-9.906300	26.739868	9.186224E-5	20.740026
2156.609676	-3.023300	3.295200	-9.961100	26.750593	9.156522E-5	20.742748
2157.610036	-2.991300	3.293700	-9.852100	26.753024	9.285231E-5	20.757521
2158.630045	-2.991900	3.293400	-9.852700	26.795273	9.179623E-5	20.748315
2159.628916	-3.020300	3.292100	-9.941300	26.854992	9.024512E-5	20.735341
2160.614491	-3.024100	3.292800	-9.956600	26.896220	9.041013E-5	20.710887
2161.608381	-2.990500	3.293300	-9.847300	26.873317	9.166422E-5	20.728636
2162.609532	-2.987500	3.293200	-9.837300	26.842731	9.133420E-5	20.735815
2163.614712	-3.022100	3.290600	-9.943900	26.868228	8.793495E-5	20.760030
2164.613792	-3.011300	3.291500	-9.911000	26.879381	8.892502E-5	20.748485
2165.613753	-3.008500	3.290000	-9.896500	26.903919	8.912304E-5	20.754666
2166.612998	-3.002900	3.290900	-9.881000	26.903968	8.806696E-5	20.744284
2167.613708	-2.991200	3.289600	-9.839400	26.929805	8.826497E-5	20.737073
2168.616116	-2.997000	3.290200	-9.859600	26.957925	8.641684E-5	20.752074
2169.632484	-3.004800	3.290800	-9.887500	26.959836	8.833098E-5	20.753521
2170.632473	-3.021500	3.290100	-9.940200	26.987459	8.539376E-5	20.762334
2171.631214	-3.009000	3.287700	-9.891600	26.974631	8.757192E-5	20.758442
2172.626016	-3.002700	3.289200	-9.875100	26.889780	8.892502E-5	20.745664
2173.633222	-2.977700	3.289700	-9.794500	26.909609	8.572379E-5	20.748534
2174.631035	-3.008700	3.286300	-9.886900	26.877813	8.720890E-5	20.746433
2175.636121	-3.008100	3.288700	-9.891700	26.915844	8.565778E-5	20.763339
2176.638745	-2.994700	3.287700	-9.844500	26.928405	8.476672E-5	20.753684
2177.634223	-2.990500	3.286300	-9.826800	26.944454	8.595481E-5	20.739001
2178.636305	-3.011000	3.286700	-9.894900	26.890877	8.503074E-5	20.771898
2179.615813	-2.997600	3.287000	-9.852300	26.875267	8.529476E-5	20.726329
2180.618754	-2.985600	3.284900	-9.806100	26.897650	8.608682E-5	20.766855
2181.619795	-2.986300	3.285600	-9.810900	26.900430	8.585580E-5	20.752580
2182.616017	-2.990400	3.284000	-9.819000	26.891268	8.404067E-5	20.750006
2183.614802	-2.978300	3.284000	-9.779300	26.856111	8.311660E-5	20.750691
2184.617373	-2.995200	3.285300	-9.838900	26.888341	8.486573E-5	20.765081
2185.616246	-2.994800	3.283200	-9.831900	26.858462	8.555878E-5	20.768228
2186.621213	-3.019600	3.283200	-9.912400	26.890528	8.460171E-5	20.751632
2187.639930	-2.989600	3.282300	-9.812400	26.918803	8.423868E-5	20.757305
2188.617656	-2.991700	3.283100	-9.821100	26.964241	8.305059E-5	20.786875
2189.618214	-2.987900	3.282400	-9.806500	26.990987	8.291858E-5	20.745492
2190.618854	-2.999100	3.282700	-9.844200	26.952575	8.437069E-5	20.750961
2191.615094	-2.983700	3.282100	-9.791700	26.976070	8.215953E-5	20.767950
2192.620078	-3.002100	3.280500	-9.846600	26.951387	8.387565E-5	20.763044
2193.615785	-2.983200	3.280800	-9.786900	26.862657	8.120246E-5	20.768653
2194.616346	-3.021300	3.280000	-9.909000	26.891048	7.984936E-5	20.768751
2195.619510	-2.996000	3.280300	-9.827300	26.916861	8.146648E-5	20.779534
2196.618246	-2.981600	3.280100	-9.779000	26.916194	8.314960E-5	20.754207
2197.636636	-3.017900	3.278100	-9.892500	26.983118	8.239055E-5	20.759391
2198.631882	-2.994300	3.278900	-9.816100	26.996223	8.070742E-5	20.774466
2199.636774	-3.011000	3.277400	-9.866000	26.954754	8.097144E-5	20.782551
2200.644484	-3.026500	3.276600	-9.915600	26.931771	7.879328E-5	20.755647
2201.634585	-3.017200	3.277400	-9.888200	26.902634	8.262156E-5	20.771392
2202.634124	-3.018100	3.278300	-9.893100	26.901771	8.285258E-5	20.781905
2203.636302	-3.025500	3.277000	-9.913500	26.936658	7.770420E-5	20.786165
2204.636285	-3.020800	3.277100	-9.898100	26.976908	7.965135E-5	20.773061
2205.618660	-2.965300	3.277900	-9.719100	27.008254	8.116946E-5	20.776134
2206.648511	-3.006900	3.275200	-9.847200	26.996264	7.879328E-5	20.763602
2207.636265	-3.005500	3.274300	-9.840300	26.981542	7.823224E-5	20.768712
2208.621154	-2.994700	3.275400	-9.807500	26.987508	7.757219E-5	20.778979
2209.640449	-2.988900	3.273600	-9.782800	26.945585	7.889229E-5	20.770012
2210.636604	-2.998900	3.274200	-9.816600	26.958096	7.826524E-5	20.775006
2211.639919	-3.014200	3.273500	-9.866100	27.022839	7.859527E-5	20.782266
2212.636776	-2.994800	3.275200	-9.807800	27.049315	7.694515E-5	20.770012
2213.642893	-2.988900	3.274000	-9.785000	27.042788	7.615309E-5	20.809440
2214.640118	-2.977100	3.271500	-9.739400	27.066313	7.704415E-5	20.773829
2215.646568	-2.985100	3.273000	-9.769700	27.062013	7.582307E-5	20.789894
2216.641840	-3.009200	3.270400	-9.840600	27.027075	7.885929E-5	20.784630
2217.645002	-3.006500	3.270000	-9.830300	27.068866	7.744018E-5	20.801527
2218.641544	-3.011300	3.271600	-9.850400	27.114695	7.843026E-5	20.791668
2219.639508	-2.999300	3.271200	-9.810600	27.141145	7.387592E-5	20.790769
2220.643641	-3.002600	3.270000	-9.817600	27.102503	7.724217E-5	20.789838
2221.643206	-2.998700	3.269400	-9.802900	27.051016	7.473399E-5	20.783576
2222.648957	-3.020000	3.269000	-9.870400	27.061168	7.463498E-5	20.807536
2223.641074	-3.022700	3.268900	-9.880200	27.056373	7.595507E-5	20.773316
2224.645661	-2.990300	3.268800	-9.773600	27.048333	7.539403E-5	20.805534
2225.650842	-2.998400	3.267800	-9.796500	27.059698	7.489900E-5	20.805583
2226.649274	-2.998000	3.268900	-9.799300	27.012630	7.456897E-5	20.810406
2227.627324	-3.013800	3.267800	-9.846600	26.967837	7.334788E-5	20.803294
2228.623938	-2.994300	3.266000	-9.777600	26.957236	7.331488E-5	20.792634
2229.629343	-2.982000	3.268100	-9.744400	26.983023	7.288585E-5	20.801495
2230.641870	-3.010100	3.266500	-9.831600	27.005526	7.285285E-5	20.799943
2231.641631	-2.996500	3.265400	-9.783800	26.948018	7.374391E-5	20.814184
2232.645395	-3.016600	3.265400	-9.850100	27.004306	7.248982E-5	20.801087
2233.645185	-2.976800	3.265000	-9.718400	27.037230	7.311687E-5	20.800532
2234.646186	-2.998800	3.264600	-9.789000	26.999462	7.433796E-5	20.794319
2235.643441	-2.997800	3.265500	-9.788700	27.039937	7.295185E-5	20.799461
2236.644777	-2.991500	3.263700	-9.763000	27.014508	7.179677E-5	20.799019
2237.655079	-2.978900	3.264700	-9.724700	27.003527	7.159876E-5	20.819744
2238.648787	-2.991900	3.262500	-9.760700	27.001006	7.291885E-5	20.805829
2239.651177	-3.009600	3.262600	-9.817700	27.003234	7.126873E-5	20.800483
2240.655174	-2.983300	3.262500	-9.732700	27.053090	7.077370E-5	20.816007
2241.649046	-3.012300	3.262200	-9.825900	27.098895	7.097171E-5	20.788580
2242.627799	-3.013700	3.261100	-9.826800	27.068998	6.928859E-5	20.806401
2243.629918	-2.995100	3.261000	-9.765800	27.097977	7.206079E-5	20.807097
2244.630893	-3.007900	3.260700	-9.806500	27.107462	7.258883E-5	20.809524
2245.630777	-2.998700	3.260700	-9.776600	27.027126	7.041067E-5	20.801277
2246.649538	-2.992600	3.259400	-9.752900	27.062438	7.074069E-5	20.794589
2247.650486	-3.000300	3.260800	-9.782000	27.074550	7.133474E-5	20.823839
2248.648833	-3.001500	3.259800	-9.783700	27.086816	6.922258E-5	20.835226
2249.649011	-2.986900	3.259400	-9.735100	27.072909	7.050968E-5	20.822188
2250.654856	-2.985700	3.259000	-9.729200	27.062009	7.050968E-5	20.800795
2251.644692	-2.995500	3.257800	-9.758200	27.114170	7.067469E-5	20.821960
2252.629040	-2.973700	3.257500	-9.686400	27.169035	6.869454E-5	20.799854
2253.629654	-2.988100	3.257500	-9.733200	27.232148	6.790249E-5	20.814022
2254.629261	-2.995100	3.256600	-9.752900	27.232399	6.876055E-5	20.824706
2255.629371	-2.986600	3.256800	-9.725700	27.229823	6.763847E-5	20.805994
2256.632533	-2.987800	3.256400	-9.728900	27.235472	6.816650E-5	20.817366
2257.652717	-2.972600	3.256300	-9.678400	27.191062	6.780348E-5	20.801146
2258.656518	-3.001600	3.254500	-9.767000	27.179326	6.823251E-5	20.824429
2259.663469	-2.959900	3.255800	-9.635600	27.121535	6.658239E-5	20.824151
2260.651661	-2.980700	3.254600	-9.700500	27.165061	6.612035E-5	20.826677
2261.666432	-3.020400	3.253900	-9.827300	27.162274	6.678040E-5	20.837149
2262.653485	-2.975500	3.254200	-9.681600	27.183415	6.813350E-5	20.822377
2263.656183	-2.993700	3.252300	-9.735400	27.182643	6.641738E-5	20.815911
2264.660658	-2.997500	3.252300	-9.747600	27.181627	6.608735E-5	20.824846
2265.650620	-3.013900	3.253500	-9.804200	27.266105	6.668140E-5	20.832057
2266.632048	-2.966900	3.253500	-9.651000	27.198664	6.480026E-5	20.823016
2267.649594	-2.968000	3.252200	-9.651400	27.184497	6.582333E-5	20.841957
2268.650780	-2.969100	3.251100	-9.652200	27.247665	6.546031E-5	20.828681
2269.652287	-2.984000	3.250000	-9.697000	27.272494	6.440423E-5	20.843225
2270.650490	-2.974700	3.250700	-9.668300	27.282970	6.486626E-5	20.821994
2271.651935	-2.998600	3.249700	-9.744000	27.303280	6.519629E-5	20.840053
2272.663303	-2.998600	3.251000	-9.747700	27.328140	6.450324E-5	20.830922
2273.631241	-2.980100	3.248400	-9.679700	27.341533	6.522929E-5	20.824006
2274.663056	-3.002000	3.248700	-9.751500	27.320916	6.216006E-5	20.828870
2275.659418	-2.979700	3.248800	-9.678700	27.348555	6.338115E-5	20.804991
2276.652133	-3.007200	3.247400	-9.764400	27.279736	6.377718E-5	20.838181
2277.651401	-2.987700	3.247600	-9.701800	27.282816	6.348016E-5	20.826581
2278.657523	-3.011600	3.246000	-9.774900	27.299607	6.348016E-5	20.834936
2279.636518	-3.009600	3.246300	-9.769400	27.311464	6.146701E-5	20.828372
2280.642382	-2.966900	3.247100	-9.632800	27.321517	6.410721E-5	20.814776
2281.636084	-3.012600	3.244700	-9.773200	27.305068	6.212706E-5	20.817670
2282.639791	-2.985600	3.245800	-9.690000	27.351139	6.130200E-5	20.815651
2283.635286	-2.995000	3.245000	-9.718100	27.325361	6.113699E-5	20.813428
2284.636887	-2.964400	3.244000	-9.615800	27.388570	6.090597E-5	20.801623
2285.645073	-2.980500	3.243900	-9.667900	27.404790	6.126900E-5	20.797552
2286.639935	-2.982500	3.244300	-9.675600	27.329100	5.866181E-5	20.824775
2287.640386	-2.996800	3.243300	-9.718600	27.311709	6.199505E-5	20.806333
2288.651436	-3.036300	3.241800	-9.841800	27.337145	5.773774E-5	20.820540
2289.653827	-2.987400	3.243500	-9.688600	27.371790	6.011392E-5	20.808450
2290.663478	-3.018900	3.241500	-9.785100	27.371895	6.120299E-5	20.792435
2291.653741	-2.997400	3.241600	-9.715800	27.372855	5.942086E-5	20.809996
2292.656414	-3.003900	3.240500	-9.733200	27.320242	5.813377E-5	20.799744
2293.658939	-3.007800	3.240100	-9.744600	27.322267	5.836479E-5	20.817901
2294.658838	-3.033500	3.238100	-9.821800	27.260817	5.935486E-5	20.797815
2295.661852	-2.990500	3.241000	-9.691400	27.223870	5.803476E-5	20.782463
2296.653002	-2.999000	3.240300	-9.717300	27.221758	5.773774E-5	20.791718
2297.655347	-3.011700	3.238600	-9.752900	27.249863	5.483353E-5	20.811453
2298.659468	-2.989700	3.240700	-9.688000	27.245125	5.760573E-5	20.807161
2299.660968	-3.017200	3.237200	-9.766300	27.268272	5.744072E-5	20.788718
2300.668242	-3.008100	3.237700	-9.738800	27.258519	5.595561E-5	20.782701
2301.641697	-3.003800	3.236300	-9.720500	27.270824	5.740772E-5	20.777535
2302.646492	-2.995900	3.236700	-9.695900	27.278212	5.770474E-5	20.794450
2303.643893	-2.972700	3.237000	-9.621000	27.308251	5.605462E-5	20.798587
2304.641299	-2.986400	3.236500	-9.664800	27.340628	5.651665E-5	20.778525
2305.641984	-2.991400	3.235300	-9.677500	27.364439	5.684668E-5	20.790150
2306.642922	-3.000800	3.234700	-9.705700	27.421421	5.661566E-5	20.790575
2307.667732	-2.984000	3.235500	-9.654400	27.463067	5.618663E-5	20.790747
2308.667892	-3.039800	3.234100	-9.829600	27.478815	5.767174E-5	20.788099
2309.647932	-3.008100	3.233400	-9.726100	27.482634	5.678067E-5	20.794312
2310.643497	-3.001800	3.234200	-9.707700	27.433196	5.628563E-5	20.792939
2311.645717	-3.017100	3.232700	-9.752700	27.449936	5.546057E-5	20.786546
2312.645503	-2.981800	3.233500	-9.641000	27.430686	5.625263E-5	20.788517
2313.648376	-3.008900	3.233000	-9.726400	27.457575	5.555958E-5	20.787593
2314.678896	-3.009800	3.230600	-9.722300	27.459006	5.486653E-5	20.795197
2315.664115	-3.021100	3.229700	-9.756900	27.525051	5.509755E-5	20.775823
2316.648084	-3.008900	3.230200	-9.718800	27.518038	5.443750E-5	20.784888
2317.650298	-3.020000	3.229600	-9.752200	27.521931	5.555958E-5	20.780269
2318.648391	-2.996700	3.230300	-9.679500	27.440269	5.219333E-5	20.776820
2319.650267	-3.006700	3.228900	-9.706600	27.408642	5.123626E-5	20.759227
2320.648429	-2.978400	3.228600	-9.614900	27.420034	5.331542E-5	20.784913
2321.650286	-3.007600	3.227700	-9.707100	27.420442	5.453651E-5	20.761141
2322.649724	-3.017000	3.227200	-9.735400	27.441976	5.229234E-5	20.775218
2323.647645	-2.997000	3.227000	-9.670800	27.411941	5.351343E-5	20.777719
2324.651300	-2.994800	3.226800	-9.662800	27.372367	5.140128E-5	20.789116
2325.650082	-3.023400	3.225800	-9.752000	27.348531	5.367844E-5	20.762293
2326.647030	-2.993600	3.226300	-9.658100	27.370603	5.480053E-5	20.755574
2327.652098	-3.005500	3.225800	-9.694100	27.342770	5.278738E-5	20.789215
2328.656458	-2.984000	3.225900	-9.625400	27.288808	5.440450E-5	20.735405
2329.648866	-3.025100	3.224000	-9.751800	27.295829	4.988317E-5	20.760961
2330.649264	-2.997100	3.225000	-9.664600	27.286500	5.288639E-5	20.768172
2331.648774	-3.002400	3.225800	-9.684500	27.313416	5.140128E-5	20.758738
2332.651680	-3.011700	3.223800	-9.708500	27.383225	5.113726E-5	20.768745
2333.649483	-2.993900	3.222200	-9.646400	27.357626	5.255636E-5	20.752475
2334.651821	-2.992300	3.222500	-9.641700	27.372831	5.245735E-5	20.764453
2335.651561	-3.000700	3.222800	-9.669600	27.417656	4.968515E-5	20.763079
2336.651028	-3.003800	3.221400	-9.675500	27.434347	5.298539E-5	20.758534
2337.656886	-2.998900	3.221700	-9.660800	27.453451	5.146728E-5	20.744088
2338.654693	-2.973200	3.221800	-9.577600	27.420623	5.242435E-5	20.758478
2339.653855	-3.002300	3.221200	-9.670000	27.415438	5.156629E-5	20.761797
2340.661862	-2.993700	3.220500	-9.640200	27.407946	5.268837E-5	20.749992
2341.655357	-2.997900	3.219000	-9.649100	27.390067	5.163229E-5	20.765197
2342.667541	-3.004400	3.220400	-9.673700	27.434193	4.955314E-5	20.758379
2343.660926	-2.996900	3.218000	-9.643400	27.477228	5.041120E-5	20.756630
2344.659417	-2.998700	3.217400	-9.647300	27.535813	4.998217E-5	20.755355
2345.659354	-3.015900	3.217900	-9.703600	27.590729	5.130227E-5	20.754660
2346.658749	-3.015700	3.216200	-9.698200	27.567931	5.051021E-5	20.768231
2347.660158	-2.974700	3.219400	-9.576300	27.476180	5.143428E-5	20.744196
2348.660285	-2.999100	3.216000	-9.644900	27.452996	5.074123E-5	20.735570
2349.661670	-2.989100	3.216800	-9.613800	27.444481	4.668193E-5	20.749289
2350.657613	-3.004500	3.214900	-9.658600	27.465819	4.803503E-5	20.747048
2351.661485	-3.001900	3.216500	-9.654700	27.511478	4.793602E-5	20.741302
2352.669776	-3.002600	3.215500	-9.654300	27.589877	4.833205E-5	20.758544
2353.658572	-2.996400	3.212900	-9.626500	27.637894	4.899210E-5	20.773194
2354.661792	-3.003700	3.213500	-9.651200	27.620759	4.737498E-5	20.742675
2355.658575	-3.012700	3.213600	-9.680900	27.570092	4.945413E-5	20.750490
2356.659677	-3.000700	3.213900	-9.643500	27.533327	4.912411E-5	20.749061
2357.660733	-3.019500	3.210800	-9.694600	27.472930	4.952014E-5	20.728597
2358.664523	-3.004400	3.212500	-9.650700	27.456532	4.915711E-5	20.742447
2359.659954	-3.005400	3.211000	-9.649300	27.440428	4.905810E-5	20.759436
2360.661026	-3.012200	3.210100	-9.668100	27.479245	4.532883E-5	20.767195
2361.659855	-3.019600	3.209300	-9.689300	27.504028	4.760600E-5	20.751825
2362.662289	-2.982400	3.209900	-9.571700	27.463123	4.572486E-5	20.739594
2363.662132	-3.011500	3.210600	-9.667200	27.510049	4.572486E-5	20.740813
2364.659588	-2.998600	3.209500	-9.623300	27.501242	4.773801E-5	20.748073
2365.661567	-3.010300	3.206700	-9.651900	27.512381	4.671493E-5	20.729882
2366.664755	-2.992000	3.207900	-9.596600	27.483057	4.615389E-5	20.748270
2367.669572	-3.007300	3.209800	-9.652300	27.461053	4.542784E-5	20.754107
2368.665052	-3.006300	3.205400	-9.635200	27.451449	4.605488E-5	20.743496
2369.665382	-3.002900	3.207400	-9.630200	27.476557	4.651692E-5	20.729875
2370.665735	-2.997700	3.205800	-9.609000	27.547289	4.371171E-5	20.733711
2371.669766	-3.007200	3.205200	-9.637900	27.563808	4.605488E-5	20.729468
2372.675734	-3.021100	3.204200	-9.679700	27.567033	4.463578E-5	20.742671
2373.664914	-3.019700	3.203900	-9.673900	27.592309	4.559285E-5	20.736334
2374.668446	-2.997500	3.204500	-9.605400	27.652668	4.364571E-5	20.754869
2375.666927	-2.991700	3.205500	-9.588300	27.599168	4.381072E-5	20.737546
2376.669622	-2.990600	3.204400	-9.582100	27.601329	4.219360E-5	20.718382
2377.664577	-3.010400	3.201200	-9.635800	27.606488	4.225961E-5	20.745386
2378.668788	-3.005300	3.201000	-9.619500	27.659111	4.318367E-5	20.737170
2379.666396	-2.959800	3.202700	-9.478600	27.690796	4.126953E-5	20.746295
2380.669978	-2.989900	3.202100	-9.573200	27.662759	4.252363E-5	20.738944
2381.666024	-3.006700	3.202200	-9.627000	27.666196	4.480079E-5	20.732920
2382.665906	-2.963700	3.200800	-9.484700	27.691446	4.183057E-5	20.743155
2383.672799	-2.987500	3.199700	-9.557700	27.635421	4.110452E-5	20.718547
2384.667122	-2.979200	3.198300	-9.527500	27.583132	3.998244E-5	20.736583
2385.667812	-2.980600	3.199700	-9.536800	27.547114	4.202859E-5	20.742069
2386.676578	-2.963200	3.198100	-9.475800	27.591597	4.225961E-5	20.738937
2387.668838	-2.993300	3.196800	-9.568100	27.597838	4.324968E-5	20.737630
2388.668488	-2.996200	3.195000	-9.571500	27.587641	4.410774E-5	20.727370
2389.676352	-3.000100	3.195500	-9.586400	27.532456	4.123653E-5	20.722579
2390.669224	-2.991000	3.196600	-9.560200	27.576031	4.107152E-5	20.711894
2391.668466	-3.001900	3.194600	-9.588500	27.606889	4.126953E-5	20.721132
2392.676534	-2.987300	3.194800	-9.543400	27.626478	4.117053E-5	20.731834
2393.668250	-3.003100	3.193500	-9.589800	27.587861	3.932239E-5	20.739445
2394.671040	-2.980400	3.193000	-9.514900	27.618711	4.163256E-5	20.726390
2395.678551	-2.979500	3.193100	-9.513200	27.640834	4.051048E-5	20.729684
2396.669188	-2.977000	3.193800	-9.506800	27.617420	3.952041E-5	20.733151
2397.675114	-2.996200	3.192100	-9.563200	27.625155	4.011445E-5	20.750418
2398.675242	-2.979400	3.191300	-9.507300	27.594403	4.136854E-5	20.725164
2399.673474	-3.027100	3.188500	-9.651100	27.540202	3.895936E-5	20.728476
2400.674499	-3.005500	3.189800	-9.585600	27.479634	4.107152E-5	20.720643
2401.678503	-2.997500	3.189200	-9.558400	27.560571	3.988343E-5	20.722891
2402.675426	-3.005700	3.188800	-9.584100	27.567161	3.859634E-5	20.715771
2403.674861	-3.014400	3.191300	-9.618700	27.575895	3.839832E-5	20.727879
2404.680927	-2.996700	3.189600	-9.557100	27.567884	3.856333E-5	20.724085
2405.678549	-3.007600	3.188800	-9.589300	27.610117	3.889336E-5	20.735760
2406.677965	-2.991100	3.187100	-9.532700	27.674998	3.727624E-5	20.714749
2407.680369	-3.005300	3.186500	-9.574600	27.626561	3.800229E-5	20.714373
2408.676504	-3.005800	3.184300	-9.570700	27.643972	3.648418E-5	20.723832
2409.683538	-3.017200	3.184500	-9.607400	27.707186	3.638517E-5	20.712051
2410.682211	-3.017800	3.185900	-9.613200	27.688150	3.691321E-5	20.727036
2411.681456	-3.003900	3.184400	-9.564400	27.686673	3.526309E-5	20.717014
2412.685314	-3.010900	3.182700	-9.581900	27.618851	3.655019E-5	20.753558
2413.680958	-3.002200	3.182000	-9.552500	27.573710	3.556011E-5	20.733267
2414.682132	-2.992000	3.182000	-9.519700	27.633312	3.622016E-5	20.731124
2415.686643	-2.994700	3.180400	-9.523700	27.701930	3.589014E-5	20.705813
2416.683941	-2.984500	3.179300	-9.487800	27.703190	3.509808E-5	20.725574
2417.683916	-2.987800	3.182200	-9.506800	27.726529	3.608815E-5	20.706386
2418.684536	-2.979100	3.181700	-9.477600	27.685958	3.447103E-5	20.721510
2419.688954	-2.981900	3.179700	-9.480300	27.626610	3.622016E-5	20.739080
2420.683289	-2.985200	3.179800	-9.491000	27.657312	3.509808E-5	20.695528
2421.685054	-3.011800	3.178100	-9.570900	27.672464	3.668220E-5	20.697973
2422.687788	-2.995700	3.176700	-9.515800	27.629681	3.542810E-5	20.723203
2423.687223	-3.017700	3.174800	-9.579700	27.630802	3.410801E-5	20.716744
2424.688686	-3.017100	3.176800	-9.583600	27.639326	3.100578E-5	20.723899
2425.686345	-3.025800	3.173500	-9.601500	27.649937	3.334895E-5	20.719877
2426.683154	-2.992900	3.174900	-9.500200	27.670394	3.179784E-5	20.712012
2427.690668	-2.999200	3.174300	-9.519600	27.670621	3.384399E-5	20.716034
2428.690737	-2.991700	3.172700	-9.490400	27.685692	3.265590E-5	20.722665
2429.685361	-3.004000	3.173700	-9.533400	27.649483	3.202886E-5	20.720842
2430.687434	-3.026900	3.172000	-9.599500	27.689462	3.133580E-5	20.706543
2431.687319	-3.009100	3.170900	-9.540500	27.708773	3.037873E-5	20.704165
2432.684821	-3.016000	3.170100	-9.559800	27.669444	3.324994E-5	20.706789
2433.688152	-2.984500	3.169600	-9.459000	27.639482	3.262290E-5	20.688966
2434.698711	-3.004200	3.168700	-9.518600	27.731690	3.031273E-5	20.706364
2435.687622	-3.013000	3.167400	-9.542700	27.819123	3.156682E-5	20.700470
2436.687784	-3.018600	3.166900	-9.558800	27.826686	3.100578E-5	20.698598
2437.689539	-3.017800	3.166700	-9.555400	27.852549	2.945467E-5	20.713248
2438.691718	-2.993900	3.166600	-9.479500	27.901227	3.041174E-5	20.703445
2439.684980	-3.014900	3.165300	-9.541200	27.828692	2.928965E-5	20.684969
2440.685802	-3.011100	3.165100	-9.530100	27.803202	3.011471E-5	20.699620
2441.684966	-2.982100	3.164400	-9.435400	27.799848	3.232588E-5	20.681070
2442.691201	-3.003400	3.162500	-9.497200	27.849973	3.054375E-5	20.713027
2443.687498	-3.001900	3.163100	-9.494100	27.866553	2.988370E-5	20.700789
2444.689521	-2.990500	3.161300	-9.453100	27.862093	2.899263E-5	20.698197
2445.687795	-2.986400	3.161800	-9.441500	27.881824	3.074176E-5	20.678224
2446.686438	-3.003100	3.160700	-9.490900	27.907784	2.849760E-5	20.690603
2447.692346	-2.995200	3.160000	-9.463900	27.887380	2.859660E-5	20.686188
2448.686559	-3.026500	3.158100	-9.557400	27.914054	2.889362E-5	20.675102
2449.687263	-2.993300	3.158800	-9.454800	27.989500	2.932266E-5	20.677546
2450.686364	-3.013800	3.158400	-9.517900	28.024463	3.037873E-5	20.682394
2451.688841	-3.009300	3.156900	-9.499100	28.002299	2.958668E-5	20.701337
2452.692897	-3.002700	3.156200	-9.475500	28.013605	2.876162E-5	20.690431
2453.691586	-2.997700	3.156200	-9.461100	28.035346	2.803556E-5	20.683391
2454.688086	-3.018700	3.155100	-9.523500	27.970120	2.846459E-5	20.701664
2455.686389	-2.991000	3.154600	-9.434300	27.977284	2.843159E-5	20.679949
2456.686777	-2.981800	3.153700	-9.403100	27.916734	3.093978E-5	20.683490
2457.690590	-2.990800	3.152400	-9.426900	27.939469	2.895963E-5	20.682190
2458.700394	-3.006300	3.151300	-9.473000	27.923257	2.598941E-5	20.684364
2459.690113	-3.001900	3.150400	-9.456100	27.975400	2.932266E-5	20.696072
2460.696773	-2.996300	3.148800	-9.434200	28.008845	2.750752E-5	20.704607
2461.687411	-3.007400	3.148500	-9.467500	28.035622	2.631944E-5	20.693627
2462.691658	-2.993200	3.148100	-9.421600	28.086249	2.790355E-5	20.688639
2463.693202	-2.992800	3.147600	-9.419300	28.071389	2.744152E-5	20.694070
2464.694390	-3.012800	3.146200	-9.478100	28.046033	2.661646E-5	20.684667
2465.694507	-2.975100	3.147700	-9.364000	27.958808	2.820057E-5	20.687905
2466.697437	-3.033700	3.144900	-9.539200	27.856384	2.575839E-5	20.688183
2467.693487	-3.003900	3.145900	-9.449000	27.853613	2.473532E-5	20.680178
2468.701305	-3.000400	3.144700	-9.434100	27.919146	2.519735E-5	20.702040
2469.694578	-2.993000	3.143100	-9.405700	27.929486	2.539537E-5	20.697747
2470.697355	-3.017500	3.141100	-9.476400	27.909626	2.598941E-5	20.693406
2471.694677	-3.003700	3.139900	-9.430400	27.857529	2.457031E-5	20.702612
2472.697023	-2.988700	3.140000	-9.383300	27.834622	2.476832E-5	20.676711
2473.695386	-3.003000	3.140000	-9.428400	27.816450	2.651745E-5	20.688770
2474.696588	-2.998700	3.138900	-9.411400	27.826693	2.457031E-5	20.699553
2475.698133	-3.003800	3.137100	-9.422500	27.784388	2.371224E-5	20.679261
2476.694921	-2.988700	3.138200	-9.378300	27.793071	2.457031E-5	20.685629
2477.696797	-3.026100	3.135900	-9.488800	27.796620	2.486733E-5	20.680666
2478.695347	-3.002500	3.135100	-9.412500	27.860841	2.509835E-5	20.665165
2479.698746	-2.985000	3.134600	-9.355900	27.865081	2.348123E-5	20.672752
2480.696916	-3.007800	3.132900	-9.422800	27.895037	2.367924E-5	20.667339
2481.699537	-3.015200	3.131800	-9.442000	27.905921	2.262316E-5	20.681615
2482.700548	-2.987700	3.131000	-9.353300	27.898505	2.480132E-5	20.678892
2483.700472	-3.007500	3.130800	-9.414600	27.901705	2.648445E-5	20.669784
2484.697039	-3.015200	3.129200	-9.434100	27.962085	2.549438E-5	20.670814
2485.705042	-2.992500	3.129600	-9.364200	27.951812	2.325021E-5	20.678018
2486.702157	-2.995100	3.128100	-9.367600	27.996668	2.179810E-5	20.695194
2487.701513	-2.969900	3.127100	-9.286200	28.008071	2.430629E-5	20.684860
2488.702078	-2.977900	3.127900	-9.313800	28.075876	2.371224E-5	20.669661
2489.703462	-2.994200	3.125600	-9.357600	28.144319	2.546137E-5	20.680715
2490.702439	-2.993700	3.125000	-9.353800	28.164027	2.328321E-5	20.661199
2491.703930	-2.998100	3.124500	-9.366500	28.186236	2.292019E-5	20.662221
2492.705519	-2.996800	3.124000	-9.361200	28.188867	2.146808E-5	20.653015
2493.703246	-3.009000	3.122000	-9.393300	28.114792	2.288718E-5	20.674224
2494.701242	-3.009300	3.119700	-9.387100	28.131902	2.057701E-5	20.659678
2495.705038	-3.000800	3.119800	-9.361000	28.124432	2.117106E-5	20.673497
2496.702449	-3.010600	3.118700	-9.388600	28.040315	2.004897E-5	20.697403
2497.704410	-3.012300	3.117500	-9.389100	28.061599	2.143508E-5	20.672359
2498.702642	-3.003400	3.116300	-9.359000	28.051253	2.212813E-5	20.655779
2499.706836	-3.011600	3.116500	-9.385000	28.098153	2.206212E-5	20.676440
2500.711654	-3.000600	3.114500	-9.343900	28.166295	2.150108E-5	20.691460
2501.704463	-3.004700	3.114000	-9.355600	28.209558	2.239215E-5	20.670055
2502.704471	-2.997700	3.113600	-9.333000	28.147487	1.955394E-5	20.679637
2503.702940	-2.997900	3.113300	-9.333000	28.081124	2.127006E-5	20.672573
2504.706165	-2.986300	3.112200	-9.293300	28.028214	2.127006E-5	20.698025
2505.704733	-3.002500	3.111000	-9.340000	28.067806	1.988396E-5	20.667227
2506.706592	-3.006300	3.109700	-9.347000	27.991772	2.041200E-5	20.681256
2507.706382	-3.001200	3.108200	-9.327500	27.957904	1.869588E-5	20.677986
2508.709608	-2.974800	3.108500	-9.245500	27.947125	2.196312E-5	20.674723
2509.706361	-3.012500	3.107500	-9.360800	28.001242	2.001597E-5	20.681779
2510.707950	-2.994700	3.106200	-9.301400	27.959227	1.889389E-5	20.679317
2511.707334	-2.984200	3.104900	-9.264800	27.930191	1.985096E-5	20.676644
2512.711626	-2.989400	3.104900	-9.280500	27.984609	2.186411E-5	20.665509
2513.712616	-2.994200	3.103200	-9.291500	28.017436	2.140207E-5	20.676743
2514.708010	-3.020300	3.101800	-9.367200	28.088992	1.935592E-5	20.666742
2515.711286	-2.992300	3.101900	-9.279800	28.160430	1.952094E-5	20.668959
2516.710620	-2.961300	3.101200	-9.182700	28.160179	2.021399E-5	20.672973
2517.709906	-2.997400	3.098800	-9.287700	28.176688	1.727677E-5	20.671101
2518.711002	-2.983500	3.097700	-9.241500	28.170614	1.717776E-5	20.686325
2519.713711	-2.999700	3.096600	-9.288400	28.157280	1.678173E-5	20.683332
2520.711682	-2.990800	3.096100	-9.259000	28.112577	1.820084E-5	20.684797
2521.711762	-3.000500	3.094200	-9.283000	28.150840	1.767280E-5	20.688703
2522.714568	-2.998900	3.094400	-9.279200	28.174479	1.750779E-5	20.680733
2523.713799	-3.001200	3.092300	-9.280000	28.227552	1.810183E-5	20.668256
2524.713970	-2.996000	3.092000	-9.263000	28.183379	1.681474E-5	20.698703
2525.714860	-3.016900	3.090200	-9.321600	28.131448	1.684774E-5	20.682458
2526.714123	-2.981900	3.090400	-9.214100	28.091576	1.664973E-5	20.670767
2527.713458	-3.011300	3.089600	-9.303000	28.045577	1.661672E-5	20.689897
2528.716381	-3.013200	3.087900	-9.303600	28.049020	1.655072E-5	20.701425
2529.714056	-3.004700	3.086500	-9.272900	28.062956	1.575866E-5	20.673251
2530.716764	-2.969200	3.085700	-9.161200	28.000974	1.641871E-5	20.676293
2531.717620	-3.025700	3.083200	-9.327400	27.985973	1.701275E-5	20.674470
2532.715307	-3.046100	3.082900	-9.389500	28.010444	1.882789E-5	20.683455
2533.718105	-2.962000	3.084600	-9.135400	28.024307	1.849786E-5	20.679865
2534.721374	-3.001500	3.081700	-9.249200	28.028019	1.678173E-5	20.690241
2535.715021	-3.023400	3.079300	-9.308400	28.013441	1.763980E-5	20.700698
2536.718667	-3.002600	3.078200	-9.241400	28.012628	1.635270E-5	20.708890
2537.716742	-3.010400	3.078400	-9.266100	28.035604	1.796982E-5	20.685548
2538.713630	-3.007100	3.076200	-9.249800	28.067391	1.427355E-5	20.693364
2539.716521	-3.004700	3.075000	-9.239000	28.053682	1.595667E-5	20.693315
2540.717881	-2.980700	3.075200	-9.164500	28.041850	1.595667E-5	20.696104
2541.715027	-3.011400	3.072800	-9.252000	28.081221	1.783781E-5	20.686423
2542.717039	-3.017600	3.072900	-9.271800	28.106405	1.645171E-5	20.695654
2543.721293	-3.024300	3.071000	-9.286200	28.063444	1.638571E-5	20.698875
2544.717776	-3.001400	3.069400	-9.211700	28.077177	1.912491E-5	20.692310
2545.717759	-3.011900	3.068500	-9.241600	28.067293	1.684774E-5	20.696111
2546.720710	-3.022600	3.067600	-9.271000	28.096562	1.717776E-5	20.690013
2547.717414	-3.024900	3.066200	-9.274200	28.145547	1.595667E-5	20.693806
2548.716256	-2.995600	3.065100	-9.179900	28.179555	1.734278E-5	20.681101
2549.718076	-2.987400	3.064700	-9.154400	28.228065	1.470258E-5	20.697224
2550.718066	-2.986800	3.063800	-9.149000	28.206205	1.295345E-5	20.679482
2551.720054	-3.016300	3.061500	-9.233400	28.157768	1.433956E-5	20.706111
2552.719996	-2.999600	3.059600	-9.176900	28.150030	1.265643E-5	20.681249
2553.718345	-3.008900	3.060700	-9.208700	28.163835	1.605568E-5	20.708900
2554.720275	-3.009700	3.058700	-9.205100	28.159352	1.499960E-5	20.682099
2555.721455	-2.995900	3.057200	-9.157900	28.232272	1.480159E-5	20.698141
2556.719795	-2.988500	3.057500	-9.136100	28.192118	1.625370E-5	20.678576
2557.718922	-3.002800	3.055800	-9.175600	28.160067	1.678173E-5	20.693726
2558.722601	-3.012400	3.053800	-9.198100	28.148243	1.397653E-5	20.694625
2559.719396	-3.042200	3.052300	-9.284500	28.160538	1.384452E-5	20.691829
2560.719705	-2.985900	3.051200	-9.109600	28.220051	1.806883E-5	20.692001
2561.722878	-3.026200	3.048500	-9.224800	28.307256	1.397653E-5	20.702514
2562.719304	-3.023200	3.048100	-9.214200	28.305941	1.493360E-5	20.695025
2563.722994	-2.996900	3.047400	-9.132000	28.316423	1.598968E-5	20.705106
2564.726016	-3.019100	3.045400	-9.193900	28.334593	1.292045E-5	20.697797
2565.722648	-3.011500	3.045100	-9.169700	28.365697	1.552764E-5	20.707305
2566.723433	-3.025900	3.043300	-9.207800	28.378111	1.615469E-5	20.695148
2567.726607	-3.000800	3.043100	-9.130900	28.416277	1.430655E-5	20.712244
2568.726064	-2.986500	3.042200	-9.084900	28.439154	1.638571E-5	20.712521
2569.723182	-3.027100	3.039900	-9.200600	28.394202	1.777181E-5	20.689539
2570.730948	-3.017500	3.039000	-9.169400	28.394080	1.618769E-5	20.692261
2571.724641	-3.006000	3.037300	-9.129500	28.344782	1.443856E-5	20.706634
2572.725624	-2.999900	3.035800	-9.105900	28.388300	1.546164E-5	20.707779
2573.727898	-3.016000	3.034300	-9.150100	28.405698	1.374551E-5	20.694951
2574.723109	-3.014400	3.033700	-9.144000	28.411624	1.542864E-5	20.690961
2575.724414	-2.998200	3.033700	-9.094900	28.463499	1.506561E-5	20.695310
2576.726584	-2.998100	3.032000	-9.089100	28.507856	1.453757E-5	20.695408
2577.730999	-2.991100	3.031000	-9.065100	28.520017	1.602268E-5	20.670195
2578.724954	-3.003100	3.028400	-9.093500	28.573958	1.407554E-5	20.708401
2579.733122	-2.991200	3.027400	-9.054700	28.612117	1.536263E-5	20.693251
2580.732329	-3.012900	3.024900	-9.112900	28.578715	1.585767E-5	20.721253
2581.728038	-2.965000	3.026000	-8.971000	28.531903	1.447156E-5	20.700659
2582.731033	-2.998600	3.023800	-9.066700	28.443563	1.536263E-5	20.711271
2583.731105	-2.996200	3.022500	-9.055500	28.455529	1.305246E-5	20.712416
2584.730109	-2.992800	3.019400	-9.036100	28.343882	1.453757E-5	20.697667
2585.731992	-2.988400	3.019600	-9.022600	28.349979	1.499960E-5	20.710445
2586.728627	-3.001000	3.018400	-9.056800	28.331192	1.387752E-5	20.701485
2587.727586	-2.971900	3.017800	-8.967300	28.398083	1.523062E-5	20.681593
2588.730612	-2.984900	3.015500	-9.000300	28.413054	1.763980E-5	20.713266
2589.729481	-3.006300	3.014000	-9.059300	28.338426	1.219440E-5	20.713037
2590.729417	-3.005700	3.013300	-9.056400	28.384801	1.235941E-5	20.706153
2591.737949	-3.000300	3.011700	-9.035500	28.467374	1.381152E-5	20.731931
2592.732430	-2.962100	3.011200	-8.918700	28.524143	1.414154E-5	20.706121
2593.733601	-2.988600	3.008500	-8.990800	28.463997	1.278844E-5	20.716202
2594.733070	-2.971400	3.007800	-8.936400	28.404951	1.414154E-5	20.720754
2595.732820	-3.011800	3.005300	-9.050300	28.294663	1.305246E-5	20.715440
2596.734828	-3.018600	3.004100	-9.067300	28.277978	1.361350E-5	20.726142
2597.731142	-3.018300	3.003200	-9.064100	28.364455	1.325048E-5	20.710796
2598.735065	-2.994100	3.003200	-8.991100	28.391020	1.493360E-5	20.713838
2599.732771	-2.966600	3.001000	-8.902000	28.463736	1.410854E-5	20.715465
2600.732733	-2.979200	3.000200	-8.937500	28.500040	1.711176E-5	20.710298
2601.735186	-2.978400	2.998500	-8.929900	28.537982	1.417454E-5	20.715791
2602.734529	-2.982200	2.997700	-8.937600	28.506980	1.255742E-5	20.724875
2603.733506	-2.981700	2.996700	-8.934800	28.522249	1.381152E-5	20.722707
2604.734997	-3.004800	2.992900	-8.991900	28.474395	1.305246E-5	20.722405
2605.734274	-2.993500	2.992200	-8.956200	28.458832	1.278844E-5	20.724277
2606.735462	-2.984200	2.991700	-8.927000	28.494097	1.420755E-5	20.721383
2607.734486	-2.999300	2.989600	-8.965700	28.575005	1.331648E-5	20.727000
2608.731980	-2.968900	2.988100	-8.870600	28.628058	1.463658E-5	20.716894
2609.734554	-3.005100	2.986400	-8.973100	28.658114	1.433956E-5	20.727727
2610.734144	-2.983500	2.985900	-8.907700	28.665290	1.562665E-5	20.729265
2611.734208	-3.013000	2.983300	-8.987600	28.655606	1.252442E-5	20.712398
2612.733490	-2.982200	2.982500	-8.893200	28.574583	1.292045E-5	20.745068
2613.737271	-3.025500	2.980200	-9.015800	28.500560	1.292045E-5	20.740220
2614.733984	-2.988200	2.980100	-8.904000	28.421659	1.189738E-5	20.723828
2615.734142	-3.017800	2.978700	-8.988000	28.418565	1.404253E-5	20.744421
2616.736673	-3.001300	2.976700	-8.932900	28.504033	1.608868E-5	20.718587
2617.736477	-3.009600	2.974500	-8.950100	28.520017	1.410854E-5	20.727098
2618.737046	-3.002600	2.974700	-8.930900	28.564420	1.321747E-5	20.749058
2619.736506	-2.997200	2.970900	-8.903600	28.517736	1.216140E-5	20.732388
2620.739969	-3.014800	2.970500	-8.954000	28.548493	1.259043E-5	20.716894
2621.738227	-2.993500	2.968300	-8.884300	28.588065	1.288745E-5	20.739205
2622.738799	-3.012400	2.966400	-8.935700	28.546059	1.212839E-5	20.735306
2623.739946	-2.996200	2.967300	-8.889700	28.536967	1.153435E-5	20.708605
2624.741693	-3.000800	2.965100	-8.895900	28.553128	1.229340E-5	20.741952
2625.740045	-2.988800	2.963400	-8.855300	28.600152	1.173236E-5	20.733835
2626.742802	-3.003100	2.962500	-8.895700	28.618740	1.424055E-5	20.729321
2627.745214	-3.009700	2.960600	-8.909200	28.614778	1.470258E-5	20.728651
2628.740468	-2.993000	2.958700	-8.854600	28.595273	1.315147E-5	20.740775
2629.744179	-3.004200	2.956800	-8.882200	28.552674	1.374551E-5	20.725847
2630.740518	-3.014500	2.955600	-8.907700	28.500486	1.341549E-5	20.749156
2631.744033	-3.020300	2.954500	-8.922600	28.490152	1.252442E-5	20.754396
2632.742672	-2.999100	2.952400	-8.853700	28.512557	1.328348E-5	20.763209
2633.742628	-3.022200	2.949600	-8.913300	28.556717	1.305246E-5	20.746041
2634.744737	-3.033800	2.948300	-8.943900	28.598025	1.259043E-5	20.765833
2635.744679	-3.002500	2.947300	-8.848600	28.594503	1.381152E-5	20.738102
2636.749316	-3.014500	2.945500	-8.878200	28.653601	1.351449E-5	20.757322
2637.747994	-2.980700	2.944900	-8.776600	28.649811	1.014825E-5	20.738331
2638.745097	-2.991000	2.942900	-8.801300	28.618935	1.503261E-5	20.750382
2639.747421	-3.002800	2.941000	-8.830200	28.608902	1.325048E-5	20.760192
2640.749139	-2.984500	2.940200	-8.774200	28.558429	1.407554E-5	20.733540
2641.749473	-2.979600	2.939900	-8.757300	28.598820	1.278844E-5	20.745770
2642.747761	-2.972900	2.937100	-8.730700	28.678008	1.229340E-5	20.746817
2643.747229	-2.967900	2.935700	-8.711800	28.713882	1.226040E-5	20.765882
2644.747873	-2.997000	2.934900	-8.795000	28.628846	1.176537E-5	20.739975
2645.748257	-3.000500	2.932300	-8.797600	28.663065	1.354750E-5	20.762113
2646.749268	-2.987600	2.931100	-8.756000	28.705409	1.470258E-5	20.765408
2647.749706	-2.979400	2.930100	-8.729100	28.778696	1.361350E-5	20.749139
2648.753923	-3.014600	2.926800	-8.822500	28.740665	1.315147E-5	20.787170
2649.749509	-3.025400	2.926100	-8.851600	28.724141	1.470258E-5	20.757249
2650.749953	-3.021300	2.924100	-8.834000	28.795958	1.572566E-5	20.775063
2651.750566	-2.984300	2.922600	-8.720800	28.767318	1.384452E-5	20.772766
2652.750876	-2.995400	2.919200	-8.743200	28.782681	1.476859E-5	20.762636
2653.751929	-2.989800	2.919200	-8.726600	28.824898	1.427355E-5	20.764860
2654.754109	-2.994900	2.917500	-8.737400	28.875577	1.420755E-5	20.765179
2655.752585	-2.990700	2.915600	-8.717500	28.845552	1.285445E-5	20.749630
2656.754049	-2.966400	2.915100	-8.646600	28.822488	1.443856E-5	20.757217
2657.753012	-2.985700	2.913200	-8.696100	28.864013	1.183137E-5	20.770599
2658.753578	-3.017100	2.909600	-8.777300	28.872251	1.301946E-5	20.772260
2659.753106	-3.011400	2.908000	-8.755300	28.842111	1.499960E-5	20.758018
2660.753542	-3.009300	2.905800	-8.743600	28.826027	1.437256E-5	20.789231
2661.756956	-2.989000	2.906400	-8.685900	28.812921	1.334948E-5	20.785986
2662.754915	-2.981200	2.903100	-8.653800	28.748116	1.331648E-5	20.764329
2663.754494	-3.029800	2.900600	-8.787600	28.675322	1.245842E-5	20.772088
2664.756916	-2.989800	2.899700	-8.668600	28.595810	1.057728E-5	20.784939
2665.755146	-2.996600	2.897600	-8.682000	28.609383	1.024725E-5	20.777272
2666.757582	-3.024700	2.896600	-8.760200	28.673269	1.143534E-5	20.787563
2667.757741	-2.976100	2.895100	-8.615300	28.734158	1.374551E-5	20.767813
2668.754006	-2.990300	2.894200	-8.653400	28.782935	1.437256E-5	20.778066
2669.759503	-3.012000	2.890700	-8.705900	28.824747	1.443856E-5	20.773243
2670.761803	-2.958300	2.889900	-8.548300	28.805748	1.074229E-5	20.755527
2671.755045	-2.969200	2.886900	-8.571200	28.764302	1.361350E-5	20.795332
2672.755161	-3.000400	2.885700	-8.657700	28.777799	1.394353E-5	20.775263
2673.758327	-2.983400	2.884600	-8.604800	28.811494	1.021425E-5	20.785498
2674.754799	-2.999100	2.881400	-8.640100	28.867035	1.186437E-5	20.784549
2675.755368	-2.995100	2.879700	-8.624500	28.851098	1.315147E-5	20.792202
2676.760909	-2.997200	2.878400	-8.626300	28.854888	1.351449E-5	20.789382
2677.756330	-3.010700	2.875800	-8.657300	28.823523	1.272244E-5	20.799037
2678.756122	-2.978100	2.874600	-8.560000	28.807317	1.163336E-5	20.812109
2679.762352	-2.980400	2.872400	-8.559900	28.815099	1.212839E-5	20.787232
2680.759893	-2.998200	2.870000	-8.604100	28.876905	1.255742E-5	20.776948
2681.757510	-3.009600	2.868200	-8.630400	28.830430	1.292045E-5	20.795563
2682.760082	-2.989400	2.867200	-8.570900	28.821040	1.453757E-5	20.797485
2683.756928	-3.019000	2.864500	-8.647100	28.845467	1.229340E-5	20.791746
2684.757244	-3.009300	2.862300	-8.612600	28.833027	1.447156E-5	20.813353
2685.760990	-2.987900	2.861000	-8.547900	28.907344	1.480159E-5	20.804769
2686.757250	-3.016000	2.858900	-8.621100	28.971944	1.480159E-5	20.787348
2687.759465	-2.961400	2.857600	-8.461600	28.987555	1.420755E-5	20.789326
2688.758482	-2.945700	2.855600	-8.410500	28.915621	1.509861E-5	20.800779
2689.756980	-2.999900	2.851800	-8.554100	28.953816	1.315147E-5	20.806068
2690.761221	-2.983100	2.851200	-8.503900	28.969274	1.453757E-5	20.797934
2691.757856	-2.998900	2.849100	-8.542900	28.984658	1.315147E-5	20.799683
2692.758066	-3.035700	2.845600	-8.636900	28.985616	1.189738E-5	20.802071
2693.761061	-2.972200	2.845200	-8.456100	28.970874	1.265643E-5	20.804762
2694.760022	-3.017600	2.841600	-8.573800	28.975012	1.292045E-5	20.791861
2695.759201	-2.976600	2.841200	-8.456500	28.899507	1.222740E-5	20.819632
2696.759325	-3.022800	2.837400	-8.576200	28.892569	1.348149E-5	20.812643
2697.760423	-2.999100	2.837000	-8.507700	28.825440	1.235941E-5	20.803813
2698.759922	-2.979900	2.835700	-8.448200	28.891774	1.450457E-5	20.796669
2699.757496	-3.010800	2.831500	-8.524600	28.900985	1.338248E-5	20.807845
2700.761477	-2.990900	2.830100	-8.463600	28.939278	1.321747E-5	20.805646
2701.759796	-3.019900	2.826100	-8.533300	28.989433	1.206239E-5	20.826779
2702.759397	-2.978500	2.825400	-8.414200	29.042416	1.364650E-5	20.802875
2703.762029	-3.012300	2.820600	-8.495200	29.009694	1.420755E-5	20.829649
2704.761232	-2.983200	2.819700	-8.410200	28.946055	1.120432E-5	20.807258
2705.763836	-3.013900	2.816300	-8.487600	28.959428	1.189738E-5	20.810300
2706.761980	-2.994000	2.814600	-8.426100	28.988631	1.107231E-5	20.826445
2707.762185	-3.005200	2.812100	-8.449900	29.058458	1.265643E-5	20.812874
2708.762384	-3.024400	2.809100	-8.495000	29.151550	1.183137E-5	20.819906
2709.765653	-2.978500	2.808000	-8.362900	29.160563	1.183137E-5	20.830885
2710.764600	-2.958000	2.807200	-8.303500	29.108471	1.364650E-5	20.801154
2711.766079	-3.010700	2.802600	-8.437400	29.141612	1.542864E-5	20.803254
2712.766561	-3.020200	2.800500	-8.457100	29.109437	1.127033E-5	20.812558
2713.763410	-2.995500	2.798400	-8.382300	29.027792	1.047827E-5	20.818961
2714.764600	-3.030800	2.795000	-8.470400	29.086169	1.077529E-5	20.820882
2715.767429	-3.018900	2.792200	-8.428400	29.090241	1.219440E-5	20.813130
2716.764075	-2.993400	2.788400	-8.344900	29.144843	1.239241E-5	20.827372
2717.763485	-2.974700	2.787500	-8.290200	29.119402	1.275544E-5	20.828763
2718.763483	-2.987400	2.783000	-8.313100	29.119702	1.196338E-5	20.825746
2719.763586	-2.999800	2.781900	-8.343800	29.147855	1.196338E-5	20.805277
2720.765684	-2.976900	2.779700	-8.274300	29.233863	1.242541E-5	20.834575
2721.765454	-3.009800	2.775100	-8.351800	29.266767	1.242541E-5	20.837389
2722.769556	-2.983100	2.773800	-8.274000	29.277289	1.146834E-5	20.820492
2723.767717	-2.992200	2.770200	-8.287300	29.276940	1.483459E-5	20.828201
2724.766373	-3.017200	2.766800	-8.346300	29.273817	1.140234E-5	20.815097
2725.766455	-2.991400	2.763400	-8.265700	29.298234	1.315147E-5	20.816944
2726.776493	-3.007000	2.760300	-8.298400	29.232657	1.272244E-5	20.829567
2727.768342	-2.981400	2.758800	-8.224100	29.233347	1.410854E-5	20.822202
2728.766942	-2.988200	2.755600	-8.233200	29.187658	1.176537E-5	20.827368
2729.773644	-2.987500	2.752200	-8.220800	29.147094	1.216140E-5	20.823003
2730.766788	-3.004100	2.749100	-8.257900	29.115787	1.344849E-5	20.835551
2731.768744	-3.055600	2.744000	-8.383900	29.135153	1.457057E-5	20.820453
2732.771283	-3.034700	2.741900	-8.319100	29.175595	1.490060E-5	20.815213
2733.767499	-2.976400	2.740300	-8.156000	29.226251	1.476859E-5	20.813154
2734.768905	-3.014100	2.735500	-8.244300	29.288430	1.176537E-5	20.810383
2735.771240	-2.988100	2.731000	-8.159700	29.255740	1.275544E-5	20.810155
2736.768883	-2.960200	2.729700	-8.079600	29.240635	1.334948E-5	20.824330
2737.769485	-3.025800	2.724700	-8.243200	29.191150	1.242541E-5	20.836577
2738.772610	-2.991400	2.722500	-8.142700	29.274779	1.565965E-5	20.827919
2739.770025	-3.003400	2.717400	-8.159900	29.321942	1.209539E-5	20.817604
2740.774572	-2.979200	2.713600	-8.083400	29.366482	1.235941E-5	20.823613
2741.772547	-3.026300	2.711400	-8.204300	29.273928	1.222740E-5	20.823269
2742.774972	-2.996500	2.707600	-8.111600	29.258566	1.381152E-5	20.806839
2743.778688	-3.004300	2.703500	-8.121200	29.250794	1.298646E-5	20.803274
2744.772197	-2.975500	2.699000	-8.029800	29.294365	1.602268E-5	20.823002
2745.775280	-2.988200	2.694800	-8.052100	29.241157	1.344849E-5	20.803046
2746.776527	-3.008200	2.690500	-8.093100	29.262152	1.212839E-5	20.790064
2747.774484	-3.026800	2.686700	-8.131100	29.310629	1.301946E-5	20.811419
2748.776453	-2.990600	2.683400	-8.024100	29.275570	1.358050E-5	20.820182
2749.776795	-3.020400	2.678000	-8.087300	29.310678	1.153435E-5	20.801985
2750.774326	-2.982800	2.674000	-7.974900	29.323632	1.255742E-5	20.795126
2751.778081	-2.983600	2.672100	-7.971000	29.328897	1.463658E-5	20.816553
2752.781096	-3.001900	2.666000	-8.002400	29.332881	1.292045E-5	20.796386
2753.775177	-3.008600	2.660800	-8.004000	29.290953	1.377851E-5	20.803916
2754.777917	-3.033600	2.657200	-8.060200	29.296954	1.384452E-5	20.813758
2755.778964	-3.007100	2.653600	-7.978600	29.291643	1.499960E-5	20.814095
2756.774982	-2.972400	2.649500	-7.874700	29.311898	1.595667E-5	20.798472
2757.776196	-2.975200	2.643700	-7.864500	29.292479	1.275544E-5	20.807351
2758.780011	-3.023000	2.638600	-7.975700	29.263260	1.371251E-5	20.809199
2759.774316	-2.994400	2.634500	-7.887500	29.301185	1.374551E-5	20.781512
2760.779100	-2.980900	2.629900	-7.838400	29.405754	1.209539E-5	20.796340
2761.778534	-3.004900	2.623700	-7.883100	29.464452	1.308546E-5	20.798132
2762.777638	-2.987700	2.620000	-7.826900	29.553623	1.420755E-5	20.781332
2763.781935	-2.991900	2.614700	-7.821800	29.575302	1.292045E-5	20.802237
2764.782771	-2.978800	2.610700	-7.775500	29.604885	1.364650E-5	20.788438
2765.779603	-3.000200	2.603500	-7.810200	29.638603	1.440556E-5	20.803463
2766.780592	-3.003000	2.598300	-7.802000	29.619978	1.463658E-5	20.800808
2767.790061	-2.972800	2.593200	-7.708200	29.664739	1.338248E-5	20.789035
2768.779621	-2.998200	2.587900	-7.757900	29.640324	1.519762E-5	20.825586
2769.780750	-2.993300	2.582500	-7.729600	29.708446	1.457057E-5	20.797064
2770.780890	-2.989400	2.577300	-7.703200	29.724209	1.460357E-5	20.780240
2771.778895	-2.972600	2.571100	-7.642400	29.683805	1.503261E-5	20.786446
2772.783618	-3.013500	2.563600	-7.724200	29.626102	1.585767E-5	20.779007
2773.779439	-2.961300	2.559400	-7.578100	29.637066	1.430655E-5	20.799069
2774.780190	-2.969700	2.552800	-7.580700	29.648549	1.655072E-5	20.768446
2775.779935	-2.998100	2.546500	-7.634100	29.638348	1.605568E-5	20.802733
2776.779542	-3.010000	2.539200	-7.642100	29.612051	1.539563E-5	20.790447
2777.778746	-2.982300	2.534000	-7.556300	29.581991	1.506561E-5	20.783851
2778.781164	-3.023700	2.527900	-7.642500	29.622092	1.499960E-5	20.797724
2779.779294	-2.988800	2.522700	-7.539600	29.590457	1.447156E-5	20.807558
2780.780573	-3.017000	2.515100	-7.587100	29.608818	1.516462E-5	20.797619
2781.779806	-2.998400	2.510500	-7.526800	29.666766	1.711176E-5	20.782544
2782.781171	-3.020000	2.503700	-7.560500	29.582740	1.414154E-5	20.767062
2783.783194	-2.952800	2.498900	-7.377800	29.626872	1.321747E-5	20.783577
