LabVIEW Measurement	
Writer_Version	2
Reader_Version	2
Separator	Tab
Decimal_Separator	.
Multi_Headings	No
X_Columns	One
Time_Pref	Absolute
Operator	admin
Description	Clolumns are: time, Current, Voltage, Power, Battery Temp, and Chamber Temp
Date	2024/08/16
Time	13:07:17.8513970375061035156
***End_of_Header***	
	
Channels	6						
Samples	1	1	1	1	1	1	
Date	2024/09/15	2024/09/15	2024/09/15	2024/09/15	2024/09/15	2024/09/15	
Time	17:36:33.9849600791931152344	17:36:33.9909605979919433594	17:36:33.9949736595153808594	17:36:33.9699578285217285156	17:36:33.9699578285217285156	17:36:33.9699578285217285156	
X_Dimension	Time	Time	Time	Time	Time	Time	
X0	0.0000000000000000E+0	0.0000000000000000E+0	0.0000000000000000E+0	0.0000000000000000E+0	0.0000000000000000E+0	0.0000000000000000E+0	
Delta_X	1.000000	1.000000	1.000000	1.000000	1.000000	1.000000	
***End_of_Header***							
X_Value	Untitled	Untitled 1	Untitled 2	Untitled 3	Untitled 4	Untitled 5	Comment
0.000000	0.028739	4.090400	0.117710	20.855113	0.000482	20.898258
1.001238	-2.988300	3.917900	-11.707000	20.856607	0.000482	20.912553
2.000136	-3.008500	3.911400	-11.767000	20.852414	0.000481	20.880387
3.002145	-3.018200	3.907300	-11.793000	20.860796	0.000482	20.894932
4.003804	-3.009600	3.903600	-11.748000	20.881407	0.000481	20.897527
5.004370	-3.001000	3.900800	-11.705000	20.881927	0.000482	20.888565
6.000105	-3.000600	3.897600	-11.694000	20.867153	0.000480	20.901763
7.001075	-3.003700	3.895300	-11.699000	20.904283	0.000479	20.904757
8.002280	-3.014300	3.893100	-11.734000	20.902683	0.000477	20.888460
9.009616	-3.008900	3.891400	-11.708000	20.895195	0.000479	20.893773
10.002728	-3.009400	3.890300	-11.707000	20.877850	0.000476	20.888755
11.000859	-3.014400	3.889000	-11.722000	20.943151	0.000475	20.899533
12.000705	-3.008100	3.886700	-11.690000	20.913357	0.000473	20.893919
13.007600	-3.027900	3.884200	-11.760000	20.917397	0.000473	20.897484
14.002329	-2.997200	3.885400	-11.645000	20.931893	0.000472	20.906766
15.015741	-2.989800	3.883300	-11.609000	20.951578	0.000473	20.898953
16.002929	-3.013500	3.882300	-11.698000	20.973635	0.000471	20.911054
17.003854	-2.993400	3.882100	-11.620000	20.976328	0.000470	20.883405
18.008681	-3.008800	3.880200	-11.674000	20.974631	0.000472	20.914895
19.005635	-3.020300	3.878300	-11.713000	21.002601	0.000469	20.922007
20.004972	-3.018600	3.877200	-11.702000	20.996859	0.000470	20.928117
21.008108	-3.023000	3.877000	-11.720000	20.998782	0.000468	20.915817
22.003639	-3.032500	3.876000	-11.752000	21.007115	0.000469	20.945484
23.008242	-3.025000	3.877000	-11.726000	21.015797	0.000469	20.912921
24.008088	-2.998100	3.874800	-11.616000	21.034309	0.000469	20.927641
25.007946	-2.999900	3.876100	-11.628000	21.021408	0.000470	20.936074
26.009009	-3.016900	3.874100	-11.687000	21.023180	0.000467	20.929786
27.007956	-2.982400	3.874600	-11.555000	21.066166	0.000468	20.923470
28.007929	-2.980400	3.873000	-11.543000	21.053642	0.000466	20.909522
29.007724	-2.989400	3.872800	-11.576000	21.061323	0.000467	20.906300
30.008342	-2.994100	3.873500	-11.596000	21.083180	0.000467	20.923419
31.009842	-2.984200	3.873400	-11.557000	21.094655	0.000468	20.940110
32.010776	-3.014900	3.871500	-11.670000	21.093107	0.000468	20.927657
33.013759	-2.986400	3.871300	-11.560000	21.104805	0.000468	20.947417
34.010395	-2.996900	3.871200	-11.601000	21.123191	0.000469	20.932145
35.013454	-3.007700	3.868900	-11.636000	21.148788	0.000467	20.903224
36.009482	-3.014200	3.869800	-11.663000	21.138257	0.000467	20.943894
37.013582	-3.004400	3.870600	-11.628000	21.152926	0.000467	20.924432
38.014210	-2.989300	3.870400	-11.569000	21.159710	0.000465	20.931691
39.010231	-3.009000	3.870300	-11.645000	21.147210	0.000468	20.930093
40.012595	-3.019800	3.868600	-11.681000	21.170534	0.000466	20.941095
41.011050	-3.011100	3.867600	-11.644000	21.199247	0.000467	20.940894
42.015744	-3.015200	3.867400	-11.659000	21.217007	0.000466	20.932583
43.011454	-3.010200	3.867200	-11.640000	21.213037	0.000466	20.937620
44.010769	-3.006100	3.868000	-11.627000	21.213561	0.000468	20.946204
45.010997	-2.990200	3.867700	-11.565000	21.222638	0.000466	20.932052
46.012975	-2.999900	3.868500	-11.603000	21.231891	0.000464	20.934670
47.016199	-3.004200	3.866900	-11.617000	21.227323	0.000466	20.924886
48.014214	-2.983400	3.867500	-11.537000	21.245233	0.000465	20.935689
49.012904	-3.021700	3.865700	-11.680000	21.255783	0.000465	20.931545
50.011939	-2.987000	3.865600	-11.546000	21.273368	0.000465	20.939179
51.015143	-3.016400	3.863700	-11.653000	21.270498	0.000463	20.956220
52.012675	-2.991500	3.864200	-11.559000	21.284689	0.000465	20.939599
53.021510	-3.006900	3.864700	-11.620000	21.288779	0.000463	20.928519
54.013676	-2.986500	3.864300	-11.540000	21.313396	0.000463	20.930387
55.015734	-2.988600	3.865100	-11.551000	21.292866	0.000462	20.922177
56.015066	-2.974300	3.864900	-11.494000	21.319755	0.000463	20.914939
57.019586	-3.012900	3.864200	-11.642000	21.322347	0.000462	20.941711
58.016973	-2.989600	3.864200	-11.552000	21.354423	0.000465	20.922122
59.015950	-2.996100	3.864500	-11.577000	21.346589	0.000463	20.914285
60.016224	-3.016100	3.862900	-11.650000	21.364097	0.000464	20.918051
61.018605	-3.001000	3.862800	-11.591000	21.351000	0.000465	20.932921
62.020240	-3.006300	3.863300	-11.613000	21.377113	0.000463	20.928701
63.017279	-3.008100	3.863100	-11.619000	21.378584	0.000464	20.917846
64.019022	-2.996700	3.861600	-11.571000	21.403150	0.000465	20.913976
65.019013	-2.999000	3.861800	-11.580000	21.390575	0.000463	20.921782
66.020683	-2.995800	3.861600	-11.568000	21.404370	0.000462	20.914722
67.021314	-2.993600	3.862300	-11.560000	21.416963	0.000463	20.915468
68.019580	-3.001300	3.861200	-11.587000	21.432801	0.000462	20.914245
69.024820	-2.970100	3.861300	-11.468000	21.429431	0.000462	20.912296
70.019882	-2.996000	3.860700	-11.566000	21.445616	0.000460	20.900990
71.022840	-2.984300	3.860800	-11.521000	21.431373	0.000463	20.915661
72.022848	-2.996600	3.860400	-11.566000	21.473198	0.000462	20.904880
73.021491	-3.024700	3.860500	-11.676000	21.472674	0.000464	20.913364
74.020006	-3.003700	3.859100	-11.590000	21.484495	0.000459	20.913812
75.025472	-3.000900	3.861100	-11.585000	21.483471	0.000460	20.917529
76.022833	-3.009500	3.859300	-11.613000	21.491151	0.000462	20.892025
77.021681	-3.021100	3.858800	-11.657000	21.526840	0.000462	20.917302
78.028143	-2.998900	3.859500	-11.573000	21.509905	0.000461	20.891824
79.021509	-3.009800	3.859500	-11.616000	21.500425	0.000459	20.898933
80.025777	-3.003900	3.860700	-11.597000	21.521275	0.000462	20.923113
81.021516	-3.000600	3.859000	-11.578000	21.513869	0.000460	20.895316
82.022943	-2.992700	3.859000	-11.548000	21.526736	0.000460	20.895863
83.021545	-2.987600	3.859300	-11.530000	21.556514	0.000460	20.907641
84.022389	-3.000700	3.858300	-11.577000	21.540004	0.000461	20.908664
85.025072	-3.002900	3.859500	-11.588000	21.561350	0.000460	20.914377
86.026640	-2.998000	3.858600	-11.567000	21.583097	0.000461	20.895363
87.027893	-3.014600	3.859000	-11.632000	21.586288	0.000463	20.900926
88.024451	-2.977000	3.859500	-11.488000	21.592847	0.000463	20.907963
89.025435	-3.015400	3.857700	-11.632000	21.600975	0.000462	20.892865
90.025137	-2.998900	3.857700	-11.568000	21.631873	0.000462	20.909558
91.027566	-3.027000	3.855700	-11.670000	21.606161	0.000461	20.898528
92.028698	-2.989900	3.856800	-11.531000	21.626136	0.000463	20.889594
93.027543	-3.003600	3.856100	-11.581000	21.650749	0.000463	20.901896
94.030852	-3.014800	3.856400	-11.626000	21.641520	0.000465	20.885550
95.029131	-2.993200	3.856000	-11.541000	21.665661	0.000465	20.906387
96.032569	-3.011700	3.855900	-11.612000	21.663763	0.000462	20.870352
97.032085	-3.005600	3.854900	-11.586000	21.661868	0.000462	20.894532
98.029765	-3.004700	3.856000	-11.585000	21.665307	0.000466	20.877112
99.029872	-2.999000	3.856300	-11.565000	21.696402	0.000466	20.881678
100.031653	-3.000200	3.855200	-11.566000	21.694630	0.000464	20.874689
101.034056	-3.014800	3.854700	-11.619000	21.694330	0.000465	20.902362
102.031133	-2.990000	3.855000	-11.526000	21.707195	0.000464	20.881574
103.033214	-2.990100	3.855800	-11.528000	21.726969	0.000465	20.871968
104.030723	-3.004500	3.854400	-11.580000	21.747938	0.000464	20.888685
105.035318	-2.976500	3.855800	-11.476000	21.727865	0.000463	20.876656
106.034629	-2.991900	3.854600	-11.531000	21.753023	0.000465	20.872912
107.034424	-3.001400	3.854700	-11.569000	21.748709	0.000466	20.896094
108.032693	-2.999700	3.855500	-11.564000	21.730504	0.000464	20.880720
109.031525	-2.990400	3.853400	-11.522000	21.774438	0.000464	20.896714
110.031463	-2.994100	3.852900	-11.535000	21.768030	0.000466	20.879396
111.032590	-3.008200	3.853300	-11.591000	21.788899	0.000465	20.879895
112.034537	-2.990200	3.854900	-11.526000	21.800869	0.000465	20.879073
113.032394	-2.982500	3.854400	-11.495000	21.809469	0.000466	20.887680
114.040186	-2.971100	3.854100	-11.449000	21.791217	0.000467	20.858983
115.034054	-2.999100	3.854300	-11.559000	21.842230	0.000467	20.877323
116.034872	-2.992300	3.853300	-11.529000	21.815650	0.000466	20.873479
117.035242	-3.007600	3.852500	-11.586000	21.832829	0.000467	20.895412
118.039550	-2.997100	3.854100	-11.551000	21.864468	0.000468	20.859754
119.036657	-3.000800	3.852300	-11.559000	21.865265	0.000468	20.867189
120.038363	-3.033200	3.852000	-11.682000	21.858533	0.000467	20.870407
121.038885	-3.011700	3.851200	-11.597000	21.859904	0.000469	20.875099
122.038650	-3.010700	3.852700	-11.599000	21.856986	0.000468	20.873600
123.040189	-3.005600	3.851500	-11.575000	21.889521	0.000469	20.867760
124.039435	-3.025800	3.850600	-11.650000	21.901513	0.000469	20.884978
125.038549	-3.013100	3.851300	-11.603000	21.931702	0.000470	20.847395
126.040097	-3.004200	3.851400	-11.570000	21.922479	0.000471	20.861869
127.039922	-2.993500	3.852500	-11.531000	21.924172	0.000471	20.880158
128.041818	-3.001500	3.851100	-11.559000	21.927861	0.000470	20.874368
129.041003	-2.995400	3.850600	-11.533000	21.935663	0.000470	20.872221
130.041098	-3.020500	3.849700	-11.627000	21.938905	0.000470	20.875940
131.041061	-3.026400	3.851300	-11.654000	21.950119	0.000472	20.836432
132.041515	-3.020100	3.849400	-11.625000	21.980882	0.000472	20.847313
133.040747	-3.020900	3.849400	-11.628000	21.973079	0.000471	20.873164
134.044802	-3.008900	3.850200	-11.583000	22.004015	0.000473	20.867623
135.042542	-3.005600	3.849400	-11.569000	22.008651	0.000474	20.872737
136.042921	-3.016400	3.849300	-11.610000	22.001593	0.000474	20.863302
137.044393	-3.000400	3.849400	-11.549000	22.018819	0.000473	20.859683
138.042819	-3.023000	3.850000	-11.637000	22.017395	0.000474	20.869638
139.044751	-3.010200	3.848900	-11.586000	22.023876	0.000475	20.865694
140.042446	-2.995800	3.849000	-11.530000	22.001262	0.000476	20.861075
141.042563	-3.007000	3.847700	-11.569000	22.035289	0.000474	20.860999
142.042540	-3.010700	3.848800	-11.587000	22.048375	0.000475	20.845176
143.042691	-2.999700	3.849900	-11.548000	22.069985	0.000475	20.885774
144.042792	-3.010100	3.847700	-11.581000	22.051138	0.000476	20.861692
145.044046	-3.004100	3.848300	-11.559000	22.063899	0.000475	20.868777
146.043233	-2.996900	3.849300	-11.535000	22.078009	0.000476	20.858246
147.043919	-3.007500	3.847700	-11.572000	22.098622	0.000477	20.865132
148.046869	-3.016700	3.845900	-11.601000	22.102483	0.000476	20.874687
149.048182	-2.992000	3.848500	-11.512000	22.108764	0.000478	20.863906
150.046014	-2.990900	3.847900	-11.507000	22.132393	0.000480	20.873811
151.043963	-2.996200	3.848300	-11.529000	22.116884	0.000477	20.868242
152.044140	-3.005900	3.847100	-11.563000	22.129049	0.000478	20.859084
153.044721	-3.008400	3.846800	-11.571000	22.128425	0.000479	20.852770
154.044674	-2.977800	3.847900	-11.458000	22.155568	0.000477	20.869987
155.047321	-2.988300	3.846600	-11.493000	22.148089	0.000478	20.851594
156.043274	-3.000900	3.846700	-11.543000	22.155789	0.000478	20.854561
157.044377	-2.998500	3.845800	-11.530000	22.189712	0.000476	20.847274
158.046941	-2.995000	3.846100	-11.519000	22.201100	0.000477	20.869581
159.049850	-2.982600	3.846300	-11.471000	22.183279	0.000476	20.846050
160.045247	-3.008400	3.845300	-11.568000	22.200351	0.000477	20.853658
161.047542	-2.990200	3.846500	-11.501000	22.231928	0.000478	20.850662
162.047801	-2.985200	3.844400	-11.476000	22.240626	0.000479	20.845147
163.046885	-2.994400	3.845800	-11.515000	22.246808	0.000480	20.872197
164.051397	-3.049400	3.842900	-11.718000	22.258520	0.000477	20.852631
165.047942	-2.992000	3.845200	-11.504000	22.249496	0.000478	20.851183
166.052496	-3.047500	3.843700	-11.712000	22.264650	0.000479	20.878208
167.048610	-2.997900	3.843900	-11.523000	22.265072	0.000478	20.867251
168.049107	-3.000100	3.843200	-11.529000	22.243190	0.000480	20.856722
169.050035	-2.994800	3.844500	-11.512000	22.271527	0.000478	20.852853
170.048751	-3.001200	3.843000	-11.532000	22.293260	0.000478	20.849484
171.051446	-3.006000	3.843600	-11.553000	22.299714	0.000478	20.850730
172.048906	-3.004800	3.843700	-11.548000	22.298666	0.000479	20.851104
173.048334	-2.991400	3.844100	-11.498000	22.316012	0.000479	20.848084
174.049781	-3.009800	3.843100	-11.566000	22.325707	0.000479	20.846412
175.051628	-3.010000	3.842900	-11.565000	22.329245	0.000478	20.859438
176.054313	-2.991300	3.841900	-11.492000	22.342778	0.000478	20.865402
177.051345	-2.996700	3.844000	-11.517000	22.319376	0.000479	20.847659
178.051798	-3.029500	3.841000	-11.635000	22.339489	0.000479	20.853100
179.052842	-3.008500	3.842300	-11.559000	22.339090	0.000479	20.845588
180.052969	-3.013200	3.842400	-11.577000	22.344971	0.000478	20.831563
181.052792	-3.001900	3.843400	-11.536000	22.341931	0.000479	20.840847
182.054856	-2.998600	3.841100	-11.517000	22.341458	0.000478	20.844641
183.052835	-2.999700	3.840000	-11.518000	22.359452	0.000483	20.847012
184.053660	-3.006800	3.841600	-11.550000	22.364411	0.000481	20.853400
185.055297	-3.009300	3.841800	-11.560000	22.346394	0.000481	20.852902
186.053926	-3.003100	3.839800	-11.530000	22.367876	0.000483	20.818464
187.056238	-3.011700	3.839800	-11.563000	22.402042	0.000484	20.837978
188.052791	-3.011900	3.840000	-11.565000	22.396111	0.000485	20.847686
189.051532	-2.998000	3.840600	-11.513000	22.389707	0.000485	20.847911
190.053143	-3.007700	3.838600	-11.544000	22.428408	0.000483	20.828346
191.054078	-2.996800	3.841200	-11.511000	22.443659	0.000485	20.834610
192.054858	-2.989200	3.839000	-11.475000	22.443210	0.000485	20.840798
193.057534	-3.006700	3.838800	-11.541000	22.474707	0.000483	20.828246
194.054654	-2.977900	3.839600	-11.434000	22.475878	0.000484	20.828944
195.056025	-2.998200	3.839500	-11.510000	22.445925	0.000484	20.825026
196.060197	-2.998300	3.838600	-11.509000	22.458360	0.000485	20.825151
197.056483	-2.999500	3.838400	-11.512000	22.461400	0.000485	20.810651
198.059625	-3.001700	3.838300	-11.520000	22.460229	0.000486	20.830815
199.056698	-2.990900	3.838200	-11.479000	22.471168	0.000486	20.824701
200.058338	-2.997400	3.838200	-11.503000	22.492772	0.000485	20.842069
201.058328	-3.009900	3.837300	-11.548000	22.498902	0.000485	20.822605
202.057874	-3.014700	3.837500	-11.568000	22.500647	0.000487	20.828145
203.065822	-2.998400	3.838200	-11.508000	22.499576	0.000488	20.826124
204.057542	-3.004500	3.837900	-11.531000	22.489634	0.000486	20.836082
205.058116	-3.010500	3.836900	-11.549000	22.489335	0.000486	20.828196
206.072795	-2.965300	3.837900	-11.379000	22.498081	0.000488	20.825101
207.059214	-3.004100	3.836100	-11.523000	22.549636	0.000488	20.803714
208.058612	-3.002000	3.836100	-11.515000	22.577294	0.000490	20.825725
209.059657	-2.993800	3.836300	-11.484000	22.546348	0.000489	20.817965
210.058393	-2.973800	3.837400	-11.410000	22.569995	0.000487	20.798975
211.063715	-3.001200	3.836700	-11.514000	22.565559	0.000489	20.812550
212.060589	-2.976300	3.835800	-11.415000	22.559604	0.000491	20.798525
213.060271	-3.003700	3.836000	-11.522000	22.553973	0.000490	20.814223
214.062329	-2.999900	3.835600	-11.506000	22.557661	0.000490	20.812226
215.060013	-2.984400	3.836300	-11.448000	22.548741	0.000492	20.808982
216.060793	-3.002800	3.834100	-11.513000	22.563442	0.000491	20.819438
217.059946	-2.998800	3.834300	-11.498000	22.556341	0.000492	20.814223
218.062526	-3.009400	3.834900	-11.540000	22.573858	0.000491	20.814224
219.071864	-2.993100	3.835700	-11.479000	22.580311	0.000494	20.818316
220.063286	-2.992100	3.835300	-11.475000	22.619355	0.000493	20.798152
221.060508	-2.990800	3.835500	-11.470000	22.612503	0.000492	20.825428
222.061682	-3.002800	3.834200	-11.512000	22.637418	0.000493	20.817666
223.064920	-3.005300	3.834300	-11.523000	22.654335	0.000494	20.818964
224.066022	-3.018700	3.833900	-11.572000	22.682190	0.000493	20.810355
225.066202	-2.986900	3.833200	-11.449000	22.700675	0.000494	20.814646
226.062911	-3.020100	3.832000	-11.571000	22.695444	0.000492	20.807036
227.064107	-2.987900	3.834100	-11.454000	22.671452	0.000494	20.810030
228.065294	-3.013900	3.831900	-11.548000	22.660314	0.000493	20.799349
229.063270	-2.997600	3.832400	-11.487000	22.674615	0.000493	20.804190
230.068154	-2.998200	3.832000	-11.489000	22.672598	0.000493	20.795532
231.064328	-3.027300	3.832200	-11.600000	22.648180	0.000496	20.780082
232.064983	-2.989000	3.831800	-11.452000	22.669061	0.000494	20.800523
233.065102	-2.989100	3.831300	-11.451000	22.690586	0.000495	20.785100
234.064654	-3.009400	3.831900	-11.531000	22.711864	0.000495	20.818741
235.066241	-3.011800	3.830500	-11.536000	22.737350	0.000495	20.808708
236.067617	-2.984700	3.831200	-11.434000	22.732518	0.000496	20.789644
237.066130	-2.980100	3.830300	-11.412000	22.730475	0.000496	20.782382
238.064993	-2.993500	3.831700	-11.469000	22.756186	0.000496	20.802447
239.067598	-2.990900	3.830800	-11.457000	22.764583	0.000499	20.812281
240.066940	-2.998500	3.830600	-11.485000	22.764833	0.000499	20.795461
241.068112	-2.973300	3.830700	-11.389000	22.773404	0.000500	20.759002
242.065515	-2.994500	3.829300	-11.465000	22.744904	0.000498	20.798732
243.066681	-3.002500	3.829700	-11.498000	22.781228	0.000499	20.792444
244.071284	-3.000100	3.828300	-11.484000	22.782747	0.000499	20.774052
245.066272	-3.013700	3.829300	-11.540000	22.771438	0.000500	20.809190
246.069174	-2.988800	3.829800	-11.445000	22.796525	0.000500	20.761775
247.070215	-2.992000	3.829600	-11.457000	22.807338	0.000499	20.781142
248.069015	-2.986600	3.828600	-11.434000	22.810204	0.000499	20.792074
249.069584	-2.994100	3.830100	-11.465000	22.808337	0.000500	20.789729
250.071800	-2.994900	3.828400	-11.465000	22.804601	0.000499	20.762753
251.073470	-2.973700	3.827400	-11.381000	22.812897	0.000499	20.799513
252.069769	-2.992300	3.827900	-11.453000	22.829165	0.000500	20.767920
253.069241	-2.990300	3.829800	-11.452000	22.840526	0.000500	20.769818
254.071704	-3.019900	3.827000	-11.556000	22.839380	0.000499	20.781473
255.071375	-3.003900	3.826900	-11.494000	22.851962	0.000500	20.762783
256.071204	-3.005300	3.827800	-11.503000	22.832208	0.000501	20.772866
257.078756	-3.006800	3.826200	-11.504000	22.881035	0.000499	20.776736
258.070093	-3.019800	3.826900	-11.556000	22.865267	0.000501	20.787966
259.071197	-2.996800	3.826900	-11.467000	22.861783	0.000503	20.782579
260.075188	-2.972800	3.827700	-11.379000	22.862330	0.000503	20.779809
261.073550	-2.986400	3.826400	-11.426000	22.870800	0.000501	20.777862
262.071806	-2.999600	3.824900	-11.471000	22.900618	0.000502	20.768854
263.087540	-2.992300	3.825000	-11.444000	22.914544	0.000503	20.775694
264.074215	-3.017800	3.824900	-11.542000	22.922044	0.000504	20.772776
265.073577	-3.000400	3.825100	-11.476000	22.923514	0.000504	20.750541
266.101599	-3.025800	3.824400	-11.571000	22.903937	0.000503	20.753213
267.073812	-2.993200	3.825000	-11.448000	22.903391	0.000503	20.759778
268.072870	-2.998900	3.824300	-11.468000	22.908325	0.000505	20.785584
269.073474	-3.000600	3.824400	-11.475000	22.923122	0.000505	20.777175
270.074977	-3.017800	3.822600	-11.535000	22.923945	0.000505	20.749550
271.073179	-3.014200	3.823700	-11.524000	22.956851	0.000505	20.766871
272.075166	-3.004800	3.823100	-11.486000	22.908505	0.000505	20.770591
273.077448	-2.999500	3.822600	-11.465000	22.929604	0.000508	20.781773
274.073727	-2.984800	3.823900	-11.412000	22.925869	0.000504	20.773764
275.075653	-2.987300	3.824200	-11.423000	22.938726	0.000504	20.785222
276.075290	-2.993300	3.824200	-11.446000	22.960744	0.000505	20.757969
277.075716	-2.988900	3.821900	-11.422000	22.973076	0.000507	20.765583
278.079041	-3.000400	3.823000	-11.470000	22.984884	0.000506	20.768405
279.076532	-2.992400	3.822100	-11.436000	22.976194	0.000507	20.747844
280.079539	-2.995200	3.822500	-11.448000	22.972509	0.000507	20.741780
281.076186	-3.006600	3.822100	-11.490000	22.974677	0.000507	20.741583
282.075830	-3.001000	3.822200	-11.469000	22.997120	0.000510	20.743680
283.075191	-3.004700	3.823200	-11.487000	23.017447	0.000508	20.760728
284.076252	-3.001500	3.820500	-11.466000	23.014883	0.000508	20.744408
285.076662	-3.009100	3.820100	-11.494000	23.015035	0.000511	20.751673
286.076395	-3.006600	3.821600	-11.489000	23.010703	0.000510	20.749703
287.088794	-3.001300	3.820100	-11.465000	23.033867	0.000509	20.775284
288.077035	-2.989100	3.820300	-11.419000	23.035515	0.000510	20.753226
289.077886	-2.985400	3.820300	-11.403000	23.042990	0.000510	20.764510
290.077610	-2.973600	3.820400	-11.359000	23.049689	0.000510	20.748937
291.078223	-2.976900	3.820600	-11.372000	23.062295	0.000511	20.733592
292.080190	-2.993100	3.819000	-11.430000	23.075346	0.000510	20.750463
293.079223	-2.997300	3.818500	-11.444000	23.085410	0.000511	20.753909
294.079983	-3.009900	3.819000	-11.494000	23.079683	0.000512	20.754809
295.081616	-3.003100	3.818900	-11.468000	23.089996	0.000511	20.743805
296.078977	-3.004900	3.819000	-11.475000	23.103422	0.000510	20.733550
297.080250	-3.012200	3.817800	-11.499000	23.127458	0.000510	20.734876
298.083549	-3.013100	3.817200	-11.501000	23.137968	0.000515	20.738769
299.082101	-2.994400	3.817200	-11.430000	23.162774	0.000513	20.756989
300.081939	-2.991600	3.816600	-11.417000	23.168803	0.000511	20.748805
301.083811	-3.015000	3.816300	-11.505000	23.162778	0.000512	20.760313
302.080181	-2.996200	3.817200	-11.436000	23.181059	0.000511	20.741647
303.081367	-2.981100	3.817000	-11.378000	23.192716	0.000516	20.757597
304.081034	-2.994800	3.816200	-11.427000	23.167243	0.000514	20.756252
305.081970	-2.999600	3.815300	-11.443000	23.216304	0.000515	20.736189
306.080385	-3.026100	3.816200	-11.547000	23.165030	0.000514	20.749767
307.080591	-2.994700	3.816800	-11.429000	23.191679	0.000514	20.770783
308.081550	-3.006300	3.814900	-11.468000	23.206373	0.000516	20.743307
309.081426	-3.005900	3.815700	-11.468000	23.215216	0.000515	20.748375
310.082650	-2.987100	3.815300	-11.396000	23.217507	0.000517	20.749723
311.085387	-2.988500	3.815900	-11.402000	23.191687	0.000515	20.745185
312.082112	-3.000400	3.814800	-11.445000	23.202296	0.000515	20.755343
313.083265	-3.003400	3.814200	-11.455000	23.192388	0.000517	20.753474
314.085739	-2.982800	3.813900	-11.375000	23.210219	0.000517	20.748583
315.084465	-2.998800	3.814300	-11.438000	23.222722	0.000516	20.737879
316.084280	-2.998900	3.814100	-11.438000	23.237168	0.000517	20.738605
317.088460	-3.000400	3.813300	-11.440000	23.231566	0.000517	20.729198
318.083842	-2.985300	3.813300	-11.383000	23.209879	0.000520	20.760097
319.083945	-2.987700	3.813300	-11.391000	23.207516	0.000518	20.746349
320.088449	-2.990700	3.812500	-11.401000	23.206720	0.000517	20.724688
321.083864	-2.995500	3.812500	-11.419000	23.228935	0.000518	20.747425
322.084815	-3.006000	3.812200	-11.458000	23.238374	0.000520	20.738866
323.084889	-2.987800	3.812100	-11.388000	23.255061	0.000521	20.753219
324.084828	-3.010900	3.812000	-11.476000	23.283500	0.000520	20.736200
325.086724	-2.985800	3.811700	-11.380000	23.300161	0.000520	20.760486
326.088003	-2.988400	3.811900	-11.390000	23.316249	0.000521	20.748633
327.086497	-3.001900	3.810600	-11.438000	23.332561	0.000520	20.739851
328.085385	-2.975900	3.811000	-11.340000	23.337318	0.000519	20.750783
329.091110	-3.004600	3.809600	-11.446000	23.304102	0.000521	20.758745
330.089226	-3.004500	3.810200	-11.447000	23.320687	0.000518	20.763513
331.088608	-2.995200	3.810400	-11.413000	23.340510	0.000521	20.747819
332.089144	-3.003800	3.812100	-11.450000	23.340886	0.000522	20.747247
333.090857	-3.001500	3.809700	-11.433000	23.342108	0.000522	20.752740
334.090382	-3.004200	3.810600	-11.447000	23.332524	0.000520	20.745504
335.092591	-3.009300	3.810400	-11.466000	23.356079	0.000522	20.755362
336.092442	-3.006700	3.809000	-11.452000	23.359618	0.000522	20.754641
337.093786	-2.986500	3.809000	-11.375000	23.372940	0.000523	20.753295
338.093318	-2.973900	3.809500	-11.328000	23.372070	0.000523	20.728714
339.093714	-3.019500	3.807200	-11.495000	23.362385	0.000524	20.755992
340.096953	-3.007700	3.808800	-11.454000	23.371675	0.000525	20.760087
341.093843	-2.995700	3.808100	-11.407000	23.365551	0.000525	20.751579
342.094485	-2.992800	3.808200	-11.396000	23.365106	0.000525	20.743072
343.094230	-3.016600	3.806700	-11.482000	23.356415	0.000526	20.734835
344.097595	-2.992100	3.808300	-11.393000	23.375391	0.000526	20.763339
345.096546	-3.004800	3.807300	-11.440000	23.349248	0.000526	20.750412
346.096336	-3.015200	3.806800	-11.477000	23.374273	0.000528	20.751786
347.098619	-2.995700	3.806500	-11.402000	23.379103	0.000527	20.759472
348.097620	-2.990700	3.808000	-11.387000	23.362347	0.000527	20.743626
349.097070	-2.990300	3.805800	-11.380000	23.391031	0.000527	20.741555
350.101161	-3.004600	3.805600	-11.433000	23.407640	0.000530	20.751090
351.099859	-3.017500	3.805500	-11.482000	23.425269	0.000528	20.753113
352.099237	-3.008600	3.805000	-11.447000	23.430299	0.000530	20.759577
353.101608	-3.006400	3.805400	-11.439000	23.412248	0.000529	20.756183
354.099167	-3.015700	3.804700	-11.473000	23.415859	0.000530	20.732300
355.101405	-2.996000	3.805600	-11.401000	23.416258	0.000529	20.769685
356.103284	-2.999400	3.804000	-11.409000	23.431496	0.000529	20.745130
357.101741	-3.003800	3.805500	-11.429000	23.423679	0.000531	20.764322
358.099076	-3.005200	3.804700	-11.434000	23.453707	0.000531	20.741313
359.099569	-3.012100	3.803500	-11.456000	23.472106	0.000532	20.760705
360.100453	-3.006400	3.803200	-11.434000	23.471035	0.000531	20.761054
361.100812	-3.018000	3.803200	-11.478000	23.461676	0.000530	20.756888
362.101121	-3.016200	3.803100	-11.470000	23.507758	0.000531	20.768467
363.099686	-3.010000	3.802500	-11.444000	23.502530	0.000533	20.780296
364.100996	-3.004000	3.803400	-11.424000	23.510745	0.000531	20.769090
365.101472	-3.005500	3.801400	-11.424000	23.526780	0.000533	20.757662
366.104355	-3.007600	3.802900	-11.436000	23.517968	0.000533	20.754045
367.101573	-3.004100	3.802600	-11.423000	23.530564	0.000532	20.764775
368.103094	-3.003700	3.802400	-11.420000	23.536988	0.000531	20.778801
369.102449	-3.018600	3.801200	-11.474000	23.539129	0.000533	20.770516
370.102227	-3.001900	3.801100	-11.410000	23.506591	0.000533	20.776306
371.104071	-2.995700	3.800200	-11.383000	23.537361	0.000533	20.779650
372.103045	-3.002600	3.800600	-11.410000	23.514308	0.000533	20.776455
373.103426	-3.009900	3.800700	-11.439000	23.532605	0.000533	20.765398
374.103657	-3.010900	3.799800	-11.440000	23.557527	0.000534	20.773312
375.102991	-2.991600	3.800600	-11.369000	23.548639	0.000534	20.763454
376.103045	-3.008000	3.799000	-11.426000	23.553768	0.000536	20.774759
377.103131	-3.002100	3.799600	-11.406000	23.579210	0.000534	20.785565
378.102945	-2.996700	3.798900	-11.383000	23.572640	0.000536	20.789884
379.102071	-2.965200	3.799000	-11.264000	23.573859	0.000534	20.779726
380.104631	-2.991300	3.800900	-11.369000	23.555585	0.000534	20.750976
381.105488	-2.990400	3.798700	-11.359000	23.583145	0.000535	20.775759
382.106058	-2.980000	3.798300	-11.318000	23.607265	0.000536	20.790456
383.106041	-3.012100	3.796900	-11.436000	23.610252	0.000537	20.785864
384.106463	-2.996200	3.797800	-11.378000	23.602684	0.000535	20.784441
385.105150	-3.007200	3.796600	-11.417000	23.636962	0.000536	20.790829
386.105356	-3.007400	3.796400	-11.416000	23.635766	0.000537	20.768767
387.107320	-3.006100	3.795700	-11.409000	23.664790	0.000537	20.781269
388.106001	-3.004500	3.796700	-11.406000	23.660433	0.000539	20.776901
389.107804	-2.996000	3.797200	-11.375000	23.654608	0.000538	20.788606
390.107453	-3.003800	3.795400	-11.401000	23.656748	0.000539	20.788380
391.111502	-2.995000	3.797100	-11.371000	23.669118	0.000537	20.796039
392.107770	-2.991000	3.794800	-11.349000	23.654506	0.000538	20.774752
393.109715	-3.014900	3.795300	-11.442000	23.652837	0.000539	20.786830
394.112458	-2.995600	3.795100	-11.368000	23.653060	0.000540	20.801278
395.109933	-3.002200	3.794500	-11.391000	23.660649	0.000539	20.793239
396.111917	-3.007800	3.794700	-11.413000	23.702866	0.000540	20.775345
397.114408	-3.000800	3.793800	-11.383000	23.704956	0.000542	20.787873
398.114037	-3.024500	3.792900	-11.471000	23.714836	0.000540	20.819589
399.113177	-2.989700	3.795000	-11.344000	23.730143	0.000542	20.779934
400.112454	-2.986900	3.794000	-11.331000	23.736191	0.000542	20.799274
401.114666	-2.991500	3.794500	-11.351000	23.752716	0.000542	20.799721
402.114000	-2.996600	3.793500	-11.367000	23.745523	0.000540	20.779707
403.116531	-3.001700	3.793200	-11.385000	23.771082	0.000541	20.790634
404.117750	-2.972900	3.794400	-11.279000	23.757890	0.000542	20.797797
405.115017	-2.991400	3.792700	-11.344000	23.754603	0.000542	20.824846
406.116004	-2.988600	3.791700	-11.331000	23.751216	0.000545	20.792528
407.119736	-3.008500	3.791300	-11.405000	23.736630	0.000544	20.801137
408.115676	-2.984300	3.792500	-11.317000	23.760748	0.000543	20.795920
409.117141	-2.994700	3.790800	-11.352000	23.759278	0.000542	20.825266
410.117816	-2.975600	3.791800	-11.282000	23.765000	0.000545	20.808244
411.116580	-3.001000	3.791800	-11.379000	23.744888	0.000544	20.811787
412.117465	-3.007200	3.790700	-11.398000	23.778513	0.000543	20.799507
413.118284	-2.994700	3.790300	-11.350000	23.794365	0.000544	20.795961
414.118256	-3.007800	3.789800	-11.398000	23.775747	0.000546	20.801001
415.118517	-2.972300	3.790800	-11.266000	23.814472	0.000545	20.816595
416.121736	-2.997100	3.789300	-11.356000	23.783757	0.000544	20.800497
417.123696	-2.982600	3.789100	-11.300000	23.834629	0.000546	20.807409
418.120715	-2.995800	3.789000	-11.350000	23.840426	0.000544	20.819385
419.122292	-2.987300	3.789400	-11.320000	23.859091	0.000544	20.822454
420.127614	-2.994300	3.788300	-11.342000	23.881887	0.000546	20.811647
421.120061	-2.984000	3.789300	-11.307000	23.838455	0.000546	20.845384
422.121491	-2.987200	3.787700	-11.314000	23.854060	0.000545	20.829263
423.120598	-3.010800	3.786100	-11.398000	23.868693	0.000545	20.816909
424.120831	-2.988800	3.787500	-11.319000	23.879642	0.000547	20.816982
425.120505	-2.997300	3.787700	-11.352000	23.876679	0.000546	20.812589
426.120921	-3.006400	3.787500	-11.385000	23.871775	0.000544	20.831379
427.120889	-3.000700	3.786200	-11.360000	23.856866	0.000545	20.825439
428.120990	-3.006900	3.786800	-11.385000	23.892379	0.000545	20.831177
429.122578	-3.018300	3.785500	-11.424000	23.916668	0.000544	20.849368
430.120493	-3.026500	3.786900	-11.460000	23.912039	0.000544	20.832873
431.122389	-2.997400	3.785500	-11.346000	23.927916	0.000545	20.832198
432.121910	-3.002400	3.785400	-11.365000	23.941577	0.000545	20.834517
433.121644	-3.010800	3.785400	-11.396000	23.923060	0.000544	20.850088
434.122861	-2.996400	3.784600	-11.340000	23.889066	0.000544	20.826906
435.123459	-2.984600	3.786400	-11.300000	23.875676	0.000545	20.862315
436.124074	-2.996900	3.783500	-11.338000	23.877914	0.000542	20.851759
437.124849	-2.995200	3.783500	-11.332000	23.882494	0.000546	20.846394
438.124681	-3.002000	3.783400	-11.356000	23.890706	0.000545	20.857473
439.126173	-3.007300	3.783200	-11.377000	23.930054	0.000546	20.837661
440.125883	-3.003200	3.783100	-11.361000	23.937718	0.000543	20.845346
441.126785	-3.002800	3.782500	-11.357000	23.937793	0.000545	20.817921
442.126167	-2.984200	3.784400	-11.293000	23.935404	0.000544	20.855827
443.126649	-3.006800	3.782300	-11.371000	23.927465	0.000545	20.821314
444.132331	-2.971400	3.783700	-11.242000	23.927790	0.000547	20.839658
445.128682	-3.014800	3.781200	-11.399000	23.960889	0.000547	20.834917
446.125550	-3.007800	3.782700	-11.377000	23.959345	0.000545	20.852808
447.127018	-3.001000	3.782400	-11.350000	23.938343	0.000546	20.832223
448.128739	-3.006100	3.780400	-11.364000	23.912361	0.000546	20.845998
449.132389	-3.010400	3.781000	-11.381000	23.964946	0.000549	20.854157
450.130718	-2.999700	3.780800	-11.341000	23.978609	0.000549	20.857902
451.127850	-3.018000	3.779000	-11.404000	24.015342	0.000550	20.857754
452.130703	-3.020300	3.779400	-11.413000	24.009020	0.000549	20.852838
453.128649	-3.031600	3.779200	-11.456000	24.001480	0.000549	20.847647
454.128415	-2.998700	3.778900	-11.330000	24.001581	0.000548	20.848222
455.131407	-3.007400	3.779000	-11.364000	24.004343	0.000548	20.853363
456.128685	-3.005000	3.779800	-11.357000	24.014024	0.000549	20.842683
457.129171	-3.004600	3.778700	-11.352000	24.019995	0.000549	20.857680
458.131353	-3.001100	3.779300	-11.341000	24.001382	0.000548	20.825739
459.129722	-3.029000	3.777600	-11.441000	23.997052	0.000550	20.860750
460.130438	-3.001500	3.778500	-11.340000	24.022734	0.000550	20.861849
461.131757	-3.015500	3.776500	-11.387000	24.062499	0.000552	20.849097
462.131439	-3.005400	3.777500	-11.352000	24.073125	0.000550	20.853590
463.132361	-2.979400	3.778400	-11.256000	24.076732	0.000554	20.859578
464.132709	-3.026100	3.777200	-11.430000	24.088029	0.000552	20.866166
465.131291	-3.000700	3.777200	-11.333000	24.115423	0.000553	20.867562
466.130967	-3.038000	3.775400	-11.467000	24.112338	0.000553	20.870158
467.132521	-3.009800	3.776400	-11.366000	24.146747	0.000553	20.852038
468.133530	-3.006600	3.775700	-11.351000	24.144856	0.000553	20.874322
469.133200	-2.990500	3.776000	-11.291000	24.135799	0.000552	20.873300
470.132187	-2.988900	3.775400	-11.283000	24.109849	0.000554	20.876196
471.133792	-2.977300	3.776300	-11.242000	24.139631	0.000554	20.856281
472.134339	-3.001500	3.775000	-11.329000	24.149855	0.000554	20.859897
473.133971	-3.012000	3.774700	-11.368000	24.186404	0.000553	20.860520
474.133330	-3.000300	3.776200	-11.328000	24.163240	0.000552	20.879011
475.133733	-3.032800	3.774600	-11.447000	24.174014	0.000552	20.890764
476.134077	-3.005500	3.773400	-11.340000	24.151695	0.000552	20.877862
477.136822	-2.999800	3.775000	-11.323000	24.148881	0.000550	20.875041
478.134450	-3.002500	3.774800	-11.333000	24.121138	0.000551	20.874716
479.137450	-3.010200	3.773200	-11.357000	24.117903	0.000553	20.868153
480.137002	-3.019500	3.773800	-11.394000	24.146367	0.000553	20.867778
481.135455	-3.016500	3.772700	-11.380000	24.147537	0.000552	20.883649
482.134405	-2.996100	3.773600	-11.305000	24.148083	0.000551	20.863335
483.134992	-2.974000	3.772700	-11.219000	24.165376	0.000552	20.888265
484.135104	-3.004300	3.771700	-11.331000	24.203519	0.000551	20.893805
485.135876	-2.999300	3.772600	-11.314000	24.181922	0.000552	20.892532
486.136687	-2.995900	3.773300	-11.303000	24.184757	0.000552	20.861238
487.136921	-2.995600	3.770700	-11.295000	24.170999	0.000553	20.882525
488.136768	-2.997300	3.771100	-11.303000	24.133552	0.000552	20.879106
489.136009	-3.003700	3.772900	-11.331000	24.119891	0.000552	20.881526
490.137018	-3.011400	3.771200	-11.355000	24.135568	0.000550	20.883973
491.136638	-3.000600	3.770100	-11.312000	24.129421	0.000550	20.878756
492.137559	-3.000100	3.771000	-11.313000	24.144875	0.000552	20.893306
493.136472	-2.988200	3.771700	-11.269000	24.129274	0.000550	20.891409
494.137112	-3.014900	3.769400	-11.363000	24.143879	0.000553	20.905109
495.135116	-3.000100	3.769600	-11.308000	24.155374	0.000555	20.887716
496.137404	-2.985800	3.770300	-11.256000	24.181474	0.000553	20.891608
497.145003	-2.996100	3.770100	-11.293000	24.205211	0.000555	20.878908
498.140165	-2.992000	3.769500	-11.278000	24.212203	0.000554	20.889239
499.144183	-3.004800	3.768400	-11.323000	24.233475	0.000555	20.906781
500.139465	-2.987100	3.768700	-11.256000	24.258827	0.000552	20.876738
501.140093	-3.018700	3.766600	-11.370000	24.241711	0.000555	20.917412
502.139772	-3.030700	3.765600	-11.411000	24.225961	0.000556	20.882651
503.139486	-2.994500	3.766900	-11.279000	24.212799	0.000555	20.878933
504.143944	-2.982600	3.767000	-11.235000	24.229642	0.000553	20.880654
505.141178	-2.986100	3.767500	-11.249000	24.232578	0.000554	20.903037
506.139398	-3.002800	3.766400	-11.309000	24.284897	0.000554	20.905731
507.140166	-2.993000	3.767100	-11.274000	24.234913	0.000554	20.895897
508.142026	-3.010400	3.766200	-11.337000	24.289498	0.000555	20.930258
509.141314	-2.992100	3.766000	-11.268000	24.287012	0.000554	20.907378
510.141448	-2.985400	3.766200	-11.243000	24.282033	0.000555	20.900962
511.144266	-3.027300	3.764600	-11.396000	24.279149	0.000558	20.908973
512.142167	-2.997300	3.765000	-11.284000	24.286013	0.000555	20.891678
513.140787	-3.007500	3.764300	-11.320000	24.320742	0.000555	20.896643
514.141968	-3.022600	3.764700	-11.378000	24.287454	0.000556	20.918726
515.141522	-3.017000	3.763500	-11.354000	24.289692	0.000555	20.909118
516.143964	-2.991400	3.763500	-11.257000	24.299343	0.000556	20.897937
517.142969	-2.988800	3.763500	-11.247000	24.327999	0.000559	20.906294
518.146276	-3.011500	3.762400	-11.329000	24.366534	0.000557	20.879519
519.145319	-3.007700	3.764000	-11.320000	24.321256	0.000556	20.905694
520.145926	-3.019100	3.762100	-11.358000	24.292395	0.000555	20.911355
521.147257	-2.997100	3.761900	-11.274000	24.282667	0.000556	20.906339
522.145408	-2.985500	3.762200	-11.231000	24.296473	0.000556	20.912126
523.144462	-3.007300	3.761400	-11.311000	24.322196	0.000557	20.900947
524.147426	-3.012700	3.761400	-11.330000	24.358788	0.000557	20.905411
525.152164	-2.990300	3.762100	-11.249000	24.388786	0.000558	20.907056
526.145954	-2.999900	3.761800	-11.284000	24.382267	0.000556	20.900516
527.146942	-3.008800	3.762200	-11.319000	24.387663	0.000556	20.890283
528.150134	-2.995700	3.760600	-11.265000	24.394776	0.000557	20.911642
529.145946	-2.997600	3.760600	-11.271000	24.387634	0.000559	20.901159
530.148217	-2.987100	3.759900	-11.231000	24.413529	0.000558	20.891575
531.151464	-2.985600	3.760900	-11.228000	24.430268	0.000558	20.874231
532.148160	-2.989900	3.760800	-11.243000	24.438448	0.000556	20.915625
533.151077	-3.008500	3.759800	-11.311000	24.412104	0.000558	20.907688
534.151784	-3.008100	3.759100	-11.307000	24.413171	0.000556	20.893114
535.150189	-3.004600	3.759300	-11.294000	24.405185	0.000555	20.898851
536.152845	-2.985900	3.758900	-11.222000	24.376278	0.000556	20.874121
537.153350	-2.994500	3.759100	-11.255000	24.417123	0.000555	20.913198
538.151029	-3.005500	3.758900	-11.297000	24.433413	0.000554	20.907729
539.151887	-2.999200	3.756400	-11.265000	24.468760	0.000557	20.885347
540.151659	-2.982000	3.758200	-11.207000	24.470524	0.000553	20.908451
541.157048	-2.999100	3.758100	-11.269000	24.494502	0.000555	20.901689
542.151834	-3.000500	3.757500	-11.274000	24.503107	0.000554	20.889934
543.152778	-3.010400	3.756500	-11.308000	24.512035	0.000555	20.897943
544.157481	-3.017200	3.756400	-11.333000	24.507509	0.000556	20.886291
545.153914	-3.009300	3.756700	-11.304000	24.532953	0.000554	20.890008
546.155153	-3.012400	3.756000	-11.314000	24.500518	0.000554	20.888285
547.156154	-2.976600	3.755400	-11.177000	24.514871	0.000553	20.891780
548.158639	-2.995600	3.755700	-11.249000	24.471514	0.000553	20.893799
549.157051	-3.012800	3.755000	-11.312000	24.486514	0.000553	20.875184
550.162238	-3.007300	3.756900	-11.297000	24.504995	0.000554	20.889458
551.160841	-3.017400	3.755000	-11.330000	24.524521	0.000554	20.898142
552.160159	-3.007400	3.754200	-11.290000	24.530390	0.000555	20.877480
553.164521	-3.008300	3.755000	-11.296000	24.570534	0.000550	20.874136
554.162184	-2.995200	3.755000	-11.247000	24.525514	0.000555	20.891079
555.160446	-2.996200	3.755000	-11.250000	24.542354	0.000552	20.881422
556.160061	-2.977500	3.754900	-11.179000	24.557677	0.000553	20.880202
557.162829	-2.989800	3.754900	-11.224000	24.585137	0.000553	20.879305
558.161480	-3.015200	3.752100	-11.313000	24.591925	0.000553	20.879478
559.160643	-3.009500	3.752100	-11.291000	24.581108	0.000552	20.875737
560.163480	-3.000300	3.752100	-11.257000	24.596852	0.000551	20.868775
561.163831	-3.015700	3.752300	-11.315000	24.613092	0.000550	20.895973
562.162489	-3.007500	3.752900	-11.286000	24.559372	0.000551	20.881428
563.163671	-3.015200	3.751800	-11.312000	24.544572	0.000553	20.878907
564.167707	-2.988100	3.752000	-11.210000	24.522512	0.000550	20.874317
565.165576	-3.004400	3.751500	-11.270000	24.545346	0.000549	20.866408
566.164643	-2.996200	3.751400	-11.239000	24.558106	0.000551	20.865934
567.166581	-2.990100	3.750500	-11.214000	24.578452	0.000549	20.842728
568.165647	-3.004000	3.748700	-11.260000	24.554328	0.000551	20.850765
569.166078	-2.995300	3.750100	-11.232000	24.548110	0.000551	20.856854
570.168103	-3.008400	3.749300	-11.279000	24.572336	0.000550	20.847497
571.165273	-2.996000	3.749900	-11.234000	24.583481	0.000551	20.861997
572.167221	-2.994700	3.749100	-11.227000	24.598280	0.000551	20.850769
573.169816	-3.015100	3.748300	-11.301000	24.603156	0.000550	20.861350
574.166301	-3.013800	3.749100	-11.298000	24.580972	0.000551	20.844782
575.169378	-2.997400	3.749000	-11.237000	24.614849	0.000552	20.842264
576.170859	-3.034700	3.748400	-11.374000	24.625967	0.000551	20.852471
577.168551	-2.998000	3.748200	-11.236000	24.636413	0.000551	20.855367
578.169287	-3.000000	3.748500	-11.245000	24.656038	0.000549	20.852299
579.171277	-3.005900	3.747900	-11.265000	24.591276	0.000550	20.845638
580.170101	-2.983000	3.748300	-11.181000	24.574813	0.000550	20.838128
581.170321	-2.981900	3.747300	-11.173000	24.581131	0.000549	20.844467
582.172914	-3.011400	3.747500	-11.284000	24.587077	0.000549	20.846166
583.171603	-3.015600	3.747500	-11.300000	24.544475	0.000550	20.844198
584.172714	-3.006200	3.745900	-11.260000	24.542361	0.000551	20.848241
585.171470	-2.994600	3.746800	-11.220000	24.565468	0.000553	20.837287
586.174114	-2.997800	3.745600	-11.228000	24.587830	0.000550	20.853559
587.172041	-2.991800	3.747400	-11.210000	24.628596	0.000551	20.828557
588.172361	-3.001000	3.747100	-11.244000	24.622703	0.000550	20.851566
589.174241	-3.003100	3.746400	-11.250000	24.636009	0.000549	20.853065
590.171453	-3.006500	3.744700	-11.256000	24.630887	0.000550	20.837494
591.172591	-3.003000	3.746500	-11.250000	24.643846	0.000552	20.833902
592.175632	-2.997400	3.744200	-11.222000	24.597039	0.000551	20.849998
593.172158	-3.014500	3.743900	-11.285000	24.558143	0.000550	20.827093
594.173135	-2.989000	3.745400	-11.195000	24.565108	0.000551	20.826968
595.177388	-2.990400	3.743200	-11.193000	24.553743	0.000550	20.841643
596.172920	-2.992600	3.744300	-11.205000	24.591822	0.000549	20.843341
597.173922	-3.017200	3.744200	-11.296000	24.610951	0.000550	20.830766
598.176353	-2.986900	3.744500	-11.184000	24.644998	0.000548	20.821308
599.172154	-3.005800	3.743800	-11.252000	24.632117	0.000550	20.820711
600.174089	-3.026200	3.742300	-11.324000	24.654452	0.000550	20.836484
601.179853	-3.001400	3.743600	-11.234000	24.613169	0.000549	20.835363
602.173939	-3.009500	3.742600	-11.262000	24.641994	0.000549	20.838208
603.179014	-3.024300	3.740100	-11.310000	24.675495	0.000550	20.821565
604.178974	-2.991600	3.742800	-11.196000	24.711756	0.000547	20.823813
605.177235	-2.973100	3.741900	-11.124000	24.740630	0.000547	20.816278
606.179438	-2.997300	3.740500	-11.211000	24.741950	0.000548	20.827085
607.180928	-3.004500	3.741200	-11.240000	24.721211	0.000547	20.805326
608.181193	-3.007900	3.739900	-11.249000	24.693508	0.000547	20.816881
609.178443	-3.007300	3.739800	-11.246000	24.705471	0.000550	20.789057
610.177837	-3.011800	3.739900	-11.263000	24.698934	0.000547	20.829437
611.178867	-2.998400	3.740400	-11.214000	24.682348	0.000547	20.809949
612.178038	-3.000800	3.738300	-11.217000	24.626267	0.000549	20.825747
613.179080	-2.997000	3.738800	-11.203000	24.644747	0.000547	20.797823
614.180637	-3.006400	3.738700	-11.239000	24.656711	0.000549	20.828320
615.178989	-2.976000	3.739700	-11.128000	24.679817	0.000549	20.803142
616.178646	-2.985700	3.738700	-11.162000	24.673129	0.000548	20.825354
617.178635	-3.033800	3.738900	-11.343000	24.679000	0.000550	20.809435
618.178140	-2.997700	3.738800	-11.207000	24.628863	0.000546	20.815075
619.177683	-3.015700	3.739100	-11.275000	24.629586	0.000549	20.800628
620.179026	-3.019500	3.736400	-11.282000	24.613793	0.000548	20.795212
621.177565	-3.014400	3.737100	-11.264000	24.622898	0.000548	20.793443
622.178061	-2.984000	3.736600	-11.149000	24.645507	0.000548	20.807595
623.178117	-2.999000	3.737700	-11.209000	24.660207	0.000547	20.816655
624.178134	-3.008900	3.735300	-11.239000	24.642674	0.000547	20.809967
625.179148	-2.990100	3.736800	-11.172000	24.637504	0.000546	20.814262
626.182213	-2.974100	3.736000	-11.108000	24.667723	0.000546	20.815187
627.181106	-3.014000	3.735600	-11.258000	24.662328	0.000546	20.814516
628.178321	-2.983000	3.735500	-11.142000	24.687347	0.000547	20.797422
629.182011	-3.021800	3.734700	-11.284000	24.690805	0.000546	20.797099
630.181939	-2.989100	3.734200	-11.161000	24.685784	0.000546	20.793009
631.178965	-2.993700	3.736000	-11.183000	24.659176	0.000548	20.805189
632.182115	-2.986200	3.734800	-11.151000	24.659378	0.000546	20.802072
633.182449	-3.016100	3.732900	-11.257000	24.686886	0.000545	20.812132
634.182171	-3.018600	3.734200	-11.272000	24.676169	0.000546	20.792843
635.179145	-3.022200	3.733300	-11.282000	24.699773	0.000545	20.784761
636.180189	-3.010500	3.733700	-11.238000	24.737798	0.000544	20.792099
637.183730	-3.013400	3.733100	-11.249000	24.687440	0.000544	20.797989
638.181186	-3.006000	3.733100	-11.221000	24.695722	0.000547	20.797291
639.181084	-3.016300	3.732600	-11.257000	24.692170	0.000545	20.788511
640.184894	-3.011400	3.733100	-11.240000	24.735518	0.000543	20.790285
641.183608	-2.985500	3.732000	-11.141000	24.750516	0.000544	20.787318
642.183027	-2.993100	3.732800	-11.171000	24.747010	0.000544	20.790912
643.183863	-3.007600	3.731500	-11.223000	24.774913	0.000545	20.799474
644.184669	-2.985200	3.732000	-11.140000	24.816122	0.000544	20.781086
645.186416	-2.983600	3.731800	-11.133000	24.783450	0.000546	20.811833
646.186213	-2.975000	3.731000	-11.098000	24.794292	0.000543	20.805170
647.184779	-2.972000	3.731600	-11.089000	24.821424	0.000544	20.782614
648.184820	-2.991600	3.730600	-11.160000	24.777835	0.000545	20.782017
649.186610	-2.990800	3.729900	-11.155000	24.755108	0.000545	20.790504
650.186792	-2.991500	3.730400	-11.159000	24.758791	0.000543	20.776181
651.188101	-3.000600	3.729700	-11.191000	24.746957	0.000544	20.788014
652.188234	-2.972100	3.730800	-11.087000	24.739498	0.000545	20.783374
653.187193	-2.998700	3.728400	-11.179000	24.720153	0.000544	20.775814
654.188362	-2.984900	3.729300	-11.131000	24.715182	0.000543	20.799749
655.189900	-2.979800	3.729200	-11.112000	24.720482	0.000544	20.776618
656.186409	-2.970700	3.730300	-11.081000	24.709045	0.000542	20.802599
657.187006	-3.000700	3.729500	-11.190000	24.667962	0.000542	20.780341
658.193940	-3.027200	3.728000	-11.284000	24.689551	0.000542	20.760753
659.188362	-3.008400	3.727000	-11.211000	24.717757	0.000542	20.776729
660.187277	-2.989800	3.727900	-11.145000	24.704079	0.000543	20.782918
661.193937	-2.988900	3.729000	-11.144000	24.685655	0.000542	20.783396
662.189945	-3.007300	3.728400	-11.212000	24.693343	0.000542	20.766928
663.189729	-2.995300	3.727200	-11.162000	24.707695	0.000543	20.788443
664.189570	-3.018800	3.725700	-11.247000	24.710433	0.000540	20.766534
665.190405	-2.996100	3.726100	-11.163000	24.725780	0.000543	20.771503
666.190391	-3.001800	3.726700	-11.186000	24.752293	0.000540	20.776773
667.192819	-3.009600	3.726300	-11.213000	24.746874	0.000540	20.767542
668.192810	-3.010500	3.726400	-11.217000	24.736731	0.000541	20.760682
669.190916	-2.971300	3.725900	-11.070000	24.705152	0.000540	20.754596
670.192294	-3.003900	3.725100	-11.189000	24.744298	0.000540	20.764957
671.193879	-3.008000	3.725300	-11.205000	24.732139	0.000540	20.763187
672.192972	-3.003200	3.725000	-11.185000	24.743458	0.000539	20.757001
673.194976	-2.994700	3.725200	-11.155000	24.735131	0.000539	20.751489
674.196482	-2.987800	3.724900	-11.129000	24.730036	0.000540	20.753489
675.195217	-3.009900	3.723800	-11.207000	24.738743	0.000539	20.757011
676.196424	-2.990800	3.723800	-11.137000	24.781494	0.000540	20.787111
677.195971	-2.981500	3.723300	-11.100000	24.796864	0.000540	20.735205
678.194645	-3.004500	3.722900	-11.185000	24.793066	0.000540	20.767430
679.197097	-2.988300	3.723200	-11.125000	24.840388	0.000538	20.764662
680.196661	-2.999500	3.723200	-11.167000	24.820598	0.000539	20.758551
681.197412	-3.012300	3.721900	-11.210000	24.832738	0.000539	20.749397
682.196648	-3.004600	3.721900	-11.182000	24.788576	0.000538	20.736845
683.196375	-3.014600	3.721500	-11.218000	24.784604	0.000540	20.732384
684.200918	-3.006900	3.721700	-11.190000	24.716568	0.000538	20.771743
685.202024	-2.996500	3.720400	-11.147000	24.718784	0.000539	20.754051
686.200504	-2.986000	3.721400	-11.112000	24.693149	0.000538	20.762466
687.201573	-2.995900	3.721300	-11.147000	24.737344	0.000539	20.739485
688.198649	-3.006400	3.720200	-11.183000	24.796358	0.000539	20.752242
689.198019	-3.000000	3.721100	-11.163000	24.815286	0.000540	20.754168
690.200456	-2.996600	3.719900	-11.146000	24.864719	0.000539	20.739768
691.198393	-2.979500	3.721100	-11.086000	24.843763	0.000541	20.746237
692.198090	-2.994500	3.720000	-11.139000	24.789680	0.000539	20.726098
693.201269	-2.996400	3.718600	-11.141000	24.791947	0.000538	20.728848
694.200728	-2.981800	3.720900	-11.094000	24.808187	0.000538	20.738033
695.200761	-2.998300	3.717900	-11.147000	24.816792	0.000538	20.726755
696.207161	-2.990200	3.719700	-11.122000	24.818511	0.000538	20.735592
697.202474	-2.999500	3.720400	-11.158000	24.792226	0.000538	20.748095
698.201971	-2.985500	3.718500	-11.101000	24.758685	0.000537	20.718700
699.202858	-2.999200	3.717500	-11.149000	24.755303	0.000538	20.730954
700.204247	-2.994400	3.718800	-11.134000	24.765601	0.000539	20.721848
701.207012	-3.009600	3.718200	-11.190000	24.786264	0.000538	20.714134
702.203604	-2.999700	3.717500	-11.151000	24.797430	0.000539	20.734824
703.204276	-2.997500	3.719000	-11.147000	24.819813	0.000538	20.727890
704.207213	-2.993700	3.717600	-11.129000	24.829561	0.000537	20.729138
705.204196	-2.992600	3.717700	-11.125000	24.853904	0.000535	20.721326
706.204503	-2.999200	3.717700	-11.149000	24.833815	0.000535	20.735305
707.206104	-2.992200	3.716200	-11.118000	24.822130	0.000536	20.712671
708.205485	-2.986800	3.717300	-11.102000	24.838643	0.000536	20.752953
709.206850	-3.012900	3.717100	-11.198000	24.843368	0.000536	20.715019
710.205479	-3.017800	3.714100	-11.207000	24.842774	0.000536	20.726277
711.205032	-2.991100	3.716700	-11.116000	24.870227	0.000535	20.723958
712.206350	-3.004200	3.714400	-11.158000	24.891387	0.000536	20.726230
713.205149	-2.992700	3.714900	-11.116000	24.909440	0.000535	20.713528
714.207384	-3.015000	3.715000	-11.200000	24.834600	0.000534	20.737041
715.207411	-2.990100	3.715800	-11.110000	24.909096	0.000534	20.744953
716.208969	-2.984900	3.714600	-11.087000	24.863847	0.000536	20.737944
717.211195	-3.014500	3.713500	-11.194000	24.803449	0.000535	20.731856
718.207227	-3.008700	3.714400	-11.174000	24.772244	0.000535	20.706702
719.210542	-2.996500	3.715000	-11.131000	24.829860	0.000535	20.718058
720.208091	-2.990900	3.713000	-11.104000	24.819792	0.000534	20.720282
721.208135	-3.004300	3.713200	-11.154000	24.798261	0.000532	20.711950
722.211197	-3.004200	3.711700	-11.149000	24.854409	0.000534	20.718988
723.210611	-3.006800	3.712200	-11.161000	24.894966	0.000533	20.719390
724.209345	-3.006900	3.711900	-11.161000	24.884822	0.000533	20.717269
725.212039	-2.995200	3.713000	-11.120000	24.891936	0.000531	20.704019
726.210185	-2.982800	3.712400	-11.073000	24.917176	0.000532	20.701851
727.209516	-3.023700	3.710500	-11.218000	24.906635	0.000531	20.712609
728.210801	-3.029000	3.710800	-11.238000	24.903179	0.000531	20.711986
729.212523	-3.010700	3.710800	-11.171000	24.878442	0.000533	20.710866
730.212154	-3.007100	3.711200	-11.158000	24.882672	0.000533	20.719853
731.212718	-3.008800	3.711000	-11.164000	24.930487	0.000529	20.696245
732.214389	-3.012800	3.709700	-11.175000	24.932953	0.000530	20.716739
733.216469	-2.978800	3.710000	-11.050000	24.924697	0.000531	20.702287
734.212816	-3.005000	3.710700	-11.149000	24.934622	0.000530	20.706085
735.212637	-2.979300	3.709500	-11.050000	24.958566	0.000534	20.713049
736.212799	-3.003000	3.710000	-11.141000	24.955882	0.000531	20.715097
737.212795	-2.990600	3.709500	-11.093000	24.928562	0.000529	20.701425
738.212902	-2.997000	3.709100	-11.115000	24.913447	0.000528	20.718024
739.212944	-2.986000	3.707900	-11.071000	24.890548	0.000529	20.702152
740.212746	-2.990100	3.709200	-11.090000	24.898581	0.000532	20.698835
741.213108	-3.000800	3.707700	-11.125000	24.907211	0.000528	20.689003
742.213007	-3.011800	3.708600	-11.169000	24.928400	0.000528	20.688934
743.213792	-3.000400	3.709000	-11.127000	24.966840	0.000529	20.703810
744.214653	-2.994500	3.707800	-11.102000	24.949064	0.000527	20.699718
745.213955	-2.987000	3.707900	-11.074000	24.946484	0.000530	20.721312
746.220010	-2.991600	3.707600	-11.090000	24.895340	0.000528	20.711704
747.214572	-2.999900	3.707700	-11.122000	24.902555	0.000528	20.697133
748.216828	-3.008000	3.705200	-11.144000	24.921728	0.000526	20.720172
749.214626	-3.007100	3.708000	-11.150000	24.963651	0.000528	20.703928
750.213184	-2.997000	3.706200	-11.106000	24.975238	0.000525	20.725043
751.217679	-2.999700	3.706400	-11.117000	24.955004	0.000528	20.724648
752.215619	-3.011700	3.705100	-11.157000	24.957843	0.000527	20.706634
753.215357	-2.999800	3.706700	-11.119000	24.929551	0.000527	20.705737
754.217227	-2.995900	3.705500	-11.100000	24.881218	0.000527	20.679984
755.218199	-3.002100	3.705400	-11.124000	24.894075	0.000525	20.693363
756.215769	-3.008000	3.704200	-11.141000	24.931027	0.000527	20.703426
757.219708	-3.011700	3.704700	-11.157000	24.906739	0.000527	20.704178
758.218650	-2.993900	3.705300	-11.092000	24.888415	0.000527	20.687208
759.216646	-3.011900	3.703400	-11.153000	24.909902	0.000523	20.695498
760.221412	-3.006900	3.703100	-11.133000	24.948518	0.000525	20.702963
761.219566	-2.999300	3.703600	-11.107000	24.965205	0.000525	20.697901
762.218597	-3.018000	3.702200	-11.173000	24.975675	0.000524	20.704617
763.218225	-3.009500	3.702500	-11.141000	24.984479	0.000524	20.701600
764.217788	-3.014200	3.703200	-11.161000	25.005291	0.000526	20.684082
765.218390	-3.000400	3.702800	-11.109000	25.020288	0.000527	20.702931
766.218182	-2.995300	3.703100	-11.090000	25.030883	0.000526	20.696022
767.218497	-3.000200	3.702000	-11.106000	25.020370	0.000524	20.700642
768.216889	-3.006200	3.701300	-11.126000	24.999415	0.000523	20.685296
769.217413	-2.988600	3.703100	-11.066000	25.005237	0.000525	20.699676
770.219354	-2.973800	3.701400	-11.006000	24.974787	0.000523	20.694242
771.219458	-2.959500	3.702600	-10.956000	24.899276	0.000521	20.695264
772.218678	-2.975100	3.701500	-11.012000	24.918675	0.000522	20.686759
773.221295	-2.983000	3.701200	-11.040000	24.884962	0.000522	20.692278
774.221120	-2.990800	3.700300	-11.066000	24.922063	0.000521	20.720508
775.219698	-2.974000	3.699400	-11.001000	24.972217	0.000523	20.679807
776.219956	-2.994100	3.699800	-11.076000	24.983708	0.000524	20.674745
777.221014	-2.997300	3.700000	-11.089000	25.006508	0.000522	20.681985
778.221022	-2.999300	3.699000	-11.093000	25.038857	0.000524	20.686955
779.221764	-2.996500	3.700600	-11.088000	25.052481	0.000522	20.683561
780.220767	-2.996800	3.700300	-11.088000	24.997096	0.000521	20.692452
781.233778	-2.993300	3.698700	-11.071000	24.914280	0.000521	20.683770
782.220814	-3.002500	3.699700	-11.107000	24.924426	0.000521	20.692532
783.223005	-3.009500	3.698300	-11.128000	24.979329	0.000520	20.692162
784.223975	-2.971800	3.699400	-10.993000	25.000962	0.000521	20.701549
785.222233	-2.977900	3.699400	-11.016000	25.026250	0.000522	20.715554
786.223011	-3.001300	3.698000	-11.098000	24.987567	0.000519	20.676248
787.223777	-2.995500	3.697300	-11.074000	24.951122	0.000519	20.708896
788.223855	-3.011700	3.698000	-11.136000	24.934565	0.000522	20.707925
789.225681	-3.015600	3.698300	-11.151000	24.924944	0.000520	20.683094
790.224563	-2.991700	3.697500	-11.061000	24.965949	0.000521	20.694380
791.223582	-3.002100	3.697700	-11.100000	24.975227	0.000520	20.693261
792.223073	-2.995200	3.696100	-11.070000	24.969758	0.000519	20.698204
793.225418	-3.013700	3.695800	-11.137000	24.972148	0.000522	20.719570
794.222827	-3.010500	3.696600	-11.127000	24.963647	0.000521	20.689698
795.223263	-3.008700	3.695500	-11.117000	24.961263	0.000519	20.702480
796.224848	-3.036900	3.694500	-11.219000	25.007164	0.000517	20.709672
797.227468	-3.001700	3.695100	-11.091000	24.983347	0.000518	20.697145
798.225414	-3.017000	3.696100	-11.150000	24.965300	0.000520	20.703687
799.223145	-3.017300	3.694800	-11.147000	24.995063	0.000519	20.700844
800.227932	-3.008700	3.694100	-11.114000	24.970851	0.000519	20.691239
801.224032	-2.993200	3.695400	-11.059000	24.994918	0.000519	20.700698
802.226113	-3.032700	3.692500	-11.198000	25.030249	0.000519	20.703921
803.226130	-3.003000	3.693400	-11.090000	25.020580	0.000520	20.710336
804.228206	-2.992400	3.693400	-11.051000	25.034899	0.000518	20.692940
805.227751	-2.981000	3.694300	-11.012000	25.008051	0.000518	20.715304
806.229422	-3.002200	3.693100	-11.087000	25.008526	0.000518	20.708194
807.229226	-2.998900	3.692800	-11.073000	25.037516	0.000517	20.715957
808.230362	-2.986200	3.693000	-11.027000	25.012827	0.000518	20.702553
809.229696	-3.007800	3.691100	-11.100000	24.997812	0.000519	20.703604
810.228404	-3.000100	3.690900	-11.072000	25.013700	0.000518	20.703430
811.229602	-3.011700	3.692600	-11.120000	24.996197	0.000519	20.694870
812.230044	-3.012400	3.690700	-11.116000	25.012956	0.000517	20.697467
813.229706	-2.995600	3.690700	-11.056000	25.048704	0.000519	20.698263
814.230424	-3.003100	3.690000	-11.081000	25.083211	0.000517	20.713936
815.229782	-3.013000	3.691000	-11.120000	25.106976	0.000516	20.688005
816.230082	-3.005200	3.691100	-11.092000	25.073610	0.000519	20.712834
817.230089	-3.016000	3.689600	-11.126000	25.032913	0.000517	20.722243
818.231255	-3.017300	3.689900	-11.132000	25.030601	0.000516	20.712335
819.232363	-2.990000	3.689700	-11.030000	25.025108	0.000519	20.720098
820.232131	-2.994000	3.689200	-11.044000	25.033336	0.000516	20.698484
821.232809	-2.996100	3.688700	-11.050000	25.029156	0.000517	20.702823
822.237445	-2.983600	3.688000	-11.002000	25.047974	0.000517	20.720291
823.233452	-2.984800	3.688700	-11.009000	25.040213	0.000516	20.714871
824.234157	-2.999200	3.688600	-11.062000	25.031711	0.000517	20.714397
825.237698	-2.994700	3.689100	-11.047000	25.032776	0.000516	20.718786
826.234238	-2.988100	3.688600	-11.021000	24.996552	0.000513	20.717987
827.233990	-2.985200	3.688100	-11.008000	24.992995	0.000515	20.720107
828.236601	-2.960800	3.689200	-10.922000	25.006642	0.000513	20.727167
829.235077	-2.989700	3.686600	-11.021000	24.993863	0.000514	20.714340
830.235437	-2.995500	3.686900	-11.043000	24.992345	0.000512	20.723721
831.237094	-2.986800	3.686600	-11.011000	24.993237	0.000511	20.737894
832.236783	-3.004000	3.686000	-11.072000	24.987865	0.000510	20.750047
833.238959	-2.991400	3.687200	-11.030000	25.020234	0.000510	20.731802
834.240361	-2.995700	3.685000	-11.038000	25.078010	0.000511	20.764195
835.236938	-3.005000	3.685300	-11.073000	25.095709	0.000511	20.717000
836.237370	-2.985200	3.686400	-11.004000	25.096805	0.000511	20.725687
837.240800	-2.971000	3.687100	-10.954000	25.053198	0.000511	20.741184
838.239675	-2.996000	3.684500	-11.038000	25.054266	0.000513	20.737514
839.238401	-3.001700	3.684800	-11.060000	25.019111	0.000510	20.743477
840.243705	-2.983300	3.685400	-10.994000	25.022492	0.000514	20.746871
841.239421	-2.998200	3.682900	-11.041000	25.050636	0.000510	20.720118
842.239359	-2.972900	3.684500	-10.952000	25.111568	0.000510	20.718696
843.238992	-2.998400	3.683500	-11.044000	25.121358	0.000512	20.749862
844.240274	-2.966500	3.683900	-10.927000	25.117236	0.000512	20.742405
845.240255	-2.978500	3.682400	-10.968000	25.093268	0.000509	20.752958
846.239690	-3.006900	3.682800	-11.073000	25.163271	0.000509	20.742151
847.241443	-2.979700	3.684300	-10.977000	25.183058	0.000508	20.746844
848.241854	-2.975600	3.683300	-10.959000	25.198367	0.000512	20.755100
849.245622	-2.983000	3.681600	-10.981000	25.192798	0.000509	20.734810
850.242944	-2.991100	3.682300	-11.013000	25.158172	0.000510	20.730868
851.241870	-2.977800	3.682800	-10.964000	25.081356	0.000509	20.745267
852.244427	-3.004000	3.682200	-11.060000	25.092763	0.000510	20.739174
853.245701	-2.994800	3.681700	-11.025000	25.113247	0.000511	20.749306
854.244274	-2.997600	3.680100	-11.031000	25.120972	0.000509	20.768441
855.242712	-2.981400	3.681300	-10.974000	25.160374	0.000508	20.743037
856.243006	-3.013100	3.681000	-11.091000	25.137028	0.000508	20.758007
857.243816	-2.996500	3.680300	-11.027000	25.110205	0.000510	20.762374
858.243896	-3.003200	3.680200	-11.051000	25.154652	0.000510	20.759104
859.243795	-3.001800	3.678900	-11.042000	25.179509	0.000508	20.767937
860.243594	-3.005400	3.679400	-11.057000	25.212712	0.000508	20.759546
861.245473	-2.992600	3.679700	-11.011000	25.226381	0.000509	20.752880
862.247811	-3.002500	3.678500	-11.043000	25.223468	0.000509	20.759439
863.249737	-2.985200	3.679900	-10.984000	25.224761	0.000509	20.754099
864.248063	-3.007100	3.679600	-11.064000	25.169498	0.000508	20.754094
865.248161	-2.992800	3.678000	-11.007000	25.185499	0.000508	20.757830
866.251499	-3.013000	3.676900	-11.077000	25.184980	0.000506	20.764421
867.248032	-3.008200	3.676900	-11.060000	25.206802	0.000507	20.771156
868.248148	-2.978300	3.679000	-10.956000	25.221064	0.000506	20.755603
869.250976	-3.000000	3.676800	-11.030000	25.211045	0.000506	20.763562
870.248081	-3.004600	3.676600	-11.046000	25.204178	0.000506	20.769470
871.248621	-2.996900	3.676400	-11.017000	25.133978	0.000505	20.781024
872.250950	-2.995900	3.677300	-11.015000	25.113166	0.000504	20.773407
873.249838	-3.007100	3.675900	-11.054000	25.132877	0.000505	20.772806
874.248494	-2.999500	3.676500	-11.026000	25.181896	0.000507	20.757057
875.251668	-3.008600	3.676000	-11.058000	25.234416	0.000505	20.770431
876.248851	-2.993400	3.676900	-11.006000	25.267819	0.000503	20.784052
877.249432	-2.991400	3.676500	-10.997000	25.239134	0.000505	20.769003
878.250897	-2.983100	3.676800	-10.967000	25.218846	0.000504	20.773765
879.248827	-3.025500	3.674300	-11.116000	25.203110	0.000505	20.781674
880.249387	-3.008300	3.674400	-11.053000	25.192418	0.000504	20.775207
881.252967	-3.006800	3.675400	-11.050000	25.204868	0.000503	20.780120
882.251240	-2.997500	3.674800	-11.014000	25.236335	0.000504	20.766667
883.252021	-3.004600	3.675700	-11.043000	25.228801	0.000502	20.768112
884.255074	-3.003200	3.673800	-11.032000	25.176300	0.000503	20.787001
885.253988	-2.984600	3.673200	-10.961000	25.171820	0.000504	20.779658
886.254693	-2.968800	3.673800	-10.905000	25.192697	0.000503	20.797773
887.253593	-3.019400	3.673000	-11.089000	25.224439	0.000500	20.785070
888.257989	-3.010200	3.673200	-11.056000	25.190655	0.000504	20.797619
889.253908	-2.974400	3.673300	-10.925000	25.234105	0.000501	20.791929
890.254598	-3.001200	3.673600	-11.024000	25.241533	0.000501	20.783740
891.255229	-2.980500	3.672700	-10.945000	25.226613	0.000501	20.769235
892.253960	-2.992900	3.672900	-10.992000	25.222041	0.000500	20.790723
893.254350	-3.007500	3.671000	-11.039000	25.206674	0.000500	20.796157
894.256555	-2.972400	3.671600	-10.913000	25.184174	0.000500	20.826674
895.255708	-2.989800	3.671700	-10.976000	25.201224	0.000499	20.794480
896.257895	-2.984500	3.672000	-10.958000	25.238507	0.000500	20.810099
897.260590	-3.002500	3.670800	-11.020000	25.270767	0.000498	20.799340
898.258110	-3.018300	3.670400	-11.078000	25.263483	0.000497	20.827588
899.259111	-2.990300	3.670300	-10.975000	25.300018	0.000496	20.822070
900.257468	-3.007400	3.670400	-11.038000	25.309658	0.000497	20.802826
901.257398	-3.006100	3.669400	-11.030000	25.298398	0.000496	20.797685
902.260413	-2.989000	3.669900	-10.968000	25.263375	0.000494	20.827479
903.256968	-3.003100	3.670000	-11.021000	25.267200	0.000495	20.824682
904.257510	-3.006400	3.669800	-11.032000	25.281863	0.000496	20.840825
905.257348	-3.020100	3.668800	-11.079000	25.288350	0.000494	20.826951
906.256352	-2.982800	3.669400	-10.943000	25.313402	0.000493	20.823654
907.256503	-3.005700	3.667700	-11.023000	25.347801	0.000493	20.809356
908.258837	-3.000800	3.668900	-11.009000	25.336737	0.000494	20.817687
909.257464	-3.011800	3.668700	-11.049000	25.306363	0.000494	20.819906
910.263194	-2.999900	3.667000	-10.999000	25.262048	0.000494	20.804336
911.259512	-2.976300	3.668200	-10.916000	25.244149	0.000493	20.820030
912.258581	-3.007900	3.666200	-11.026000	25.238583	0.000494	20.823925
913.259887	-2.982200	3.667700	-10.937000	25.249047	0.000491	20.808827
914.260031	-2.989000	3.666500	-10.959000	25.299851	0.000493	20.835652
915.260250	-2.992200	3.667200	-10.972000	25.291721	0.000490	20.826068
916.259378	-2.997400	3.666300	-10.988000	25.278271	0.000492	20.829633
917.259585	-3.003500	3.664700	-11.006000	25.332109	0.000491	20.813988
918.259519	-2.989700	3.665500	-10.958000	25.342422	0.000490	20.810593
919.260017	-2.972200	3.666000	-10.895000	25.399560	0.000492	20.808222
920.260333	-3.006000	3.664900	-11.016000	25.399535	0.000491	20.817206
921.259361	-3.016100	3.664100	-11.050000	25.368518	0.000490	20.860027
922.260162	-2.992700	3.664700	-10.967000	25.330737	0.000491	20.819249
923.261942	-3.006100	3.663800	-11.012000	25.341549	0.000491	20.825837
924.260772	-3.009200	3.664100	-11.025000	25.342592	0.000492	20.822144
925.261586	-3.003700	3.663100	-11.002000	25.341596	0.000490	20.824462
926.260682	-2.971400	3.664600	-10.888000	25.317236	0.000490	20.848366
927.261534	-3.001400	3.663700	-10.995000	25.244832	0.000489	20.832570
928.265615	-3.001500	3.662400	-10.991000	25.280872	0.000490	20.847891
929.261816	-3.022000	3.663000	-11.068000	25.259569	0.000490	20.826977
930.261729	-2.999400	3.662900	-10.985000	25.261157	0.000489	20.845166
931.265550	-3.003100	3.662800	-10.999000	25.259468	0.000489	20.844419
932.264051	-3.007500	3.661900	-11.012000	25.292996	0.000489	20.842520
933.263464	-2.998400	3.660100	-10.974000	25.288993	0.000488	20.823329
934.267812	-2.998000	3.661600	-10.976000	25.298834	0.000487	20.850752
935.264199	-2.989200	3.661700	-10.945000	25.341432	0.000488	20.848952
936.264465	-3.001800	3.659700	-10.984000	25.326941	0.000489	20.863799
937.269629	-2.992400	3.660900	-10.954000	25.346500	0.000487	20.855938
938.264543	-2.979900	3.661200	-10.909000	25.352810	0.000488	20.845204
939.263589	-2.971100	3.660800	-10.875000	25.322063	0.000487	20.851316
940.266682	-3.002200	3.659800	-10.987000	25.359345	0.000490	20.881161
941.266259	-3.005200	3.660000	-10.998000	25.330188	0.000488	20.829603
942.265152	-3.003500	3.660100	-10.991000	25.295885	0.000488	20.850163
943.271182	-3.003600	3.658400	-10.988000	25.274558	0.000488	20.874740
944.268019	-3.002300	3.660000	-10.988000	25.243710	0.000484	20.862736
945.267190	-3.008300	3.656900	-11.000000	25.268465	0.000488	20.852978
946.267954	-2.996900	3.658000	-10.961000	25.292274	0.000486	20.847485
947.269543	-2.996400	3.658500	-10.962000	25.323067	0.000486	20.849004
948.269071	-2.973100	3.658200	-10.875000	25.360670	0.000487	20.856414
949.270759	-2.997700	3.657200	-10.962000	25.352738	0.000485	20.846555
950.271526	-2.983200	3.657600	-10.911000	25.367375	0.000485	20.856983
951.270594	-3.015600	3.656500	-11.025000	25.357530	0.000482	20.883133
952.271877	-2.986000	3.656700	-10.918000	25.362972	0.000485	20.861097
953.272170	-2.983900	3.656100	-10.909000	25.314380	0.000484	20.861619
954.272323	-2.994100	3.656500	-10.947000	25.334933	0.000482	20.855229
955.271308	-3.001800	3.657000	-10.977000	25.281716	0.000484	20.853006
956.272806	-2.991400	3.655200	-10.933000	25.312286	0.000483	20.882275
957.272138	-2.964500	3.656700	-10.839000	25.316211	0.000482	20.865353
958.271482	-2.988500	3.656100	-10.926000	25.339400	0.000482	20.881997
959.272183	-3.007100	3.654300	-10.987000	25.387116	0.000481	20.878227
960.276195	-3.001200	3.653700	-10.964000	25.426482	0.000484	20.855169
961.272680	-3.006200	3.655200	-10.987000	25.447902	0.000479	20.876676
962.272797	-3.005800	3.654300	-10.983000	25.454809	0.000481	20.874129
963.272622	-3.000300	3.653800	-10.962000	25.447900	0.000478	20.876674
964.272791	-2.998400	3.654100	-10.954000	25.451353	0.000481	20.866866
965.273222	-2.994800	3.653400	-10.940000	25.483884	0.000478	20.865868
966.272877	-2.980500	3.652400	-10.884000	25.501104	0.000478	20.888850
967.273113	-2.980700	3.653400	-10.889000	25.462112	0.000477	20.889997
968.276022	-2.980200	3.652300	-10.884000	25.460149	0.000475	20.881388
969.274456	-2.995800	3.651500	-10.937000	25.426872	0.000477	20.897282
970.273327	-2.991700	3.653100	-10.928000	25.428412	0.000476	20.864218
971.274563	-3.003200	3.651100	-10.963000	25.429655	0.000478	20.895336
972.276670	-2.979400	3.651500	-10.878000	25.410594	0.000475	20.875724
973.275911	-3.003700	3.651500	-10.967000	25.408829	0.000477	20.879641
974.274485	-2.995500	3.653500	-10.943000	25.400853	0.000476	20.882537
975.276803	-2.969800	3.651200	-10.842000	25.391135	0.000475	20.897434
976.278390	-3.033900	3.650300	-11.074000	25.390692	0.000476	20.880869
977.275575	-3.017200	3.649500	-11.010000	25.419941	0.000475	20.875152
978.275640	-3.019400	3.649800	-11.019000	25.408930	0.000475	20.881639
979.278590	-3.004900	3.649900	-10.966000	25.442804	0.000474	20.891945
980.275109	-3.000300	3.649300	-10.948000	25.464251	0.000476	20.904945
981.274678	-3.010200	3.648900	-10.983000	25.483661	0.000474	20.885084
982.279027	-2.991200	3.649500	-10.915000	25.477150	0.000474	20.883761
983.276000	-3.003800	3.650400	-10.964000	25.441588	0.000472	20.906369
984.276388	-3.006400	3.649200	-10.970000	25.431596	0.000472	20.890173
985.276880	-3.031700	3.646900	-11.056000	25.416985	0.000471	20.884985
986.299970	-2.997000	3.646900	-10.929000	25.405751	0.000473	20.895514
987.277183	-2.984500	3.648700	-10.889000	25.374835	0.000472	20.896239
988.277381	-3.010100	3.646500	-10.975000	25.378138	0.000471	20.896711
989.277788	-3.004400	3.647000	-10.956000	25.401901	0.000471	20.899709
990.279074	-2.952800	3.648300	-10.771000	25.453118	0.000470	20.897086
991.279141	-2.983700	3.647200	-10.882000	25.425037	0.000470	20.906344
992.278736	-2.986700	3.646400	-10.890000	25.409108	0.000471	20.887980
993.278825	-2.989200	3.645700	-10.897000	25.404388	0.000470	20.889879
994.281524	-2.978000	3.646600	-10.857000	25.420915	0.000468	20.898887
995.286029	-2.994700	3.645100	-10.915000	25.458991	0.000470	20.895397
996.282360	-3.006800	3.645900	-10.961000	25.434064	0.000469	20.890281
997.284400	-2.985200	3.645500	-10.882000	25.386422	0.000466	20.891279
998.284935	-2.994200	3.645100	-10.913000	25.421295	0.000465	20.885993
999.282920	-2.994000	3.644500	-10.911000	25.417989	0.000466	20.882200
1000.286710	-3.011800	3.643100	-10.971000	25.404372	0.000467	20.886070
1001.283662	-3.002400	3.644400	-10.942000	25.406063	0.000466	20.869751
1002.283267	-3.006100	3.643800	-10.953000	25.440286	0.000466	20.879459
1003.286249	-2.986100	3.644500	-10.882000	25.445979	0.000464	20.869056
1004.285106	-3.005000	3.644000	-10.949000	25.453012	0.000466	20.885126
1005.283677	-3.014100	3.643200	-10.980000	25.435892	0.000464	20.893538
1006.283371	-2.999100	3.642500	-10.923000	25.425830	0.000466	20.891969
1007.285690	-2.990400	3.642300	-10.891000	25.389992	0.000462	20.892967
1008.284389	-2.991900	3.642100	-10.896000	25.355423	0.000464	20.863000
1009.284959	-3.000700	3.640700	-10.923000	25.371207	0.000463	20.874580
1010.287169	-3.001500	3.642000	-10.931000	25.336539	0.000463	20.886237
1011.285771	-3.001700	3.640500	-10.927000	25.364400	0.000460	20.865375
1012.286922	-2.999600	3.640900	-10.920000	25.385479	0.000464	20.894599
1013.288942	-3.000500	3.639300	-10.918000	25.450023	0.000461	20.868376
1014.291285	-3.016300	3.639900	-10.978000	25.489639	0.000463	20.873070
1015.291080	-3.011100	3.640200	-10.958000	25.498315	0.000460	20.857128
1016.290046	-3.000700	3.639900	-10.921000	25.476151	0.000462	20.848621
1017.293307	-2.982300	3.640300	-10.856000	25.444094	0.000459	20.839664
1018.289328	-3.019200	3.637900	-10.982000	25.434131	0.000459	20.863323
1019.289793	-2.995600	3.639200	-10.901000	25.417361	0.000459	20.869717
1020.291662	-3.004600	3.637200	-10.927000	25.443856	0.000458	20.874510
1021.288477	-2.996900	3.638200	-10.902000	25.482552	0.000457	20.854574
1022.288054	-3.016000	3.637000	-10.967000	25.443143	0.000457	20.861941
1023.291524	-2.966000	3.638400	-10.789000	25.431390	0.000457	20.843028
1024.289426	-2.995100	3.637100	-10.893000	25.415561	0.000456	20.852263
1025.290770	-3.013700	3.636500	-10.959000	25.449439	0.000457	20.840764
1026.289917	-3.006400	3.635300	-10.929000	25.446759	0.000456	20.834754
1027.293398	-3.013400	3.637400	-10.959000	25.399619	0.000456	20.834359
1028.289785	-2.990200	3.636700	-10.873000	25.424326	0.000457	20.833090
1029.290108	-3.022900	3.635200	-10.988000	25.447367	0.000455	20.845321
1030.291898	-3.009100	3.636600	-10.942000	25.436509	0.000456	20.848168
1031.289927	-3.030000	3.635200	-11.014000	25.452046	0.000455	20.848597
1032.290795	-3.008800	3.634200	-10.934000	25.439920	0.000454	20.857757
1033.291517	-3.016900	3.634200	-10.963000	25.444048	0.000455	20.830135
1034.291599	-2.974900	3.634600	-10.811000	25.448350	0.000453	20.842041
1035.292625	-2.994100	3.635400	-10.883000	25.440031	0.000451	20.828946
1036.297008	-2.991000	3.633300	-10.867000	25.438342	0.000452	20.831517
1037.291942	-2.992000	3.634100	-10.872000	25.491503	0.000452	20.836537
1038.294425	-2.999400	3.634100	-10.899000	25.525923	0.000450	20.824162
1039.290453	-3.011000	3.632100	-10.935000	25.551695	0.000451	20.820172
1040.290878	-3.001300	3.633800	-10.905000	25.545610	0.000450	20.848673
1041.291790	-3.004800	3.632700	-10.914000	25.512342	0.000449	20.829963
1042.291409	-3.005400	3.631100	-10.912000	25.489977	0.000448	20.851125
1043.290937	-3.002600	3.631800	-10.904000	25.457995	0.000450	20.839873
1044.291069	-2.972400	3.632800	-10.797000	25.474005	0.000448	20.819914
1045.293015	-2.980900	3.631700	-10.825000	25.456636	0.000448	20.815748
1046.292939	-2.991500	3.631500	-10.863000	25.502142	0.000450	20.806444
1047.293350	-2.979100	3.631800	-10.819000	25.525752	0.000448	20.803128
1048.292042	-3.029100	3.629100	-10.992000	25.524313	0.000448	20.830606
1049.291588	-2.989600	3.630900	-10.853000	25.558980	0.000446	20.816582
1050.290936	-2.983000	3.629900	-10.827000	25.533412	0.000448	20.806553
1051.297854	-3.021800	3.629900	-10.967000	25.512141	0.000447	20.819330
1052.293378	-2.987200	3.629300	-10.840000	25.523057	0.000447	20.805163
1053.292814	-3.022000	3.628800	-10.965000	25.536772	0.000445	20.816565
1054.293495	-2.990200	3.629100	-10.851000	25.547935	0.000443	20.800749
1055.293496	-2.981800	3.629000	-10.820000	25.557329	0.000445	20.804493
1056.294420	-2.997500	3.627800	-10.874000	25.559991	0.000445	20.816649
1057.295890	-2.977900	3.627700	-10.802000	25.552713	0.000444	20.797962
1058.299225	-3.013900	3.626500	-10.928000	25.543696	0.000444	20.812139
1059.297322	-3.006200	3.626100	-10.899000	25.520143	0.000442	20.808400
1060.298207	-3.018000	3.625600	-10.941000	25.484981	0.000445	20.831410
1061.298165	-2.992600	3.626500	-10.851000	25.469303	0.000444	20.828468
1062.299141	-3.025000	3.624500	-10.962000	25.445996	0.000444	20.801271
1063.297748	-3.020000	3.625900	-10.949000	25.426490	0.000441	20.802073
1064.298313	-3.017500	3.624300	-10.935000	25.455494	0.000445	20.798481
1065.298218	-3.017400	3.626100	-10.940000	25.465236	0.000443	20.791669
1066.298145	-3.005700	3.624400	-10.893000	25.485965	0.000443	20.810114
1067.298637	-3.002900	3.624400	-10.882000	25.444166	0.000444	20.791848
1068.298323	-2.972600	3.625500	-10.776000	25.422250	0.000444	20.803031
1069.299778	-3.014600	3.623600	-10.922000	25.392205	0.000444	20.793725
1070.299104	-3.000100	3.622700	-10.868000	25.373539	0.000444	20.802957
1071.299590	-3.001100	3.624700	-10.878000	25.395637	0.000443	20.793377
1072.300446	-3.009400	3.623400	-10.904000	25.400411	0.000443	20.786317
1073.299919	-3.003600	3.623400	-10.882000	25.430706	0.000441	20.796823
1074.299697	-3.006100	3.623600	-10.892000	25.447531	0.000442	20.802813
1075.301575	-3.008300	3.623300	-10.899000	25.427403	0.000442	20.782127
1076.303401	-3.002200	3.622100	-10.873000	25.418330	0.000442	20.807629
1077.300177	-2.990000	3.623200	-10.832000	25.428172	0.000441	20.792382
1078.301450	-3.009500	3.621800	-10.899000	25.462270	0.000440	20.783000
1079.302936	-3.004000	3.621200	-10.877000	25.510357	0.000438	20.779133
1080.301640	-3.001200	3.621500	-10.868000	25.556452	0.000440	20.783224
1081.301743	-2.989900	3.620000	-10.823000	25.549570	0.000439	20.795753
1082.303661	-2.969000	3.620600	-10.747000	25.585054	0.000439	20.793457
1083.302690	-2.991400	3.620500	-10.829000	25.591241	0.000437	20.827171
1084.300780	-2.992100	3.620100	-10.831000	25.603467	0.000438	20.796302
1085.300265	-3.007900	3.619900	-10.887000	25.637162	0.000438	20.791736
1086.304339	-2.974100	3.619800	-10.765000	25.636588	0.000436	20.775039
1087.301178	-2.986800	3.619600	-10.811000	25.644021	0.000437	20.778237
1088.301946	-2.984600	3.620200	-10.804000	25.622999	0.000436	20.795056
1089.300717	-2.975300	3.618300	-10.764000	25.572957	0.000434	20.784627
1090.304786	-2.963200	3.619300	-10.724000	25.518285	0.000435	20.795629
1091.301665	-2.983700	3.618800	-10.796000	25.535334	0.000436	20.773396
1092.302961	-2.975800	3.617500	-10.764000	25.519580	0.000433	20.770377
1093.304274	-2.981500	3.617300	-10.784000	25.499105	0.000434	20.780635
1094.303799	-3.016900	3.616500	-10.910000	25.514713	0.000434	20.796784
1095.305183	-2.998500	3.615900	-10.842000	25.528008	0.000433	20.792117
1096.304749	-2.990700	3.616700	-10.815000	25.542323	0.000433	20.792742
1097.303263	-3.000900	3.616400	-10.850000	25.541082	0.000433	20.784384
1098.304721	-2.995700	3.615000	-10.828000	25.470283	0.000433	20.772080
1099.305135	-3.003300	3.615500	-10.858000	25.446279	0.000430	20.784011
1100.304003	-3.022300	3.616000	-10.927000	25.479608	0.000432	20.781445
1101.305198	-2.992900	3.615400	-10.820000	25.521504	0.000432	20.801707
1102.304593	-3.001800	3.615900	-10.854000	25.525262	0.000430	20.790307
1103.304632	-2.990600	3.614500	-10.809000	25.556324	0.000428	20.797795
1104.302114	-3.001200	3.613900	-10.845000	25.600731	0.000432	20.782175
1105.304267	-3.009900	3.613400	-10.876000	25.629530	0.000430	20.783597
1106.306018	-3.008200	3.613500	-10.869000	25.569500	0.000428	20.766930
1107.304663	-2.998200	3.613500	-10.832000	25.570546	0.000428	20.783153
1108.305399	-3.000000	3.613200	-10.839000	25.555539	0.000428	20.776143
1109.308390	-2.982900	3.613200	-10.776000	25.530345	0.000429	20.786877
1110.305058	-3.019600	3.612100	-10.906000	25.500478	0.000428	20.789601
1111.307080	-2.988400	3.612700	-10.796000	25.530921	0.000428	20.783663
1112.309645	-2.991000	3.612600	-10.804000	25.572820	0.000426	20.783067
1113.307281	-2.996100	3.609800	-10.814000	25.570888	0.000427	20.779230
1114.308275	-3.000200	3.611500	-10.835000	25.634450	0.000425	20.782375
1115.308873	-3.015200	3.610300	-10.885000	25.578321	0.000426	20.768202
1116.311041	-3.019100	3.610100	-10.898000	25.544355	0.000425	20.776765
1117.310163	-3.003900	3.611900	-10.848000	25.533053	0.000423	20.749293
1118.314896	-2.963600	3.610300	-10.699000	25.516827	0.000422	20.774725
1119.311163	-2.987400	3.610600	-10.785000	25.518175	0.000423	20.765172
1120.309634	-3.002900	3.609500	-10.838000	25.524313	0.000423	20.758534
1121.309639	-3.012500	3.609400	-10.873000	25.507595	0.000423	20.755496
1122.312217	-3.002400	3.608400	-10.833000	25.495495	0.000422	20.760888
1123.311405	-3.022100	3.608400	-10.904000	25.518779	0.000422	20.774788
1124.310756	-2.986800	3.608400	-10.776000	25.552035	0.000422	20.762666
1125.323329	-2.991900	3.607500	-10.793000	25.575795	0.000424	20.779416
1126.312740	-3.006300	3.606300	-10.841000	25.548192	0.000420	20.774454
1127.311668	-3.011600	3.607600	-10.863000	25.516388	0.000421	20.755791
1128.312714	-2.997300	3.607400	-10.811000	25.533585	0.000419	20.745086
1129.312230	-3.004700	3.605600	-10.833000	25.503648	0.000420	20.765282
1130.313192	-2.990300	3.606300	-10.783000	25.498882	0.000419	20.773299
1131.312551	-3.006700	3.604700	-10.837000	25.495901	0.000417	20.781211
1132.312774	-2.990100	3.604900	-10.778000	25.519487	0.000419	20.776447
1133.313403	-2.986900	3.605600	-10.768000	25.542853	0.000416	20.747280
1134.313598	-2.995900	3.605400	-10.801000	25.557890	0.000418	20.762856
1135.313461	-3.025600	3.605500	-10.908000	25.528472	0.000416	20.766504
1136.315658	-2.990400	3.605000	-10.779000	25.511128	0.000417	20.745293
1137.314289	-2.993600	3.605400	-10.792000	25.493093	0.000416	20.741880
1138.319302	-3.010900	3.602300	-10.845000	25.491852	0.000415	20.761498
1139.316263	-3.005900	3.604400	-10.834000	25.512507	0.000415	20.736245
1140.317582	-3.007400	3.603500	-10.836000	25.566512	0.000418	20.746385
1141.317217	-3.034700	3.601700	-10.929000	25.546337	0.000414	20.752202
1142.317984	-3.000700	3.603500	-10.812000	25.568283	0.000415	20.739628
1143.318006	-3.004200	3.603000	-10.823000	25.557448	0.000415	20.747714
1144.317842	-2.985900	3.603100	-10.757000	25.553427	0.000414	20.724234
1145.320523	-3.000500	3.602500	-10.808000	25.599751	0.000414	20.729980
1146.317976	-3.009300	3.601000	-10.836000	25.640580	0.000414	20.736373
1147.318299	-3.016000	3.601500	-10.861000	25.653576	0.000413	20.754168
1148.319695	-3.000200	3.600500	-10.801000	25.654499	0.000414	20.748930
1149.318991	-2.978500	3.601600	-10.727000	25.672716	0.000411	20.758218
1150.321799	-3.004400	3.600700	-10.817000	25.685884	0.000413	20.728296
1151.326766	-3.018100	3.600200	-10.865000	25.617014	0.000412	20.743999
1152.319797	-3.006300	3.599100	-10.819000	25.619377	0.000412	20.743528
1153.323644	-3.012900	3.598800	-10.842000	25.618337	0.000412	20.737267
1154.328887	-3.015100	3.598900	-10.850000	25.595305	0.000411	20.730256
1155.321912	-2.994400	3.597800	-10.772000	25.626492	0.000410	20.732655
1156.322034	-3.011000	3.598400	-10.833000	25.651714	0.000410	20.728115
1157.325163	-2.979700	3.598100	-10.721000	25.685460	0.000411	20.732137
1158.323286	-2.982500	3.599200	-10.733000	25.638751	0.000408	20.727423
1159.324832	-3.008500	3.597800	-10.824000	25.642157	0.000408	20.738905
1160.327027	-3.000600	3.597800	-10.794000	25.612566	0.000409	20.734790
1161.323034	-2.997800	3.596700	-10.781000	25.590009	0.000407	20.741059
1162.323545	-3.001500	3.596100	-10.793000	25.577610	0.000406	20.719123
1163.323146	-3.010500	3.595700	-10.824000	25.569590	0.000408	20.715809
1164.323734	-2.994000	3.597300	-10.770000	25.621924	0.000407	20.731386
1165.322590	-3.004900	3.595300	-10.803000	25.614620	0.000407	20.716463
1166.323945	-2.984300	3.595800	-10.730000	25.635022	0.000408	20.733636
1167.324113	-2.987900	3.594900	-10.740000	25.605952	0.000406	20.718663
1168.323503	-3.000800	3.594600	-10.786000	25.620516	0.000406	20.713376
1169.324624	-3.001600	3.594100	-10.787000	25.639826	0.000405	20.728977
1170.323787	-2.993300	3.594400	-10.758000	25.650015	0.000406	20.741107
1171.323781	-2.987500	3.594500	-10.737000	25.586487	0.000404	20.712390
1172.325002	-3.001900	3.593000	-10.785000	25.593643	0.000403	20.722422
1173.324968	-2.997300	3.593400	-10.769000	25.569817	0.000402	20.724573
1174.325263	-3.003300	3.594100	-10.793000	25.561815	0.000403	20.712269
1175.328133	-3.011600	3.593600	-10.822000	25.625481	0.000403	20.715042
1176.329107	-3.030500	3.592300	-10.886000	25.657188	0.000403	20.732190
1177.325958	-3.000400	3.592200	-10.777000	25.667157	0.000401	20.719917
1178.328887	-2.994000	3.591500	-10.751000	25.662291	0.000402	20.726410
1179.327116	-3.013800	3.592300	-10.826000	25.625989	0.000402	20.734521
1180.326834	-3.003500	3.591100	-10.784000	25.583304	0.000403	20.720574
1181.326300	-3.021800	3.590800	-10.850000	25.546185	0.000402	20.706528
1182.327854	-3.016900	3.590800	-10.832000	25.546657	0.000402	20.715064
1183.326524	-3.006000	3.590500	-10.792000	25.578120	0.000403	20.710151
1184.326686	-3.000500	3.590100	-10.771000	25.616164	0.000402	20.718488
1185.330615	-3.004300	3.589400	-10.783000	25.600439	0.000400	20.713601
1186.331589	-2.999800	3.588700	-10.764000	25.587519	0.000403	20.694459
1187.328006	-3.012400	3.588300	-10.809000	25.572961	0.000402	20.701175
1188.328064	-3.016300	3.588000	-10.822000	25.562898	0.000400	20.719520
1189.329223	-2.995400	3.588600	-10.748000	25.581684	0.000402	20.723689
1190.330877	-2.988900	3.589600	-10.727000	25.549780	0.000400	20.694490
1191.328040	-3.008800	3.587300	-10.793000	25.487554	0.000398	20.722092
1192.329223	-2.981700	3.589000	-10.700000	25.542994	0.000401	20.719446
1193.327882	-3.017800	3.587000	-10.824000	25.544565	0.000400	20.715333
1194.328415	-3.021400	3.586200	-10.834000	25.563172	0.000398	20.720744
1195.330602	-2.996200	3.586800	-10.746000	25.542898	0.000398	20.730730
1196.328224	-3.006200	3.586900	-10.782000	25.558402	0.000397	20.715004
1197.328363	-2.997200	3.585900	-10.747000	25.607083	0.000398	20.709841
1198.327788	-2.957900	3.586100	-10.607000	25.594805	0.000397	20.702251
1199.329508	-3.001300	3.586200	-10.763000	25.575275	0.000398	20.731003
1200.327725	-3.005600	3.584700	-10.774000	25.603602	0.000397	20.709664
1201.330371	-3.024300	3.584300	-10.839000	25.625116	0.000397	20.719892
1202.329351	-3.002700	3.584100	-10.760000	25.595150	0.000394	20.719669
1203.328652	-2.988200	3.584700	-10.711000	25.612795	0.000394	20.721742
1204.329370	-3.022700	3.583400	-10.831000	25.645567	0.000395	20.723837
1205.327798	-2.994900	3.582500	-10.728000	25.635678	0.000393	20.731923
1206.328485	-3.005400	3.581800	-10.763000	25.654139	0.000395	20.709212
1207.327405	-3.004900	3.583300	-10.766000	25.669292	0.000394	20.710681
1208.327858	-2.995100	3.583900	-10.733000	25.655456	0.000394	20.729977
1209.328904	-3.000800	3.582100	-10.748000	25.701147	0.000391	20.717072
1210.328620	-3.027700	3.581200	-10.842000	25.656027	0.000391	20.728654
1211.332243	-2.992200	3.581800	-10.716000	25.639251	0.000392	20.734564
1212.333010	-2.998700	3.580700	-10.737000	25.637788	0.000389	20.707963
1213.329327	-2.978300	3.581800	-10.667000	25.627303	0.000390	20.729676
1214.329122	-2.991100	3.580800	-10.710000	25.667805	0.000391	20.725309
1215.332663	-3.000200	3.580700	-10.741000	25.688256	0.000389	20.723090
1216.331945	-3.012700	3.580400	-10.785000	25.700082	0.000389	20.707467
1217.330714	-3.000700	3.580500	-10.743000	25.727141	0.000389	20.743657
1218.341502	-2.989400	3.579400	-10.700000	25.709428	0.000388	20.713061
1219.330729	-3.002500	3.579600	-10.747000	25.708484	0.000387	20.725864
1220.330109	-3.005300	3.579500	-10.755000	25.688832	0.000388	20.708496
1221.333645	-3.013000	3.578700	-10.781000	25.680863	0.000388	20.720881
1222.333010	-3.001100	3.578000	-10.738000	25.706305	0.000388	20.720357
1223.336703	-3.010700	3.578200	-10.772000	25.740393	0.000385	20.749855
1224.337072	-3.003600	3.577600	-10.745000	25.763949	0.000386	20.743644
1225.330934	-2.976500	3.578900	-10.652000	25.771279	0.000387	20.719238
1226.331519	-2.994300	3.577100	-10.711000	25.704747	0.000386	20.724482
1227.331107	-2.994600	3.577300	-10.711000	25.654531	0.000386	20.711976
1228.331687	-2.985200	3.577600	-10.679000	25.609885	0.000386	20.726406
1229.331821	-3.008100	3.575500	-10.754000	25.633067	0.000386	20.704643
1230.331466	-3.004700	3.575800	-10.744000	25.622357	0.000387	20.721863
1231.332247	-2.982100	3.576500	-10.665000	25.605583	0.000386	20.708809
1232.332614	-3.001400	3.574800	-10.729000	25.587223	0.000388	20.717871
1233.337612	-3.001200	3.574700	-10.728000	25.529024	0.000384	20.746669
1234.346449	-2.991600	3.576000	-10.698000	25.564462	0.000385	20.751439
1235.336432	-2.997500	3.574200	-10.712000	25.590059	0.000387	20.716926
1236.334223	-2.998400	3.573400	-10.714000	25.582428	0.000384	20.714952
1237.338145	-3.002800	3.573300	-10.729000	25.622730	0.000386	20.729825
1238.334539	-2.992500	3.574000	-10.695000	25.638109	0.000383	20.739107
1239.336517	-2.979700	3.573300	-10.646000	25.596440	0.000382	20.710532
1240.337899	-2.994100	3.572700	-10.696000	25.606953	0.000383	20.722514
1241.336958	-2.995800	3.571800	-10.699000	25.669017	0.000382	20.719415
1242.335273	-3.012300	3.571900	-10.758000	25.655854	0.000381	20.718996
1243.342942	-2.984100	3.571100	-10.656000	25.659554	0.000381	20.730299
1244.336302	-2.985600	3.572500	-10.665000	25.652099	0.000382	20.739408
1245.335214	-2.971600	3.572300	-10.614000	25.644870	0.000381	20.724559
1246.336917	-3.012200	3.571300	-10.756000	25.679878	0.000380	20.720366
1247.349182	-2.996500	3.572000	-10.703000	25.695556	0.000377	20.740381
1248.335744	-2.992900	3.570200	-10.684000	25.684800	0.000379	20.736215
1249.339291	-2.993400	3.569500	-10.684000	25.658338	0.000378	20.736191
1250.339717	-3.018200	3.569000	-10.772000	25.631256	0.000376	20.730801
1251.335646	-3.006500	3.568700	-10.729000	25.626263	0.000378	20.731003
1252.340744	-2.967200	3.570400	-10.592000	25.697151	0.000378	20.727283
1253.338307	-2.960100	3.569100	-10.564000	25.735934	0.000379	20.745377
1254.339480	-3.012000	3.569500	-10.750000	25.754425	0.000377	20.730758
1255.340091	-2.999400	3.568400	-10.702000	25.717499	0.000373	20.730178
1256.341501	-2.977600	3.567400	-10.621000	25.734419	0.000376	20.733423
1257.341835	-3.011400	3.566700	-10.739000	25.717478	0.000376	20.735847
1258.341758	-2.999800	3.566200	-10.696000	25.704732	0.000376	20.726837
1259.342496	-2.993700	3.566700	-10.676000	25.675910	0.000376	20.735348
1260.342714	-3.000500	3.565400	-10.697000	25.655290	0.000373	20.724119
1261.342052	-3.024000	3.565800	-10.782000	25.684112	0.000376	20.735998
1262.342135	-2.991100	3.566100	-10.665000	25.700412	0.000376	20.742414
1263.345912	-3.009200	3.563900	-10.724000	25.695744	0.000371	20.737251
1264.343063	-3.017900	3.563900	-10.755000	25.659147	0.000372	20.742693
1265.344878	-3.000100	3.563800	-10.691000	25.612307	0.000371	20.741642
1266.346879	-2.997600	3.564100	-10.683000	25.584977	0.000370	20.752127
1267.346770	-2.996500	3.565600	-10.684000	25.620984	0.000371	20.756521
1268.344420	-3.007900	3.565000	-10.722000	25.643993	0.000370	20.751656
1269.345488	-3.003200	3.563800	-10.701000	25.639846	0.000371	20.744645
1270.344127	-3.026700	3.562800	-10.783000	25.648619	0.000373	20.759620
1271.345490	-2.999100	3.563000	-10.684000	25.651501	0.000371	20.748764
1272.346232	-2.991800	3.562700	-10.658000	25.668351	0.000371	20.776594
1273.345252	-2.976000	3.563200	-10.603000	25.635681	0.000368	20.758006
1274.347129	-3.006500	3.561200	-10.705000	25.636678	0.000367	20.738618
1275.347518	-2.997200	3.562500	-10.676000	25.646740	0.000369	20.746827
1276.348027	-2.998800	3.560800	-10.677000	25.691792	0.000369	20.754619
1277.348502	-3.027900	3.561800	-10.784000	25.739566	0.000366	20.762775
1278.349387	-2.985600	3.561900	-10.634000	25.748115	0.000369	20.745758
1279.350075	-2.982700	3.561300	-10.621000	25.728394	0.000367	20.754399
1280.350504	-3.017600	3.560000	-10.742000	25.710107	0.000366	20.760213
1281.349785	-2.983000	3.559900	-10.618000	25.704396	0.000367	20.761115
1282.378748	-2.979200	3.560300	-10.606000	25.712103	0.000365	20.747993
1283.348172	-2.994200	3.559500	-10.656000	25.671927	0.000362	20.764065
1284.348645	-3.001700	3.559600	-10.684000	25.662464	0.000365	20.764043
1285.351649	-3.007600	3.558000	-10.700000	25.685599	0.000364	20.763098
1286.349321	-2.993800	3.558700	-10.653000	25.668333	0.000364	20.758558
1287.353729	-2.996500	3.558100	-10.661000	25.707864	0.000365	20.753218
1288.351694	-3.008200	3.558300	-10.703000	25.755172	0.000361	20.763752
1289.349746	-3.007500	3.557900	-10.700000	25.733683	0.000362	20.763030
1290.350714	-2.998100	3.556300	-10.660000	25.710805	0.000363	20.765655
1291.352516	-2.968800	3.557400	-10.559000	25.731329	0.000362	20.769201
1292.351562	-3.005300	3.557100	-10.689000	25.723532	0.000362	20.761844
1293.350245	-3.010200	3.554200	-10.698000	25.745296	0.000361	20.773747
1294.351294	-3.006800	3.555700	-10.690000	25.731681	0.000362	20.755329
1295.350845	-3.001400	3.555500	-10.671000	25.734791	0.000363	20.771256
1296.351182	-2.973300	3.555400	-10.571000	25.718417	0.000360	20.757654
1297.352024	-2.991800	3.555300	-10.636000	25.722795	0.000360	20.750672
1298.354089	-3.012900	3.554000	-10.707000	25.670771	0.000359	20.767646
1299.359782	-3.020900	3.553800	-10.735000	25.665307	0.000361	20.761209
1300.352454	-3.018900	3.553400	-10.726000	25.683669	0.000360	20.769220
1301.353154	-3.023600	3.553300	-10.743000	25.726331	0.000359	20.755646
1302.350554	-2.988600	3.554200	-10.621000	25.776819	0.000359	20.765582
1303.353183	-2.996100	3.552700	-10.644000	25.787753	0.000358	20.759021
1304.351870	-3.023300	3.551300	-10.736000	25.759857	0.000357	20.772252
1305.352195	-3.030800	3.552500	-10.766000	25.768156	0.000358	20.782485
1306.350672	-3.002700	3.551800	-10.664000	25.775684	0.000357	20.761597
1307.351094	-2.990800	3.552700	-10.624000	25.739040	0.000359	20.780740
1308.351221	-3.004600	3.552000	-10.671000	25.717026	0.000357	20.767163
1309.351081	-2.999100	3.551500	-10.650000	25.696805	0.000358	20.774353
1310.352063	-2.991400	3.551700	-10.624000	25.739340	0.000359	20.778670
1311.354701	-2.985900	3.550100	-10.598000	25.729701	0.000359	20.771833
1312.352325	-2.962900	3.551000	-10.519000	25.696036	0.000360	20.775952
1313.352146	-3.012600	3.550200	-10.695000	25.658964	0.000360	20.761476
1314.355006	-3.000800	3.548900	-10.649000	25.681201	0.000358	20.776225
1315.351490	-2.977400	3.548800	-10.566000	25.712260	0.000358	20.755737
1316.351950	-2.979200	3.549900	-10.575000	25.760980	0.000358	20.776225
1317.356781	-3.003400	3.548100	-10.656000	25.726468	0.000356	20.776172
1318.354257	-2.980200	3.549100	-10.576000	25.742116	0.000358	20.769131
1319.355497	-3.007100	3.546800	-10.665000	25.701343	0.000356	20.786498
1320.359156	-2.992800	3.548500	-10.618000	25.749990	0.000357	20.774669
1321.355017	-2.995200	3.548000	-10.626000	25.780392	0.000358	20.785292
1322.355173	-2.982200	3.548700	-10.582000	25.777161	0.000356	20.785366
1323.359298	-2.989000	3.547800	-10.603000	25.756367	0.000355	20.791980
1324.356810	-2.998700	3.546100	-10.632000	25.784887	0.000354	20.791704
1325.356277	-3.000600	3.546500	-10.641000	25.782943	0.000355	20.783587
1326.361249	-3.003500	3.545400	-10.648000	25.752627	0.000353	20.791542
1327.357573	-3.005900	3.544300	-10.653000	25.725371	0.000353	20.793563
1328.357956	-2.999500	3.544600	-10.631000	25.696100	0.000352	20.803043
1329.360793	-2.975300	3.545300	-10.548000	25.724347	0.000352	20.805810
1330.358706	-2.992400	3.544000	-10.604000	25.764119	0.000353	20.790284
1331.360298	-3.010900	3.543100	-10.667000	25.773708	0.000350	20.804183
1332.363173	-2.990300	3.544200	-10.597000	25.769830	0.000350	20.801236
1333.361987	-3.012000	3.542500	-10.669000	25.746049	0.000351	20.800582
1334.360822	-3.018500	3.542300	-10.692000	25.776852	0.000351	20.815875
1335.365252	-3.015800	3.541700	-10.681000	25.726663	0.000352	20.813827
1336.361115	-3.011700	3.542200	-10.667000	25.726213	0.000353	20.801046
1337.361998	-3.003000	3.541900	-10.636000	25.731233	0.000353	20.801821
1338.363768	-2.998100	3.540800	-10.615000	25.748569	0.000350	20.807381
1339.360894	-2.999000	3.540700	-10.617000	25.790254	0.000350	20.818432
1340.361934	-3.000000	3.541000	-10.622000	25.828932	0.000353	20.820300
1341.362662	-2.985700	3.541800	-10.573000	25.820084	0.000351	20.812361
1342.366400	-2.987400	3.539800	-10.574000	25.832430	0.000351	20.801529
1343.362666	-2.996500	3.540700	-10.609000	25.848250	0.000350	20.804619
1344.362761	-2.973800	3.539800	-10.525000	25.780473	0.000350	20.803866
1345.367217	-3.002900	3.538900	-10.626000	25.807802	0.000351	20.826575
1346.364029	-2.980700	3.540100	-10.551000	25.803597	0.000348	20.807653
1347.363681	-3.020200	3.537700	-10.684000	25.780165	0.000348	20.798340
1348.365956	-2.994300	3.539000	-10.596000	25.745850	0.000350	20.814133
1349.363719	-3.012200	3.537500	-10.655000	25.760206	0.000348	20.807690
1350.363575	-3.004600	3.537900	-10.628000	25.723756	0.000348	20.817545
1351.368075	-3.018900	3.537300	-10.678000	25.712920	0.000347	20.820412
1352.363972	-3.006100	3.536800	-10.630000	25.714383	0.000350	20.824251
1353.364260	-3.007700	3.536900	-10.637000	25.745832	0.000347	20.830709
1354.367743	-2.994400	3.538100	-10.593000	25.758849	0.000346	20.830034
1355.364371	-3.027100	3.535800	-10.702000	25.763215	0.000347	20.829678
1356.364847	-2.970800	3.536000	-10.503000	25.782442	0.000344	20.831921
1357.366409	-2.968900	3.535200	-10.495000	25.787998	0.000349	20.848882
1358.364042	-2.993500	3.535600	-10.583000	25.775031	0.000346	20.828271
1359.363845	-3.008500	3.533500	-10.630000	25.791173	0.000347	20.834054
1360.364800	-2.991800	3.533900	-10.572000	25.781850	0.000347	20.835594
1361.364205	-2.993400	3.533200	-10.576000	25.802542	0.000346	20.844999
1362.363924	-2.985700	3.533500	-10.549000	25.805717	0.000345	20.844869
1363.364864	-2.992900	3.533500	-10.574000	25.781863	0.000345	20.830391
1364.364464	-3.018500	3.532800	-10.662000	25.795151	0.000344	20.852747
1365.364926	-3.025800	3.531900	-10.685000	25.845404	0.000345	20.856286
1366.364732	-2.994100	3.532800	-10.577000	25.830966	0.000344	20.850339
1367.364093	-3.010900	3.531800	-10.633000	25.777124	0.000344	20.851709
1368.364054	-2.985500	3.532400	-10.546000	25.785741	0.000345	20.860839
1369.363677	-3.011300	3.531700	-10.634000	25.734730	0.000343	20.846110
1370.367614	-2.998700	3.529200	-10.582000	25.762951	0.000345	20.855016
1371.364031	-2.987000	3.531400	-10.548000	25.772161	0.000344	20.855732
1372.369532	-2.982400	3.530100	-10.527000	25.802665	0.000345	20.847019
1373.367861	-3.019900	3.530100	-10.659000	25.798759	0.000344	20.872492
1374.365088	-3.015200	3.528500	-10.638000	25.753786	0.000340	20.845811
1375.364900	-3.008400	3.529400	-10.617000	25.814923	0.000343	20.864073
1376.365798	-3.023600	3.527400	-10.664000	25.858715	0.000343	20.851640
1377.369353	-2.999700	3.528400	-10.583000	25.828998	0.000342	20.859245
1378.365226	-3.016700	3.527400	-10.640000	25.873734	0.000343	20.878105
1379.366051	-2.984900	3.527100	-10.527000	25.873604	0.000341	20.862330
1380.368914	-3.012200	3.527900	-10.626000	25.838146	0.000343	20.863220
1381.364960	-3.015300	3.527100	-10.634000	25.772455	0.000340	20.866458
1382.367213	-2.974800	3.527200	-10.491000	25.817514	0.000340	20.873314
1383.369405	-3.011700	3.526200	-10.619000	25.804665	0.000339	20.870838
1384.367400	-3.007600	3.524900	-10.600000	25.810102	0.000339	20.864920
1385.369699	-3.003700	3.526100	-10.590000	25.832108	0.000337	20.877068
1386.372391	-2.982700	3.527000	-10.518000	25.799579	0.000337	20.866678
1387.370651	-3.001200	3.525600	-10.580000	25.817933	0.000337	20.877053
1388.370590	-3.008700	3.523800	-10.601000	25.842898	0.000335	20.877949
1389.369736	-2.992300	3.525900	-10.550000	25.867036	0.000338	20.869481
1390.370640	-3.006100	3.525100	-10.596000	25.862684	0.000339	20.885497
1391.372164	-3.009600	3.524600	-10.606000	25.846334	0.000337	20.888038
1392.370718	-2.989300	3.524200	-10.534000	25.812464	0.000337	20.885783
1393.372445	-2.991300	3.523800	-10.540000	25.818770	0.000336	20.894488
1394.372976	-2.972900	3.524000	-10.475000	25.876449	0.000337	20.885100
1395.374677	-2.984600	3.522400	-10.512000	25.845291	0.000337	20.908326
1396.377450	-3.015500	3.522000	-10.620000	25.877357	0.000336	20.894546
1397.374799	-2.997500	3.522800	-10.558000	25.918291	0.000337	20.868814
1398.374656	-3.013800	3.520400	-10.609000	25.951046	0.000334	20.901719
1399.377112	-3.014000	3.521100	-10.612000	25.972008	0.000335	20.901441
1400.374221	-2.998300	3.520600	-10.555000	25.961869	0.000334	20.890307
1401.375022	-2.985400	3.520900	-10.511000	25.968893	0.000334	20.887882
1402.377545	-2.976100	3.520100	-10.474000	25.959597	0.000334	20.899878
1403.375576	-2.996300	3.520500	-10.548000	25.959416	0.000333	20.925298
1404.375961	-3.029400	3.519500	-10.661000	25.970118	0.000333	20.895275
1405.380771	-3.000800	3.520400	-10.563000	25.953369	0.000332	20.907845
1406.379850	-2.990400	3.517700	-10.518000	25.930734	0.000332	20.907865
1407.377180	-3.001100	3.518500	-10.559000	25.898365	0.000331	20.905219
1408.380779	-2.981000	3.517400	-10.483000	25.896692	0.000333	20.940992
1409.377043	-2.969100	3.518200	-10.445000	25.952775	0.000331	20.910567
1410.377910	-2.989400	3.518700	-10.518000	25.905748	0.000331	20.910264
1411.380381	-3.005900	3.516500	-10.569000	25.943746	0.000332	20.919039
1412.378394	-3.013500	3.515700	-10.593000	25.945110	0.000329	20.914245
1413.381278	-2.992200	3.515200	-10.518000	25.962688	0.000330	20.922422
1414.381663	-3.022900	3.517300	-10.631000	25.987924	0.000326	20.923593
1415.378666	-2.985400	3.515100	-10.492000	26.016258	0.000329	20.918395
1416.379206	-2.971800	3.516600	-10.450000	25.983192	0.000327	20.936855
1417.382143	-2.998200	3.515700	-10.539000	26.007775	0.000327	20.915089
1418.378007	-3.006800	3.514700	-10.567000	26.004345	0.000326	20.929185
1419.378518	-3.009800	3.513700	-10.575000	26.022595	0.000328	20.929029
1420.382957	-3.012800	3.514100	-10.587000	26.001131	0.000325	20.928326
1421.379017	-2.995300	3.514700	-10.526000	25.968089	0.000325	20.943967
1422.380629	-3.022200	3.512500	-10.615000	25.938005	0.000326	20.951200
1423.383353	-2.999300	3.514400	-10.540000	25.942745	0.000325	20.930834
1424.381750	-2.995000	3.513800	-10.523000	25.949745	0.000326	20.925539
1425.381852	-2.999000	3.511500	-10.530000	25.974806	0.000322	20.935542
1426.386268	-2.991000	3.512400	-10.505000	25.962132	0.000320	20.926604
1427.380705	-2.998000	3.511900	-10.528000	25.957358	0.000323	20.919912
1428.382325	-2.972100	3.512500	-10.439000	25.935369	0.000324	20.910150
1429.383198	-2.972200	3.512200	-10.438000	25.873685	0.000322	20.926890
1430.384387	-2.997500	3.510100	-10.521000	25.897156	0.000321	20.910642
1431.384533	-3.004000	3.511200	-10.547000	25.909226	0.000321	20.919446
1432.384320	-3.007200	3.509500	-10.553000	25.951651	0.000321	20.925558
1433.384811	-2.995800	3.509700	-10.514000	25.912100	0.000320	20.928971
1434.385302	-3.015300	3.509700	-10.582000	25.902285	0.000318	20.919112
1435.385331	-3.010400	3.510000	-10.565000	25.919743	0.000317	20.913418
1436.387399	-3.021600	3.508300	-10.599000	25.935637	0.000320	20.911368
1437.386338	-2.994500	3.507700	-10.502000	25.968277	0.000319	20.924243
1438.386301	-3.009000	3.507700	-10.554000	25.984842	0.000318	20.911963
1439.388446	-2.985100	3.508400	-10.472000	25.999992	0.000318	20.907270
1440.386094	-2.991200	3.506500	-10.488000	26.006172	0.000316	20.908263
1441.386136	-2.999800	3.506400	-10.518000	26.018217	0.000315	20.923683
1442.387967	-2.999100	3.506600	-10.516000	25.950306	0.000316	20.911406
1443.387745	-3.006600	3.506400	-10.541000	25.948416	0.000315	20.912826
1444.388092	-2.964500	3.507000	-10.395000	26.003560	0.000315	20.918440
1445.388688	-3.007300	3.505000	-10.540000	26.030681	0.000316	20.904438
1446.388254	-3.003300	3.504400	-10.524000	26.030406	0.000313	20.902741
1447.388577	-3.031600	3.504200	-10.622000	25.980803	0.000315	20.916914
1448.390747	-3.009800	3.506100	-10.551000	25.955763	0.000313	20.905983
1449.390903	-3.016900	3.504500	-10.572000	25.966195	0.000313	20.906506
1450.390748	-3.006400	3.504600	-10.534000	26.004371	0.000312	20.923996
1451.401987	-2.993700	3.502900	-10.486000	26.021633	0.000312	20.912891
1452.391690	-2.999100	3.503200	-10.506000	25.988199	0.000309	20.901587
1453.391668	-2.989800	3.503500	-10.474000	25.968177	0.000310	20.898541
1454.395176	-3.000900	3.502100	-10.508000	26.008194	0.000310	20.913139
1455.392019	-2.989300	3.502400	-10.469000	25.990161	0.000311	20.916833
1456.392795	-2.997700	3.501700	-10.496000	25.974688	0.000310	20.910297
1457.395611	-2.984300	3.502500	-10.451000	25.966937	0.000309	20.898243
1458.392426	-2.979900	3.502400	-10.436000	25.981219	0.000309	20.906901
1459.392610	-2.990800	3.501300	-10.471000	26.008868	0.000311	20.905283
1460.393431	-3.021000	3.499400	-10.571000	26.044214	0.000310	20.877260
1461.393806	-3.011900	3.499400	-10.538000	25.983655	0.000308	20.885169
1462.393289	-3.014200	3.500600	-10.551000	25.983307	0.000309	20.877707
1463.397413	-2.993700	3.501100	-10.480000	26.007801	0.000307	20.903262
1464.394235	-2.994100	3.500600	-10.480000	26.028862	0.000309	20.861838
1465.393939	-2.994200	3.499500	-10.477000	26.052160	0.000310	20.893777
1466.397939	-3.005400	3.497800	-10.511000	26.050099	0.000308	20.876535
1467.398252	-3.021600	3.498000	-10.568000	26.007625	0.000310	20.870846
1468.393593	-3.011100	3.497700	-10.531000	25.972825	0.000305	20.892305
1469.399485	-2.982800	3.498400	-10.435000	25.982388	0.000307	20.910920
1470.394217	-3.012700	3.498300	-10.538000	25.944256	0.000309	20.904379
1471.396698	-3.004100	3.496700	-10.504000	25.928085	0.000307	20.889084
1472.399706	-2.993600	3.496300	-10.466000	25.953594	0.000306	20.890054
1473.396876	-2.990700	3.496300	-10.456000	25.983028	0.000307	20.876953
1474.396510	-2.995200	3.496600	-10.472000	26.021604	0.000307	20.886311
1475.400327	-3.002800	3.495100	-10.493000	25.986105	0.000306	20.860605
1476.396743	-2.996200	3.494200	-10.469000	25.919509	0.000308	20.869089
1477.396704	-2.977600	3.495800	-10.408000	25.955848	0.000305	20.886155
1478.399316	-3.008900	3.493400	-10.510000	25.989725	0.000307	20.903120
1479.399440	-3.000800	3.494000	-10.484000	26.021642	0.000307	20.883505
1480.398440	-3.018700	3.492300	-10.541000	26.051641	0.000306	20.871921
1481.400109	-3.021500	3.493000	-10.553000	26.027775	0.000306	20.884925
1482.399648	-3.003600	3.492700	-10.490000	26.010034	0.000306	20.875163
1483.398201	-2.988200	3.492600	-10.436000	25.995800	0.000304	20.868448
1484.398221	-2.991400	3.492400	-10.447000	25.975304	0.000306	20.878202
1485.400134	-2.992900	3.492500	-10.452000	25.981163	0.000306	20.886458
1486.398698	-3.009700	3.490300	-10.504000	25.958732	0.000306	20.887156
1487.398801	-2.995600	3.491900	-10.459000	25.948668	0.000305	20.877046
1488.398584	-2.979600	3.491800	-10.403000	26.039872	0.000308	20.882381
1489.398245	-3.008700	3.490300	-10.501000	26.055495	0.000303	20.894758
1490.398213	-2.997200	3.490400	-10.461000	26.039000	0.000304	20.874867
1491.400110	-2.999400	3.489100	-10.464000	26.050072	0.000304	20.877457
1492.401831	-2.984900	3.490900	-10.419000	26.009210	0.000305	20.861059
1493.399782	-3.013100	3.488300	-10.510000	25.954287	0.000307	20.851398
1494.399965	-3.035200	3.487200	-10.583000	25.948918	0.000304	20.855487
1495.403072	-3.025900	3.487700	-10.552000	25.957137	0.000302	20.869434
1496.399374	-3.002600	3.489000	-10.475000	25.967170	0.000305	20.871926
1497.399726	-3.004800	3.488400	-10.481000	25.960358	0.000301	20.866980
1498.404530	-2.986600	3.488500	-10.418000	25.968678	0.000302	20.873442
1499.400114	-2.989300	3.487600	-10.424000	25.974984	0.000299	20.867924
1500.400787	-3.008300	3.487400	-10.490000	25.973713	0.000303	20.856216
1501.404869	-3.035500	3.485100	-10.578000	25.978255	0.000301	20.882114
1502.400848	-3.001900	3.486900	-10.466000	26.002023	0.000299	20.888450
1503.403820	-3.024900	3.486100	-10.544000	26.031501	0.000300	20.864963
1504.404098	-3.009100	3.486000	-10.489000	26.035646	0.000302	20.867230
1505.401556	-3.002600	3.487000	-10.469000	26.049406	0.000300	20.870149
1506.405474	-3.017400	3.486200	-10.518000	26.079703	0.000298	20.868348
1507.401942	-3.009100	3.484600	-10.485000	26.080418	0.000299	20.864799
1508.405200	-3.020700	3.484600	-10.524000	26.100211	0.000297	20.871884
1509.401347	-3.033100	3.483500	-10.564000	26.047102	0.000299	20.874472
1510.402423	-3.007600	3.483300	-10.475000	25.979838	0.000299	20.861421
1511.403515	-2.987900	3.483500	-10.407000	25.964558	0.000300	20.868829
1512.401745	-2.998000	3.482400	-10.440000	26.002806	0.000297	20.853677
1513.403868	-2.999700	3.482200	-10.445000	25.980396	0.000299	20.846810
1514.403086	-3.001200	3.482300	-10.450000	25.975277	0.000298	20.881494
1515.401258	-3.002200	3.482100	-10.453000	25.999691	0.000297	20.854340
1516.403179	-2.985000	3.483300	-10.397000	25.977307	0.000297	20.867413
1517.402932	-2.994200	3.481100	-10.423000	25.971714	0.000296	20.873173
1518.402608	-3.001600	3.482200	-10.451000	25.994712	0.000296	20.867830
1519.403091	-2.987600	3.482000	-10.402000	26.007475	0.000297	20.875436
1520.404756	-2.984600	3.480300	-10.386000	26.028189	0.000295	20.879178
1521.404446	-3.004100	3.480800	-10.456000	26.031165	0.000297	20.860358
1522.403190	-2.958800	3.481700	-10.301000	26.069139	0.000298	20.868640
1523.404872	-2.994900	3.479000	-10.419000	26.124867	0.000293	20.847822
1524.405891	-2.991400	3.480700	-10.411000	26.093125	0.000295	20.863342
1525.404737	-2.993300	3.480800	-10.418000	26.011778	0.000295	20.891138
1526.409786	-2.999200	3.479200	-10.433000	26.019226	0.000295	20.874914
1527.406376	-2.999600	3.477600	-10.431000	25.959285	0.000297	20.855946
1528.414349	-3.003700	3.477800	-10.445000	25.985214	0.000296	20.870615
1529.409066	-2.977400	3.478400	-10.355000	26.045717	0.000292	20.870711
1530.411998	-2.995300	3.478900	-10.420000	26.102740	0.000293	20.869684
1531.406541	-3.003900	3.476300	-10.442000	26.126007	0.000294	20.875993
1532.414882	-3.001300	3.476900	-10.434000	26.107750	0.000293	20.891312
1533.411550	-2.998800	3.476900	-10.426000	26.026679	0.000292	20.887617
1534.408726	-2.988800	3.476300	-10.389000	25.969321	0.000291	20.867924
1535.413941	-2.995300	3.475600	-10.410000	25.942665	0.000290	20.852998
1536.409639	-2.987400	3.476500	-10.386000	25.931210	0.000292	20.868517
1537.408832	-2.999500	3.475100	-10.423000	25.952894	0.000290	20.857585
1538.414430	-2.996000	3.473900	-10.408000	25.950778	0.000290	20.880588
1539.411322	-3.016100	3.474400	-10.478000	25.972186	0.000288	20.878388
1540.409954	-3.012900	3.473400	-10.464000	26.030752	0.000288	20.867529
1541.410317	-2.992400	3.473900	-10.395000	26.070242	0.000287	20.865006
1542.410783	-2.973000	3.474000	-10.327000	26.124706	0.000286	20.854772
1543.410541	-2.962200	3.473100	-10.287000	26.144076	0.000289	20.864752
1544.413417	-2.976400	3.472800	-10.336000	26.114394	0.000285	20.867643
1545.412765	-2.995800	3.472000	-10.401000	26.072543	0.000285	20.874904
1546.411898	-2.982100	3.472600	-10.354000	26.071175	0.000285	20.865944
1547.413533	-3.002400	3.471400	-10.422000	26.065236	0.000282	20.878942
1548.414183	-2.983500	3.472500	-10.359000	26.007587	0.000281	20.871756
1549.415739	-2.995100	3.471000	-10.396000	25.998172	0.000283	20.872727
1550.416435	-3.005800	3.471700	-10.435000	26.036098	0.000281	20.887123
1551.416777	-3.001800	3.471300	-10.419000	26.083166	0.000280	20.869931
1552.415471	-3.012800	3.470100	-10.454000	26.105739	0.000280	20.862266
1553.417544	-2.999800	3.470100	-10.409000	26.121313	0.000279	20.870328
1554.416947	-3.025800	3.467900	-10.491000	26.058349	0.000279	20.863962
1555.417998	-2.982800	3.470000	-10.349000	25.995683	0.000280	20.883977
1556.420960	-2.994500	3.469800	-10.388000	25.980132	0.000278	20.854130
1557.417454	-2.972900	3.469700	-10.313000	25.997445	0.000277	20.853507
1558.418238	-2.992400	3.467600	-10.376000	26.023626	0.000276	20.865111
1559.418235	-3.007700	3.468500	-10.431000	26.006536	0.000276	20.872596
1560.418333	-3.001100	3.467300	-10.405000	26.021837	0.000278	20.828228
1561.422287	-3.011600	3.466100	-10.438000	26.049384	0.000276	20.853533
1562.420223	-3.005100	3.467300	-10.419000	26.047967	0.000278	20.841678
1563.420046	-2.977400	3.468400	-10.325000	26.019107	0.000275	20.869105
1564.420064	-2.999500	3.467400	-10.399000	26.085746	0.000275	20.854032
1565.422483	-2.974000	3.467600	-10.312000	26.113019	0.000274	20.860098
1566.422432	-3.011300	3.465300	-10.434000	26.091980	0.000276	20.840382
1567.421943	-3.009700	3.464900	-10.426000	26.106586	0.000274	20.845100
1568.422111	-3.013000	3.462700	-10.432000	26.141928	0.000273	20.834619
1569.421926	-3.031400	3.463300	-10.498000	26.082793	0.000273	20.854384
1570.422141	-2.991200	3.463600	-10.359000	26.101448	0.000273	20.836145
1571.426563	-3.020400	3.464200	-10.462000	26.080809	0.000273	20.861874
1572.428849	-3.012100	3.463900	-10.433000	26.066852	0.000272	20.830308
1573.422198	-2.998800	3.464000	-10.386000	26.065411	0.000272	20.842136
1574.422505	-2.999200	3.464200	-10.390000	26.066332	0.000272	20.848751
1575.426035	-3.009800	3.463100	-10.422000	26.049914	0.000271	20.835100
1576.423423	-3.017600	3.461600	-10.444000	26.062334	0.000271	20.842363
1577.427718	-2.984700	3.462700	-10.334000	26.058090	0.000269	20.821505
1578.427393	-2.996700	3.460600	-10.370000	26.086357	0.000270	20.836155
1579.423818	-3.008100	3.462900	-10.416000	26.112882	0.000269	20.824875
1580.424225	-2.989700	3.461600	-10.348000	26.091126	0.000271	20.822929
1581.427097	-2.996300	3.460300	-10.368000	26.088271	0.000270	20.829544
1582.425140	-2.968900	3.460900	-10.274000	26.102976	0.000269	20.827723
1583.425448	-2.957400	3.460300	-10.231000	26.095802	0.000270	20.835214
1584.428522	-3.002000	3.459800	-10.385000	26.097937	0.000268	20.816023
1585.425115	-2.978500	3.460000	-10.305000	26.058967	0.000269	20.811480
1586.425287	-2.999300	3.458700	-10.372000	26.057230	0.000270	20.829174
1587.428977	-3.006600	3.459200	-10.399000	26.036914	0.000269	20.831522
1588.426528	-2.995900	3.459400	-10.364000	26.028467	0.000269	20.827777
1589.426734	-2.998000	3.459200	-10.369000	26.013839	0.000269	20.807390
1590.427919	-3.005400	3.458000	-10.392000	26.050623	0.000270	20.806890
1591.426679	-2.981600	3.458200	-10.309000	26.051817	0.000270	20.788650
1592.428046	-3.014800	3.457300	-10.421000	26.118876	0.000270	20.828526
1593.429400	-3.011400	3.456800	-10.408000	26.091283	0.000267	20.806492
1594.430007	-3.042200	3.455700	-10.511000	26.026880	0.000268	20.791569
1595.429813	-3.042200	3.455900	-10.513000	26.001317	0.000269	20.804767
1596.429112	-3.006400	3.455500	-10.388000	25.989793	0.000269	20.804094
1597.430121	-2.982500	3.456800	-10.309000	25.972850	0.000268	20.824531
1598.430065	-2.989300	3.455800	-10.330000	25.966662	0.000266	20.809779
1599.431240	-2.987400	3.456000	-10.324000	25.956503	0.000266	20.825651
1600.429821	-2.989800	3.454900	-10.328000	25.934991	0.000267	20.802617
1601.430185	-2.989200	3.454100	-10.324000	25.979900	0.000266	20.813595
1602.430819	-2.975300	3.453700	-10.276000	26.036382	0.000268	20.808229
1603.431712	-2.987100	3.454200	-10.317000	26.058684	0.000269	20.829214
1604.432389	-2.990500	3.453500	-10.327000	26.103687	0.000264	20.809472
1605.432013	-2.980900	3.454500	-10.296000	26.069362	0.000266	20.808174
1606.432590	-3.009200	3.452000	-10.387000	26.109049	0.000264	20.791626
1607.436085	-3.000400	3.452200	-10.357000	26.110090	0.000262	20.817802
1608.433589	-2.998900	3.451100	-10.349000	26.135471	0.000264	20.799683
1609.434630	-2.997500	3.451200	-10.344000	26.094168	0.000265	20.824563
1610.437530	-3.017800	3.451100	-10.413000	26.071960	0.000262	20.816000
1611.435020	-3.002300	3.451600	-10.361000	26.099753	0.000262	20.805045
1612.437164	-2.993000	3.451000	-10.327000	26.075735	0.000263	20.810310
1613.438425	-2.980000	3.451600	-10.284000	26.112715	0.000262	20.824707
1614.436066	-3.006700	3.449700	-10.371000	26.152353	0.000260	20.809534
1615.437604	-2.993300	3.449200	-10.324000	26.161565	0.000261	20.789393
1616.438907	-2.990800	3.449500	-10.316000	26.104368	0.000261	20.814423
1617.437099	-2.992500	3.450400	-10.325000	26.106998	0.000260	20.811850
1618.437263	-2.984000	3.448900	-10.291000	26.093412	0.000262	20.789190
1619.436998	-3.002200	3.447900	-10.351000	26.078086	0.000260	20.800345
1620.437830	-2.987200	3.449100	-10.303000	26.076247	0.000260	20.785694
1621.438226	-3.007100	3.448100	-10.368000	26.081188	0.000262	20.807255
1622.438829	-2.989000	3.447800	-10.305000	26.073191	0.000259	20.812969
1623.437826	-3.002600	3.447100	-10.349000	26.068520	0.000257	20.793103
1624.439211	-2.998000	3.447000	-10.333000	26.025548	0.000257	20.792128
1625.438818	-3.012700	3.445600	-10.379000	25.995691	0.000259	20.789631
1626.439806	-3.008400	3.445200	-10.364000	26.060693	0.000257	20.790930
1627.440024	-2.994800	3.447300	-10.324000	26.109743	0.000257	20.798014
1628.442605	-3.017900	3.445500	-10.398000	26.153307	0.000257	20.804329
1629.439529	-2.987600	3.445600	-10.294000	26.145207	0.000254	20.806147
1630.440157	-3.000700	3.444400	-10.335000	26.203694	0.000256	20.782415
1631.439558	-3.002900	3.443300	-10.339000	26.217254	0.000255	20.790351
1632.443165	-2.988900	3.443900	-10.293000	26.114286	0.000253	20.796888
1633.440901	-3.006700	3.444200	-10.355000	26.073453	0.000253	20.807543
1634.440430	-2.998900	3.444500	-10.329000	26.023380	0.000251	20.793269
1635.444873	-3.019600	3.442400	-10.394000	26.029391	0.000252	20.821593
1636.440698	-3.013100	3.443700	-10.375000	26.085002	0.000251	20.801603
1637.442213	-2.995300	3.442700	-10.311000	26.105145	0.000250	20.803350
1638.442621	-2.973100	3.443800	-10.237000	26.104450	0.000250	20.777522
1639.440326	-2.988400	3.443500	-10.289000	26.129858	0.000251	20.778870
1640.441145	-2.997600	3.442600	-10.319000	26.130058	0.000251	20.762949
1641.444485	-3.004800	3.441600	-10.341000	26.157153	0.000250	20.780692
1642.441488	-3.027500	3.439800	-10.413000	26.134206	0.000253	20.788928
1643.441473	-3.006000	3.440900	-10.343000	26.085104	0.000250	20.785110
1644.443915	-3.007100	3.440500	-10.345000	26.106910	0.000250	20.800857
1645.444916	-3.004100	3.440600	-10.334000	26.075517	0.000250	20.789703
1646.441713	-2.994600	3.439500	-10.300000	26.050257	0.000250	20.778547
1647.441483	-3.008900	3.440000	-10.350000	26.020847	0.000249	20.799259
1648.440673	-3.004200	3.439300	-10.331000	26.015460	0.000248	20.785785
1649.440155	-3.004100	3.438100	-10.328000	26.033317	0.000249	20.781441
1650.441442	-2.999700	3.439000	-10.315000	25.990892	0.000250	20.779595
1651.442157	-2.985900	3.439300	-10.268000	25.979415	0.000249	20.785608
1652.444054	-2.993900	3.437500	-10.291000	26.021743	0.000251	20.798262
1653.445094	-2.992400	3.438100	-10.287000	26.055770	0.000249	20.780767
1654.444355	-3.012600	3.437200	-10.354000	26.096352	0.000250	20.793093
1655.448582	-3.026700	3.436000	-10.399000	26.067393	0.000247	20.783436
1656.445931	-3.003400	3.435600	-10.318000	26.068162	0.000249	20.778519
1657.447194	-3.001700	3.435600	-10.311000	26.071787	0.000249	20.777894
1658.449423	-2.990200	3.435600	-10.272000	26.094313	0.000249	20.809536
1659.447410	-3.008600	3.435300	-10.334000	26.100942	0.000248	20.790119
1660.448865	-3.008800	3.434900	-10.333000	26.061352	0.000247	20.772151
1661.455544	-2.995600	3.434000	-10.286000	26.093118	0.000247	20.772774
1662.449693	-3.022800	3.433700	-10.379000	26.091750	0.000247	20.761916
1663.449862	-3.005600	3.433200	-10.317000	26.033010	0.000246	20.794884
1664.455166	-3.003600	3.432600	-10.309000	26.059733	0.000246	20.781430
1665.449458	-2.962300	3.435000	-10.175000	26.046396	0.000246	20.795056
1666.449028	-3.005500	3.433500	-10.319000	26.043959	0.000244	20.797823
1667.451873	-2.983300	3.432900	-10.240000	26.067106	0.000245	20.792157
1668.448751	-3.008700	3.431700	-10.324000	26.048652	0.000243	20.775511
1669.449390	-3.015900	3.431900	-10.350000	26.037273	0.000243	20.798692
1670.453497	-2.986700	3.432500	-10.251000	26.056945	0.000242	20.776258
1671.450978	-3.020700	3.431700	-10.365000	26.130236	0.000244	20.794423
1672.453019	-3.013400	3.431900	-10.340000	26.123430	0.000242	20.786636
1673.453816	-3.000700	3.430800	-10.294000	26.102718	0.000243	20.787162
1674.450129	-2.984100	3.430500	-10.236000	26.114562	0.000240	20.786260
1675.453642	-3.026300	3.430100	-10.380000	26.117642	0.000239	20.804054
1676.454146	-2.999400	3.429200	-10.284000	26.140441	0.000239	20.777650
1677.452998	-2.993000	3.429600	-10.263000	26.165500	0.000238	20.795244
1678.455946	-3.019000	3.428900	-10.351000	26.135323	0.000238	20.766344
1679.454914	-2.995900	3.429200	-10.272000	26.114686	0.000237	20.788755
1680.452606	-3.019000	3.427000	-10.345000	26.138056	0.000237	20.789004
1681.455346	-3.009800	3.428100	-10.317000	26.190681	0.000238	20.796839
1682.457317	-3.028800	3.428100	-10.382000	26.196170	0.000235	20.789078
1683.454244	-2.975000	3.429100	-10.201000	26.212165	0.000235	20.797091
1684.460269	-2.991700	3.427900	-10.254000	26.224382	0.000235	20.800359
1685.460351	-2.999400	3.427300	-10.279000	26.220432	0.000236	20.785484
1686.457325	-2.980600	3.425800	-10.210000	26.194606	0.000236	20.800309
1687.459171	-3.002000	3.427400	-10.288000	26.188397	0.000238	20.781268
1688.456265	-3.004600	3.426800	-10.295000	26.218919	0.000237	20.776851
1689.457233	-2.968200	3.426400	-10.169000	26.187851	0.000236	20.803479
1690.456717	-2.988900	3.426100	-10.238000	26.158048	0.000234	20.776376
1691.456702	-3.006500	3.424000	-10.293000	26.148711	0.000233	20.803029
1692.457374	-3.010000	3.424700	-10.308000	26.130208	0.000233	20.794869
1693.458508	-3.037400	3.422100	-10.393000	26.098988	0.000233	20.796690
1694.463189	-2.981900	3.423300	-10.207000	26.084658	0.000233	20.791300
1695.460526	-3.016200	3.422800	-10.323000	26.093028	0.000232	20.773158
1696.460922	-2.995400	3.423200	-10.252000	26.064565	0.000236	20.765422
1697.460237	-3.012000	3.423300	-10.311000	26.065732	0.000230	20.780819
1698.460523	-2.980500	3.422000	-10.198000	26.116002	0.000231	20.767793
1699.460340	-3.023300	3.421400	-10.343000	26.159564	0.000232	20.783115
1700.461322	-2.993600	3.421900	-10.243000	26.169970	0.000230	20.775079
1701.460713	-3.009400	3.422200	-10.298000	26.179556	0.000232	20.784237
1702.464034	-3.006800	3.421400	-10.286000	26.211320	0.000231	20.784862
1703.460589	-3.009600	3.421300	-10.296000	26.206725	0.000229	20.786883
1704.460921	-2.995400	3.420600	-10.246000	26.209558	0.000229	20.778350
1705.460966	-3.006800	3.420100	-10.282000	26.167239	0.000229	20.794621
1706.460891	-2.986700	3.419300	-10.211000	26.125788	0.000229	20.780945
1707.460867	-2.984800	3.420600	-10.208000	26.163292	0.000230	20.806776
1708.462833	-2.994200	3.420000	-10.239000	26.185694	0.000230	20.793251
1709.462096	-2.954800	3.421500	-10.109000	26.127504	0.000229	20.776979
1710.461844	-2.984100	3.417600	-10.197000	26.171390	0.000228	20.799740
1711.461574	-2.994000	3.419800	-10.239000	26.178221	0.000229	20.786215
1712.464467	-2.988300	3.418200	-10.214000	26.165978	0.000229	20.779129
1713.464747	-2.997000	3.418900	-10.245000	26.159496	0.000229	20.811970
1714.461713	-3.005100	3.417800	-10.270000	26.168562	0.000228	20.805433
1715.464969	-3.014500	3.416500	-10.298000	26.129050	0.000229	20.790860
1716.462358	-2.993400	3.418200	-10.231000	26.099195	0.000225	20.789786
1717.463700	-2.987800	3.418700	-10.213000	26.077984	0.000226	20.796449
1718.466148	-3.004400	3.415500	-10.260000	26.108882	0.000227	20.787665
1719.463350	-2.997600	3.416100	-10.239000	26.123212	0.000228	20.773141
1720.463830	-3.020700	3.414700	-10.313000	26.089907	0.000226	20.809377
1721.465875	-2.991500	3.417000	-10.221000	26.091125	0.000223	20.772668
1722.463418	-2.994200	3.415900	-10.227000	26.024410	0.000224	20.799519
1723.467266	-2.980900	3.414600	-10.177000	26.050366	0.000225	20.799045
1724.463542	-2.994100	3.414300	-10.222000	26.098426	0.000225	20.798496
1725.468946	-3.000500	3.413300	-10.241000	26.098128	0.000224	20.769273
1726.466800	-3.004600	3.413100	-10.254000	26.108287	0.000223	20.796076
1727.465965	-2.996800	3.413300	-10.228000	26.085188	0.000223	20.803213
1728.469861	-3.015800	3.412400	-10.290000	26.085015	0.000222	20.803987
1729.469471	-2.996500	3.412100	-10.223000	26.113081	0.000220	20.811799
1730.468393	-2.986000	3.411900	-10.187000	26.160692	0.000220	20.794680
1731.468969	-2.984800	3.413100	-10.185000	26.144399	0.000221	20.816241
1732.468801	-2.982800	3.411800	-10.176000	26.155105	0.000223	20.791437
1733.468419	-3.014400	3.409900	-10.278000	26.197497	0.000220	20.812698
1734.471710	-3.010700	3.411100	-10.268000	26.184460	0.000218	20.813348
1735.470161	-3.008700	3.411000	-10.262000	26.163253	0.000217	20.801046
1736.471397	-2.988400	3.411000	-10.193000	26.144950	0.000216	20.794509
1737.475517	-2.993700	3.410600	-10.210000	26.210887	0.000219	20.796755
1738.471869	-3.001200	3.409900	-10.232000	26.251516	0.000218	20.803919
1739.469919	-3.014600	3.409100	-10.276000	26.272328	0.000217	20.788798
1740.474961	-3.000400	3.409200	-10.227000	26.238457	0.000219	20.802175
1741.470256	-2.998300	3.408900	-10.220000	26.197855	0.000220	20.792669
1742.472275	-3.020600	3.407800	-10.293000	26.143318	0.000218	20.788128
1743.472894	-3.009900	3.408300	-10.258000	26.103483	0.000219	20.799784
1744.473059	-2.968100	3.409600	-10.119000	26.070973	0.000217	20.813586
1745.472846	-2.999700	3.407900	-10.221000	26.135448	0.000219	20.802979
1746.472331	-2.989400	3.407600	-10.186000	26.190959	0.000218	20.810395
1747.472489	-2.991100	3.407500	-10.191000	26.190762	0.000216	20.803085
1748.477649	-2.988900	3.407800	-10.185000	26.207153	0.000215	20.795374
1749.472906	-2.999000	3.406900	-10.217000	26.195433	0.000217	20.792132
1750.474638	-2.965800	3.406600	-10.102000	26.179367	0.000216	20.804910
1751.475469	-2.965900	3.407300	-10.105000	26.152248	0.000216	20.797574
1752.472440	-3.015500	3.405700	-10.269000	26.144823	0.000217	20.792485
1753.473401	-3.003100	3.404700	-10.224000	26.142515	0.000215	20.819563
1754.473765	-2.997900	3.404100	-10.204000	26.096370	0.000215	20.787896
1755.472677	-2.984900	3.404600	-10.162000	26.094979	0.000213	20.807835
1756.473352	-3.012300	3.402500	-10.248000	26.123669	0.000215	20.810110
1757.478762	-2.974200	3.404200	-10.124000	26.100423	0.000214	20.809985
1758.473831	-2.994200	3.404100	-10.192000	26.179451	0.000213	20.797409
1759.476776	-2.984500	3.402300	-10.153000	26.189362	0.000212	20.808316
1760.475679	-3.000500	3.401700	-10.205000	26.203420	0.000213	20.805373
1761.474829	-2.977200	3.403200	-10.131000	26.218645	0.000214	20.805973
1762.477736	-2.992100	3.401800	-10.177000	26.249788	0.000214	20.788906
1763.477235	-2.980600	3.401200	-10.137000	26.304669	0.000212	20.805178
1764.476331	-2.981400	3.403000	-10.144000	26.267148	0.000212	20.822947
1765.479525	-2.981500	3.402000	-10.142000	26.297297	0.000211	20.785441
1766.479541	-2.982100	3.401600	-10.143000	26.269907	0.000212	20.816710
1767.478661	-2.993500	3.401600	-10.182000	26.207476	0.000211	20.820828
1768.480213	-3.012700	3.400000	-10.242000	26.166970	0.000210	20.803359
1769.480834	-3.012100	3.400300	-10.241000	26.184977	0.000212	20.790159
1770.477927	-2.997700	3.399900	-10.191000	26.144918	0.000210	20.791157
1771.480049	-2.987400	3.398700	-10.153000	26.151200	0.000211	20.800790
1772.481851	-2.997400	3.399000	-10.187000	26.137269	0.000210	20.813343
1773.478053	-3.005500	3.398700	-10.214000	26.160935	0.000210	20.826218
1774.476516	-3.003000	3.398000	-10.203000	26.153037	0.000211	20.809273
1775.478100	-2.990100	3.398900	-10.162000	26.177349	0.000210	20.836073
1776.478889	-2.967900	3.398400	-10.085000	26.213606	0.000208	20.818454
1777.479831	-2.998700	3.398500	-10.190000	26.262207	0.000210	20.796645
1778.479432	-3.020600	3.397000	-10.259000	26.228681	0.000209	20.793299
1779.478318	-2.991500	3.396300	-10.160000	26.205709	0.000208	20.813363
1780.479318	-2.998200	3.396600	-10.183000	26.224061	0.000208	20.830856
1781.479174	-3.009500	3.396300	-10.220000	26.205907	0.000205	20.816406
1782.479134	-2.993300	3.395500	-10.163000	26.274844	0.000207	20.831155
1783.479290	-2.995000	3.395700	-10.169000	26.224356	0.000205	20.802230
1784.480684	-3.023800	3.394500	-10.263000	26.195277	0.000205	20.833699
1785.482260	-3.006500	3.394900	-10.206000	26.160507	0.000204	20.838116
1786.481871	-2.992600	3.395200	-10.160000	26.172180	0.000202	20.817129
1787.486742	-3.017200	3.393300	-10.237000	26.223339	0.000204	20.807371
1788.485973	-3.027800	3.392300	-10.270000	26.234836	0.000202	20.843106
1789.483030	-2.995800	3.392900	-10.164000	26.238165	0.000202	20.823693
1790.483249	-3.024300	3.393300	-10.261000	26.205657	0.000203	20.815208
1791.487944	-2.995500	3.392000	-10.160000	26.177420	0.000202	20.818127
1792.487974	-2.971000	3.392800	-10.079000	26.176029	0.000202	20.823368
1793.482237	-2.993400	3.393900	-10.158000	26.235136	0.000202	20.824442
1794.483036	-3.030200	3.392300	-10.278000	26.253935	0.000202	20.819152
1795.486176	-3.002500	3.391900	-10.183000	26.288827	0.000202	20.835724
1796.482685	-3.019700	3.390400	-10.237000	26.315768	0.000201	20.834349
1797.487236	-3.005200	3.392400	-10.194000	26.286544	0.000201	20.833903
1798.486229	-3.019600	3.390100	-10.236000	26.271571	0.000201	20.842090
1799.483714	-2.991700	3.391800	-10.146000	26.223395	0.000199	20.828290
1800.497762	-3.012500	3.389500	-10.210000	26.172062	0.000200	20.816536
1801.486233	-2.992200	3.389400	-10.140000	26.186317	0.000201	20.848403
1802.484620	-2.985900	3.389700	-10.121000	26.201768	0.000198	20.846860
1803.487477	-2.985600	3.388000	-10.114000	26.209890	0.000197	20.840323
1804.487422	-3.006500	3.389500	-10.189000	26.233307	0.000199	20.836354
1805.485252	-3.005100	3.389100	-10.184000	26.228341	0.000199	20.836579
1806.489171	-3.000000	3.388900	-10.165000	26.187591	0.000198	20.841149
1807.485668	-2.953500	3.389600	-10.010000	26.216124	0.000198	20.828571
1808.484546	-3.001300	3.388100	-10.167000	26.258068	0.000200	20.815245
1809.483863	-2.996800	3.386700	-10.148000	26.238031	0.000196	20.850109
1810.483755	-2.993000	3.387900	-10.139000	26.247444	0.000199	20.835862
1811.483059	-2.990000	3.386700	-10.124000	26.250102	0.000197	20.830947
1812.485306	-2.994100	3.386400	-10.138000	26.251567	0.000198	20.848539
1813.485209	-2.994500	3.386000	-10.139000	26.276749	0.000195	20.834965
1814.485699	-2.992300	3.385800	-10.130000	26.298701	0.000196	20.823362
1815.485422	-2.994300	3.385900	-10.137000	26.305754	0.000197	20.838036
1816.485104	-3.010300	3.384900	-10.189000	26.351417	0.000194	20.850736
1817.488282	-3.004400	3.384200	-10.167000	26.334035	0.000194	20.824733
1818.484811	-2.988800	3.383900	-10.113000	26.302649	0.000194	20.831597
1819.484259	-3.001300	3.384100	-10.155000	26.279581	0.000194	20.836389
1820.490592	-3.044700	3.383400	-10.300000	26.266420	0.000193	20.846870
1821.485717	-2.997800	3.382200	-10.138000	26.251968	0.000192	20.846098
1822.486408	-2.999500	3.383800	-10.149000	26.257432	0.000192	20.856804
1823.490006	-3.004500	3.383500	-10.165000	26.223338	0.000191	20.872802
1824.485825	-2.992300	3.382500	-10.120000	26.197759	0.000191	20.860849
1825.486891	-2.973900	3.382100	-10.058000	26.186682	0.000190	20.863942
1826.486560	-2.985500	3.382500	-10.097000	26.249664	0.000190	20.848523
1827.486573	-2.986300	3.382000	-10.098000	26.266800	0.000191	20.837295
1828.486522	-2.997700	3.381700	-10.136000	26.317358	0.000189	20.846852
1829.487535	-2.989800	3.381500	-10.109000	26.293745	0.000189	20.871484
1830.488165	-2.992600	3.381100	-10.116000	26.285328	0.000188	20.863974
1831.488374	-2.995600	3.380600	-10.126000	26.264024	0.000189	20.849204
1832.488222	-3.014400	3.379300	-10.185000	26.275872	0.000187	20.844516
1833.489767	-3.019000	3.379100	-10.201000	26.240660	0.000191	20.853226
1834.487992	-3.014200	3.379300	-10.184000	26.225811	0.000186	20.854424
1835.486753	-3.029500	3.379500	-10.237000	26.282754	0.000187	20.857120
1836.490085	-3.000600	3.378400	-10.136000	26.305355	0.000187	20.852807
1837.490475	-3.005000	3.378700	-10.153000	26.272404	0.000185	20.868529
1838.489897	-3.017900	3.378900	-10.197000	26.318991	0.000188	20.852761
1839.493119	-3.012600	3.377300	-10.174000	26.298184	0.000186	20.848446
1840.493981	-3.005000	3.378100	-10.150000	26.333099	0.000185	20.848922
1841.491356	-3.038700	3.376900	-10.260000	26.371837	0.000185	20.872680
1842.493729	-2.987300	3.376800	-10.086000	26.434209	0.000185	20.847650
1843.495812	-3.003300	3.376900	-10.141000	26.446678	0.000184	20.837898
1844.492146	-2.986900	3.377000	-10.086000	26.448766	0.000184	20.855169
1845.494027	-2.990200	3.377200	-10.098000	26.451300	0.000183	20.861983
1846.495701	-3.016300	3.375600	-10.181000	26.446486	0.000183	20.851455
1847.492422	-2.981200	3.374900	-10.060000	26.401125	0.000183	20.864183
1848.493509	-2.970500	3.375000	-10.025000	26.420343	0.000182	20.852206
1849.494328	-3.019200	3.374100	-10.186000	26.411136	0.000180	20.858599
1850.492270	-2.989300	3.375500	-10.089000	26.442348	0.000181	20.854408
1851.492469	-3.013400	3.375200	-10.170000	26.446099	0.000180	20.867187
1852.492873	-2.997600	3.373900	-10.113000	26.445432	0.000180	20.838542
1853.492986	-2.997800	3.373300	-10.112000	26.459514	0.000181	20.858385
1854.496597	-2.989200	3.374700	-10.087000	26.523744	0.000182	20.863677
1855.493888	-2.986900	3.373700	-10.076000	26.518831	0.000182	20.854472
1856.497198	-2.998500	3.372500	-10.111000	26.479831	0.000179	20.873590
1857.493729	-2.992400	3.372100	-10.090000	26.465234	0.000180	20.851332
1858.494478	-2.976400	3.372200	-10.036000	26.467794	0.000179	20.879509
1859.497118	-2.991200	3.371800	-10.085000	26.454789	0.000181	20.853162
1860.496222	-3.024800	3.370600	-10.194000	26.478726	0.000179	20.884806
1861.496893	-3.012900	3.370000	-10.152000	26.515646	0.000182	20.860752
1862.498198	-3.009900	3.369900	-10.143000	26.454820	0.000180	20.862202
1863.496236	-3.027500	3.369600	-10.201000	26.421976	0.000179	20.865700
1864.497292	-2.995700	3.369900	-10.094000	26.460215	0.000177	20.867624
1865.498016	-2.976600	3.372200	-10.035000	26.476379	0.000177	20.874862
1866.501570	-3.004500	3.369300	-10.122000	26.398244	0.000178	20.854176
1867.499296	-3.008800	3.369700	-10.137000	26.407481	0.000178	20.872943
1868.504138	-3.012900	3.368300	-10.147000	26.445005	0.000179	20.868458
1869.502522	-2.994800	3.368300	-10.087000	26.473829	0.000177	20.866609
1870.501460	-3.000600	3.367600	-10.104000	26.490119	0.000178	20.862120
1871.505929	-3.023200	3.367800	-10.181000	26.458117	0.000178	20.849395
1872.504728	-2.980800	3.367800	-10.037000	26.382438	0.000177	20.899928
1873.500619	-2.996600	3.367400	-10.089000	26.377820	0.000176	20.873951
1874.501050	-3.002500	3.366100	-10.107000	26.405732	0.000178	20.864073
1875.501183	-2.996200	3.365900	-10.084000	26.410349	0.000177	20.871083
1876.504005	-2.987100	3.367200	-10.057000	26.377202	0.000177	20.876174
1877.503765	-2.982500	3.367000	-10.041000	26.396670	0.000179	20.890050
1878.500452	-3.027000	3.366000	-10.188000	26.352001	0.000175	20.852271
1879.503590	-2.987200	3.366900	-10.057000	26.323941	0.000175	20.866743
1880.501029	-3.000100	3.366400	-10.099000	26.322623	0.000177	20.872530
1881.500881	-3.002600	3.365300	-10.104000	26.318401	0.000173	20.895313
1882.502942	-3.008900	3.363100	-10.118000	26.354531	0.000176	20.884209
1883.501148	-2.996600	3.364400	-10.081000	26.374517	0.000173	20.889122
1884.501374	-2.985000	3.363900	-10.040000	26.401830	0.000174	20.868686
1885.503731	-2.982600	3.364600	-10.034000	26.419858	0.000174	20.881588
1886.503939	-3.015700	3.362400	-10.139000	26.477757	0.000173	20.899004
1887.504279	-3.000700	3.363900	-10.093000	26.509338	0.000175	20.886178
1888.506373	-2.999100	3.361900	-10.081000	26.476562	0.000171	20.885951
1889.502070	-2.993200	3.362400	-10.063000	26.510627	0.000173	20.875147
1890.505010	-3.009800	3.363100	-10.121000	26.524085	0.000171	20.895311
1891.505957	-2.989500	3.362000	-10.050000	26.495903	0.000170	20.891166
1892.503129	-3.011900	3.360100	-10.119000	26.468644	0.000168	20.899327
1893.505815	-3.006200	3.360700	-10.102000	26.489351	0.000169	20.875098
1894.506046	-3.010100	3.359700	-10.112000	26.496327	0.000169	20.880688
1895.504203	-2.980500	3.361200	-10.016000	26.515616	0.000169	20.888696
1896.504801	-3.018000	3.360200	-10.141000	26.447193	0.000167	20.886303
1897.504959	-3.001000	3.360100	-10.083000	26.456179	0.000167	20.866412
1898.505953	-3.013600	3.359800	-10.125000	26.473089	0.000168	20.893839
1899.504692	-3.003700	3.360000	-10.091000	26.465119	0.000169	20.881087
1900.506258	-3.009600	3.357900	-10.105000	26.489651	0.000166	20.858805
1901.509719	-3.000900	3.357400	-10.074000	26.486349	0.000168	20.870184
1902.506839	-2.990600	3.358900	-10.044000	26.462515	0.000165	20.877996
1903.506283	-2.991200	3.358100	-10.044000	26.436497	0.000165	20.885035
1904.506050	-2.976900	3.357700	-9.994600	26.438782	0.000167	20.855091
1905.507439	-2.994300	3.357300	-10.052000	26.418521	0.000165	20.862702
1906.507833	-2.993400	3.356400	-10.047000	26.420781	0.000164	20.880619
1907.511642	-3.019500	3.355800	-10.132000	26.448441	0.000164	20.888979
1908.507452	-2.990800	3.355800	-10.036000	26.448095	0.000168	20.872986
1909.508263	-2.998700	3.356100	-10.063000	26.419419	0.000166	20.868820
1910.511489	-2.988000	3.355300	-10.024000	26.417112	0.000164	20.883570
1911.508138	-2.997600	3.355400	-10.057000	26.464612	0.000161	20.871095
1912.509497	-2.998000	3.354900	-10.057000	26.506845	0.000162	20.861863
1913.512353	-2.998300	3.355300	-10.059000	26.529663	0.000164	20.877211
1914.509431	-3.011200	3.354900	-10.101000	26.493763	0.000160	20.861516
1915.513410	-3.003600	3.353900	-10.073000	26.527630	0.000161	20.840557
1916.513512	-2.983900	3.354100	-10.008000	26.507719	0.000162	20.856104
1917.510876	-2.969900	3.354100	-9.960300	26.521228	0.000160	20.859725
1918.511311	-2.976200	3.352700	-9.976600	26.523912	0.000162	20.853414
1919.516263	-2.999600	3.353700	-10.059000	26.429815	0.000162	20.851294
1920.511991	-3.004200	3.352700	-10.071000	26.456010	0.000159	20.848700
1921.513192	-3.005700	3.352100	-10.074000	26.529203	0.000162	20.846880
1922.512530	-3.016800	3.353000	-10.114000	26.533327	0.000160	20.858137
1923.514127	-3.009600	3.351700	-10.087000	26.555821	0.000162	20.858462
1924.514248	-3.000700	3.352100	-10.058000	26.574071	0.000161	20.844091
1925.514701	-3.007100	3.351300	-10.078000	26.503169	0.000158	20.875711
1926.515302	-2.991100	3.349300	-10.017000	26.485043	0.000161	20.865079
1927.513288	-2.998200	3.350300	-10.045000	26.491351	0.000159	20.836807
1928.520537	-3.000500	3.349700	-10.050000	26.469204	0.000160	20.834461
1929.515503	-2.972100	3.350800	-9.957900	26.483480	0.000158	20.864930
1930.515079	-2.983400	3.349200	-9.991100	26.507960	0.000160	20.847338
1931.515583	-2.988000	3.348100	-10.003000	26.512951	0.000159	20.849035
1932.518056	-2.989800	3.347600	-10.007000	26.549223	0.000158	20.852305
1933.516036	-2.990300	3.347700	-10.010000	26.515757	0.000158	20.838580
1934.518136	-2.989500	3.349000	-10.010000	26.523850	0.000158	20.842921
1935.518323	-3.001400	3.347800	-10.047000	26.518810	0.000157	20.830269
1936.521773	-3.019800	3.347200	-10.107000	26.553619	0.000154	20.836809
1937.518699	-3.004900	3.346700	-10.056000	26.604959	0.000155	20.843847
1938.519460	-3.008100	3.347800	-10.069000	26.633656	0.000155	20.835712
1939.521065	-3.007300	3.346200	-10.061000	26.587879	0.000154	20.835213
1940.519572	-2.991700	3.345200	-10.007000	26.556076	0.000155	20.831219
1941.519399	-2.989600	3.344900	-9.999000	26.586091	0.000154	20.822037
1942.519087	-3.025300	3.345400	-10.120000	26.611863	0.000153	20.824710
1943.521533	-2.990300	3.346300	-10.006000	26.646243	0.000153	20.846468
1944.522485	-3.011700	3.344100	-10.070000	26.562756	0.000151	20.823235
1945.525417	-2.986800	3.344800	-9.989700	26.534506	0.000151	20.818546
1946.536116	-2.992600	3.344000	-10.006000	26.491059	0.000150	20.820867
1947.523298	-2.986100	3.343500	-9.982700	26.460275	0.000150	20.822641
1948.523578	-2.987000	3.343200	-9.985600	26.488206	0.000150	20.830801
1949.522851	-3.005900	3.343100	-10.048000	26.532051	0.000151	20.825087
1950.525795	-2.995300	3.343700	-10.015000	26.573908	0.000149	20.829704
1951.523563	-2.990600	3.341700	-9.992300	26.626316	0.000150	20.834023
1952.524764	-2.990100	3.342400	-9.992800	26.622742	0.000148	20.834698
1953.526626	-3.008400	3.342100	-10.053000	26.675817	0.000150	20.821672
1954.524083	-3.006300	3.342200	-10.046000	26.616835	0.000147	20.796518
1955.525290	-3.012500	3.340300	-10.062000	26.542214	0.000146	20.810173
1956.527256	-3.010700	3.340700	-10.057000	26.531116	0.000149	20.827940
1957.523798	-3.019300	3.340700	-10.085000	26.538295	0.000146	20.820457
1958.524713	-3.004100	3.340600	-10.035000	26.588963	0.000149	20.804535
1959.527913	-3.006200	3.340500	-10.042000	26.602370	0.000148	20.796675
1960.525687	-2.981600	3.339300	-9.955300	26.632038	0.000148	20.812749
1961.526457	-3.014200	3.338900	-10.063000	26.674114	0.000149	20.831814
1962.529315	-2.986600	3.339600	-9.973000	26.653191	0.000147	20.824056
1963.526138	-2.991200	3.338500	-9.984700	26.730243	0.000148	20.788671
1964.526202	-2.993200	3.338000	-9.990800	26.716617	0.000145	20.824758
1965.527030	-3.002600	3.338000	-10.021000	26.637806	0.000143	20.817125
1966.527228	-2.996500	3.337300	-9.999200	26.624354	0.000145	20.819723
1967.529112	-3.031500	3.336600	-10.114000	26.618447	0.000144	20.786758
1968.528769	-3.000700	3.337400	-10.013000	26.643470	0.000143	20.817603
1969.529289	-2.983000	3.337800	-9.955600	26.716826	0.000145	20.798416
1970.527925	-2.977100	3.336000	-9.930400	26.746540	0.000143	20.798892
1971.531942	-3.000800	3.336600	-10.012000	26.765306	0.000144	20.808276
1972.530936	-3.015600	3.335400	-10.057000	26.766624	0.000140	20.808179
1973.528957	-2.988500	3.335700	-9.968000	26.760369	0.000140	20.787192
1974.528870	-3.026100	3.334200	-10.089000	26.679430	0.000141	20.811080
1975.533085	-2.983000	3.335500	-9.948100	26.637356	0.000139	20.804345
1976.531246	-3.002200	3.334300	-10.010000	26.591110	0.000138	20.817598
1977.530586	-2.992600	3.335100	-9.979500	26.592154	0.000139	20.796363
1978.529927	-3.011900	3.334300	-10.041000	26.629767	0.000139	20.808095
1979.533431	-3.015300	3.334500	-10.054000	26.664351	0.000139	20.807300
1980.528630	-3.012800	3.333400	-10.042000	26.660182	0.000138	20.799791
1981.532339	-3.021300	3.333000	-10.069000	26.605770	0.000138	20.774963
1982.531633	-3.020500	3.331900	-10.063000	26.596912	0.000137	20.794033
1983.529919	-3.008200	3.333100	-10.026000	26.590708	0.000136	20.789219
1984.530993	-2.999300	3.331700	-9.992000	26.593069	0.000136	20.778316
1985.530674	-2.990200	3.331900	-9.962200	26.694455	0.000136	20.784934
1986.530797	-3.008700	3.331000	-10.021000	26.762346	0.000136	20.780170
1987.530383	-2.995100	3.331200	-9.976000	26.757109	0.000137	20.792923
1988.530781	-3.009700	3.330300	-10.022000	26.736933	0.000138	20.785914
1989.533957	-3.019000	3.329200	-10.049000	26.768062	0.000136	20.779752
1990.530774	-3.013600	3.329100	-10.031000	26.781093	0.000137	20.783372
1991.529950	-2.999400	3.329800	-9.986700	26.718697	0.000137	20.781805
1992.532775	-2.988700	3.330600	-9.952600	26.712445	0.000135	20.797805
1993.538432	-3.009300	3.328500	-10.016000	26.718132	0.000134	20.770331
1994.532022	-3.033700	3.327700	-10.094000	26.671615	0.000135	20.802749
1995.534336	-2.986300	3.329600	-9.942300	26.638206	0.000136	20.763948
1996.532557	-2.996600	3.327800	-9.971200	26.619715	0.000134	20.793723
1997.532022	-2.989400	3.329000	-9.951400	26.690910	0.000132	20.783741
1998.538889	-3.011800	3.325900	-10.016000	26.747606	0.000132	20.773885
1999.531651	-3.002600	3.326400	-9.987500	26.748379	0.000132	20.784145
2000.532360	-2.988400	3.326700	-9.940100	26.724775	0.000132	20.781752
2001.535054	-3.008700	3.325600	-10.005000	26.722642	0.000131	20.763011
2002.531327	-3.008000	3.325000	-10.001000	26.719121	0.000132	20.778437
2003.533669	-3.021600	3.325300	-10.046000	26.746650	0.000132	20.784778
2004.533535	-3.002000	3.323800	-9.976600	26.763433	0.000131	20.761348
2005.538567	-2.996900	3.325000	-9.963600	26.788800	0.000131	20.764093
2006.534193	-3.002300	3.324000	-9.978800	26.827026	0.000131	20.766965
2007.535599	-3.003100	3.325000	-9.984900	26.854006	0.000132	20.793146
2008.536281	-3.001300	3.324600	-9.976900	26.839788	0.000130	20.770788
2009.539711	-3.012600	3.323400	-10.011000	26.826534	0.000130	20.771687
2010.541950	-2.995500	3.323300	-9.953800	26.790202	0.000129	20.775460
2011.537574	-2.999000	3.322600	-9.963300	26.746694	0.000128	20.769649
2012.535304	-2.994200	3.322800	-9.947900	26.746296	0.000128	20.764033
2013.535986	-3.039200	3.322000	-10.094000	26.725002	0.000128	20.780083
2014.536486	-2.989300	3.321700	-9.928700	26.704327	0.000126	20.766883
2015.538822	-2.993000	3.321600	-9.940200	26.753973	0.000128	20.755155
2016.537801	-2.994300	3.322100	-9.946500	26.826724	0.000125	20.768085
2017.537706	-2.981400	3.322200	-9.903800	26.806547	0.000125	20.762022
2018.536596	-2.977900	3.321700	-9.890200	26.810273	0.000125	20.762923
2019.538671	-3.002300	3.319000	-9.963700	26.824744	0.000125	20.752817
2020.538350	-2.989900	3.320100	-9.925800	26.787318	0.000125	20.755016
2021.537658	-2.981000	3.320400	-9.897100	26.739266	0.000123	20.756017
2022.538362	-2.991300	3.319500	-9.928400	26.734029	0.000121	20.776356
2023.538455	-2.996200	3.319200	-9.944200	26.723411	0.000122	20.753827
2024.539902	-2.986400	3.319600	-9.912800	26.754439	0.000122	20.762263
2025.538278	-2.994000	3.319800	-9.939300	26.731952	0.000123	20.755302
2026.539927	-3.034700	3.316700	-10.064000	26.767425	0.000122	20.749714
2027.542314	-2.989600	3.319100	-9.921600	26.831415	0.000120	20.763318
2028.539556	-2.992000	3.318400	-9.928100	26.890587	0.000123	20.763072
2029.539085	-3.014400	3.316400	-9.996200	26.885576	0.000122	20.758033
2030.544209	-3.001300	3.317900	-9.957500	26.872298	0.000123	20.768864
2031.542984	-3.001200	3.316900	-9.953400	26.879571	0.000122	20.751995
2032.541090	-3.025700	3.316400	-10.033000	26.830084	0.000122	20.760083
2033.539995	-2.986600	3.316400	-9.903800	26.829341	0.000121	20.770242
2034.547020	-2.988600	3.316300	-9.909000	26.826660	0.000121	20.750950
2035.539823	-3.008900	3.316200	-9.976900	26.870121	0.000123	20.737276
2036.543179	-2.989200	3.314200	-9.905600	26.932513	0.000121	20.768246
2037.545341	-3.026400	3.314100	-10.029000	26.913155	0.000118	20.757315
2038.541426	-3.007600	3.315000	-9.969100	26.871409	0.000118	20.738098
2039.543802	-3.017400	3.314000	-9.998500	26.854855	0.000119	20.753222
2040.543758	-3.000200	3.313400	-9.939800	26.788116	0.000117	20.727842
2041.544631	-3.000800	3.313300	-9.941300	26.824574	0.000117	20.737946
2042.546224	-3.030100	3.311100	-10.031000	26.819932	0.000116	20.764574
2043.544019	-3.004600	3.311800	-9.948900	26.891560	0.000117	20.745558
2044.540834	-2.999200	3.312300	-9.933700	26.937349	0.000116	20.738021
2045.543452	-2.996400	3.312700	-9.924900	26.923699	0.000116	20.743261
2046.542635	-3.013100	3.312800	-9.981000	26.866244	0.000114	20.743336
2047.540855	-3.027000	3.309700	-10.018000	26.806927	0.000117	20.743912
2048.542298	-3.033200	3.308900	-10.036000	26.824003	0.000113	20.749227
2049.543517	-3.012600	3.310900	-9.972900	26.856193	0.000114	20.743661
2050.539325	-2.992600	3.310500	-9.905900	26.907368	0.000112	20.752444
2051.543809	-3.010100	3.310300	-9.963300	26.937050	0.000113	20.747204
2052.549139	-2.986900	3.310300	-9.885500	26.996017	0.000113	20.743912
2053.544259	-3.007100	3.308700	-9.948700	27.000386	0.000112	20.753048
2054.543492	-3.011000	3.308900	-9.963000	27.050339	0.000114	20.747807
2055.545326	-2.991300	3.307500	-9.892300	27.006242	0.000112	20.738547
2056.540993	-3.020400	3.306600	-9.985700	27.037785	0.000110	20.737552
2057.546751	-3.023000	3.307400	-9.997000	27.041060	0.000108	20.736104
2058.545149	-3.010900	3.308600	-9.960500	27.055802	0.000109	20.728170
2059.542068	-3.006300	3.306500	-9.939300	27.063321	0.000112	20.753750
2060.545846	-2.984800	3.308100	-9.873500	27.045652	0.000109	20.722703
2061.549283	-3.016200	3.305000	-9.967800	27.041087	0.000111	20.732812
2062.544986	-2.980100	3.306400	-9.852400	26.993741	0.000109	20.730243
2063.543844	-2.991700	3.306700	-9.891300	26.937754	0.000109	20.745541
2064.545444	-3.005300	3.306200	-9.935000	26.916290	0.000107	20.747666
2065.546417	-2.986900	3.305900	-9.873100	26.957810	0.000107	20.748639
2066.545415	-3.005400	3.304000	-9.928800	27.009922	0.000108	20.741300
2067.552369	-2.974500	3.304900	-9.829400	26.978633	0.000107	20.743500
2068.555531	-3.003100	3.303300	-9.919000	27.005810	0.000107	20.726258
2069.545164	-3.000500	3.303500	-9.910900	27.057498	0.000107	20.752162
2070.549461	-2.988900	3.303300	-9.872300	27.122313	0.000106	20.731524
2071.548736	-3.023300	3.301900	-9.981400	27.138095	0.000104	20.732698
2072.548535	-2.988700	3.303000	-9.870700	27.146559	0.000106	20.719399
2073.563089	-3.031400	3.302000	-10.010000	27.084972	0.000104	20.743282
2074.548566	-3.004000	3.300500	-9.914400	27.028622	0.000103	20.734975
2075.546605	-3.009800	3.301600	-9.936100	27.005519	0.000104	20.714111
2076.546659	-3.016900	3.300800	-9.957100	26.995370	0.000104	20.719553
2077.550947	-2.982800	3.301300	-9.845000	26.942188	0.000105	20.713962
2078.546862	-3.015100	3.301700	-9.954300	26.932612	0.000104	20.733731
2079.545285	-3.008100	3.301400	-9.929100	26.928618	0.000104	20.710747
2080.550826	-2.999400	3.300800	-9.899600	26.892706	0.000102	20.717786
2081.549385	-3.010000	3.299100	-9.929600	26.868460	0.000101	20.722803
2082.551651	-3.002400	3.298600	-9.902900	26.926087	0.000101	20.698244
2083.550899	-2.998100	3.298800	-9.889600	27.001236	0.000103	20.718339
2084.551632	-3.019400	3.296700	-9.953400	27.032355	0.000101	20.722607
2085.549044	-3.016300	3.298300	-9.948200	26.980539	0.000100	20.722182
2086.549936	-3.018600	3.296400	-9.949600	26.956095	0.000102	20.737905
2087.551338	-2.981500	3.299600	-9.837100	26.991633	0.000101	20.721485
2088.552542	-2.990200	3.297200	-9.858300	27.032453	0.000102	20.735983
2089.551203	-2.990100	3.296600	-9.856500	27.048983	0.000102	20.707560
2090.551976	-2.993300	3.296800	-9.867500	27.073252	9.974981E-5	20.718218
2091.553715	-3.013000	3.296800	-9.932500	27.045285	9.961780E-5	20.718540
2092.554977	-2.994400	3.295000	-9.866000	27.074343	9.945279E-5	20.721212
2093.568800	-3.024000	3.294100	-9.960400	27.061937	0.000100	20.722011
2094.554059	-3.019000	3.294700	-9.946200	27.056353	9.998083E-5	20.723508
2095.553192	-2.999000	3.295400	-9.881300	27.010770	9.770366E-5	20.729350
2096.553602	-3.007100	3.294200	-9.905100	26.985654	9.872674E-5	20.727801
2097.559058	-2.993700	3.295000	-9.862600	27.042234	9.714262E-5	20.733017
2098.554177	-3.019500	3.292700	-9.941400	27.075240	9.677960E-5	20.724958
2099.554306	-3.012300	3.291800	-9.914900	27.110429	9.813270E-5	20.712458
2100.558509	-2.976800	3.293400	-9.802900	27.099284	9.697761E-5	20.709784
2101.565058	-2.973200	3.293100	-9.790300	27.087350	9.602054E-5	20.724809
2102.554941	-2.994100	3.292400	-9.857100	27.057025	9.536049E-5	20.708061
2103.559784	-3.008700	3.290700	-9.900600	27.085713	9.658158E-5	20.718422
2104.555024	-3.003900	3.292300	-9.887700	27.066479	9.872674E-5	20.723260
2105.553977	-3.005800	3.290500	-9.889900	27.101641	9.625156E-5	20.699826
2106.578763	-3.019100	3.291300	-9.936500	27.049560	9.701061E-5	20.707667
2107.557354	-3.003200	3.289600	-9.877700	27.028440	9.608655E-5	20.713454
2108.554705	-3.030200	3.288200	-9.962600	27.087224	9.404040E-5	20.721838
2109.561857	-2.988900	3.289100	-9.830100	27.140522	9.734064E-5	20.720914
2110.561535	-2.989600	3.288800	-9.831300	27.181561	9.483245E-5	20.712403
2111.558710	-3.010500	3.287800	-9.897000	27.138732	9.631756E-5	20.731443
2112.557778	-2.999100	3.288600	-9.861100	27.118436	9.479945E-5	20.714347
2113.559325	-2.995400	3.287800	-9.846800	27.070095	9.572352E-5	20.706033
2114.562841	-2.981100	3.287700	-9.800800	27.037489	9.526149E-5	20.716390
2115.565286	-3.013300	3.288000	-9.906900	27.007955	9.608655E-5	20.738374
2116.560086	-3.028700	3.285900	-9.951400	26.976584	9.288531E-5	20.716308
2117.559638	-2.998900	3.286800	-9.855400	26.990702	9.331434E-5	20.728610
2118.569573	-3.003300	3.285900	-9.867700	27.053907	9.229127E-5	20.720099
2119.559706	-3.011400	3.285900	-9.894400	27.093483	9.173023E-5	20.728133
2120.574423	-3.016100	3.285500	-9.907800	27.050056	9.126819E-5	20.714803
2121.578687	-2.977000	3.287200	-9.784500	27.055412	9.149921E-5	20.710707
2122.562408	-3.022900	3.284700	-9.928500	27.118163	9.222526E-5	20.727825
2123.569935	-3.005500	3.283600	-9.868000	27.109253	9.037713E-5	20.720759
2124.563776	-3.006300	3.284100	-9.872400	27.136073	9.083916E-5	20.700317
2125.561401	-3.010800	3.283500	-9.884900	27.142696	9.212626E-5	20.717410
2126.570712	-3.017300	3.284200	-9.907700	27.084707	9.169723E-5	20.718833
2127.562088	-3.000500	3.283700	-9.851400	27.084406	8.994810E-5	20.726117
2128.566269	-2.989600	3.285200	-9.820600	27.115298	8.882602E-5	20.734900
2129.568739	-3.001000	3.281800	-9.847300	27.101897	8.892502E-5	20.727586
2130.573210	-2.998000	3.282300	-9.839400	27.095914	9.140020E-5	20.732949
2131.563472	-3.022000	3.281600	-9.915900	27.068144	8.994810E-5	20.730151
2132.564951	-2.993600	3.280500	-9.819500	27.083426	9.057514E-5	20.733666
2133.568277	-3.013800	3.280200	-9.884600	27.102035	9.021212E-5	20.739105
2134.568145	-2.987500	3.279100	-9.796000	27.104165	9.001410E-5	20.729393
2135.576918	-2.988200	3.279600	-9.799300	27.079743	9.011311E-5	20.742765
2136.568907	-3.013000	3.280000	-9.881400	27.115720	8.912304E-5	20.729160
2137.567099	-2.992700	3.279400	-9.813700	27.164275	9.004711E-5	20.710190
2138.576838	-3.005000	3.277700	-9.848500	27.164520	8.661485E-5	20.747422
2139.574743	-3.004600	3.279400	-9.853100	27.139358	8.664786E-5	20.740133
2140.567332	-3.010500	3.278200	-9.868500	27.139280	8.638384E-5	20.736261
2141.575149	-2.985800	3.277600	-9.785100	27.130912	8.628483E-5	20.727845
2142.569599	-3.007400	3.276100	-9.851500	27.179692	8.750592E-5	20.717636
2143.568603	-3.006000	3.278600	-9.854000	27.227253	8.602081E-5	20.743664
2144.572077	-3.021200	3.276600	-9.899000	27.159166	8.301759E-5	20.724967
2145.570809	-2.990700	3.277500	-9.800000	27.136831	8.433769E-5	20.737117
2146.568089	-3.001100	3.275000	-9.828000	27.208488	8.308360E-5	20.729531
2147.574664	-3.022400	3.275000	-9.896800	27.173376	8.338062E-5	20.743053
2148.574245	-2.997200	3.274900	-9.814000	27.247409	8.585580E-5	20.735015
2149.567252	-2.999000	3.273700	-9.816800	27.206519	8.229154E-5	20.744620
2150.570909	-3.018100	3.273000	-9.876600	27.181529	8.344662E-5	20.721381
2151.572023	-2.994500	3.275500	-9.807400	27.138851	8.298459E-5	20.730139
2152.574466	-3.006400	3.272400	-9.837300	27.088774	8.219253E-5	20.733829
2153.569121	-3.022000	3.272100	-9.887300	27.166412	8.097144E-5	20.766395
2154.577567	-2.973700	3.275000	-9.738000	27.183630	7.991536E-5	20.760954
2155.587373	-2.987000	3.272200	-9.773100	27.208067	8.097144E-5	20.736220
2156.571990	-2.996800	3.272300	-9.805500	27.228629	7.912331E-5	20.748842
2157.577454	-3.007900	3.271100	-9.837300	27.200172	8.044340E-5	20.750564
2158.592672	-2.996800	3.270900	-9.801300	27.227064	8.126846E-5	20.742052
2159.572152	-2.999400	3.269700	-9.806000	27.258374	7.879328E-5	20.758846
2160.574544	-2.997300	3.269200	-9.797800	27.283949	7.942033E-5	20.762762
2161.596273	-2.976200	3.270200	-9.732300	27.290970	7.777021E-5	20.757970
2162.572189	-3.003000	3.268800	-9.816000	27.325104	8.024539E-5	20.753425
2163.574445	-2.991600	3.269700	-9.780600	27.335720	7.730817E-5	20.758415
2164.575106	-3.012400	3.267700	-9.841800	27.378586	7.833125E-5	20.756017
2165.575564	-2.990400	3.269400	-9.775800	27.418747	7.961834E-5	20.777454
2166.574527	-2.972500	3.268600	-9.714700	27.373544	7.770420E-5	20.766119
2167.574986	-3.011200	3.268100	-9.839900	27.302072	7.915631E-5	20.764870
2168.575446	-3.000100	3.268500	-9.805000	27.276564	8.004737E-5	20.736840
2169.575438	-2.978900	3.267700	-9.732000	27.220937	7.829825E-5	20.740631
2170.578256	-2.983800	3.267000	-9.746900	27.273037	7.493200E-5	20.770752
2171.576427	-2.992900	3.266800	-9.775300	27.284644	7.433796E-5	20.765358
2172.575195	-2.969200	3.266100	-9.696900	27.255022	7.645011E-5	20.739827
2173.580191	-3.011700	3.264400	-9.830800	27.293547	7.744018E-5	20.766252
2174.576533	-2.978200	3.264400	-9.720100	27.249803	7.579006E-5	20.763976
2175.587262	-3.001200	3.264600	-9.796700	27.316020	7.532803E-5	20.762779
2176.577727	-2.996100	3.264100	-9.777800	27.283962	7.473399E-5	20.752343
2177.577677	-2.975200	3.264400	-9.710700	27.219281	7.549304E-5	20.756509
2178.577529	-3.005500	3.263800	-9.809000	27.229847	7.744018E-5	20.765714
2179.587325	-3.017400	3.262200	-9.842800	27.331388	7.513001E-5	20.749789
2180.582786	-3.052400	3.262500	-9.957200	27.383108	7.443696E-5	20.775740
2181.579272	-3.015200	3.260500	-9.829900	27.410270	7.212679E-5	20.769874
2182.579581	-2.986700	3.262300	-9.742800	27.415872	7.334788E-5	20.775509
2183.583408	-3.030900	3.260400	-9.881100	27.433335	7.159876E-5	20.755619
2184.581909	-2.997100	3.259700	-9.768600	27.438441	7.110372E-5	20.773559
2185.592817	-2.987200	3.259900	-9.736800	27.469816	7.074069E-5	20.768140
2186.584795	-2.996300	3.259700	-9.765400	27.481991	7.126873E-5	20.773277
2187.583995	-3.011200	3.258700	-9.812400	27.462419	7.067469E-5	20.788199
2188.587593	-2.986100	3.260200	-9.735000	27.415311	6.816650E-5	20.777790
2189.584529	-2.996700	3.258600	-9.763900	27.410793	6.621936E-5	20.770874
2190.582309	-3.003700	3.258700	-9.787400	27.488060	6.905757E-5	20.781753
2191.583854	-3.014200	3.257900	-9.818900	27.564753	6.885956E-5	20.777836
2192.587083	-3.000000	3.257700	-9.772200	27.610212	7.011365E-5	20.789437
2193.598589	-3.018400	3.256700	-9.829000	27.617577	6.730844E-5	20.775036
2194.583411	-3.002700	3.257500	-9.779500	27.604802	6.796849E-5	20.762182
2195.590294	-2.999900	3.258800	-9.775600	27.564571	6.631837E-5	20.783817
2196.586272	-2.999200	3.257100	-9.767700	27.548026	6.598835E-5	20.789455
2197.588821	-2.988700	3.255600	-9.729000	27.591877	6.565832E-5	20.788532
2198.584189	-3.009200	3.255100	-9.794900	27.592222	6.760546E-5	20.787457
2199.586291	-2.988400	3.255500	-9.727400	27.581011	6.691241E-5	20.799410
2200.597320	-3.001500	3.253600	-9.764800	27.483731	6.678040E-5	20.807270
2201.590774	-2.983000	3.255100	-9.709400	27.429085	6.674740E-5	20.788803
2202.588213	-2.991200	3.253400	-9.729600	27.537057	6.483326E-5	20.780315
2203.586156	-2.991500	3.252800	-9.730200	27.548688	6.522929E-5	20.798182
2204.587379	-3.005100	3.251400	-9.769900	27.502800	6.519629E-5	20.789946
2205.590003	-2.989800	3.253000	-9.724400	27.485560	6.602135E-5	20.794412
2206.588582	-3.004000	3.254000	-9.774000	27.397846	6.328215E-5	20.778238
2207.587422	-2.993400	3.252400	-9.734500	27.401368	6.387619E-5	20.793161
2208.588725	-3.017500	3.250500	-9.807500	27.385094	6.420621E-5	20.791488
2209.586046	-2.999200	3.249600	-9.744900	27.397492	6.381019E-5	20.795426
2210.586813	-3.005000	3.251700	-9.770900	27.440880	6.282011E-5	20.797824
2211.588747	-2.995100	3.251300	-9.737300	27.454023	6.513028E-5	20.788287
2212.586864	-3.028500	3.249200	-9.839300	27.428844	6.549331E-5	20.797095
2213.588105	-3.009800	3.248600	-9.776600	27.457493	6.466825E-5	20.789881
2214.589077	-3.009600	3.248300	-9.774800	27.542915	6.542730E-5	20.790003
2215.598019	-2.978600	3.249500	-9.677900	27.578033	6.463525E-5	20.803052
2216.593483	-2.981100	3.247800	-9.681600	27.647623	6.324914E-5	20.790096
2217.590027	-3.003400	3.246800	-9.750500	27.641100	6.404120E-5	20.793016
2218.598304	-2.981500	3.250100	-9.688500	27.625545	6.423922E-5	20.796805
2219.588682	-2.976100	3.246400	-9.660900	27.632760	6.361217E-5	20.796952
2220.588912	-3.005700	3.245600	-9.754300	27.627971	6.341416E-5	20.804936
2221.603808	-3.011200	3.245100	-9.771300	27.605550	6.176404E-5	20.793281
2222.589150	-3.040200	3.244400	-9.862300	27.612316	6.423922E-5	20.814787
2223.589013	-3.002000	3.243800	-9.737600	27.678309	6.364517E-5	20.813862
2224.593523	-3.004900	3.244700	-9.749200	27.653829	6.196205E-5	20.817678
2225.590539	-3.012000	3.243600	-9.768700	27.654370	6.291912E-5	20.797360
2226.593517	-3.001200	3.245600	-9.738700	27.676910	6.146701E-5	20.823359
2227.593939	-3.014700	3.241900	-9.772000	27.682638	6.090597E-5	20.815848
2228.589234	-3.021700	3.241700	-9.794500	27.735679	6.255609E-5	20.814220
2229.589494	-2.989000	3.243300	-9.693300	27.728163	6.262210E-5	20.823252
2230.592286	-3.003000	3.241300	-9.733200	27.661920	6.097198E-5	20.835302
2231.590438	-3.003300	3.241900	-9.735400	27.678062	6.315014E-5	20.803183
2232.592711	-3.025400	3.241900	-9.806400	27.637287	6.212706E-5	20.827586
2233.596466	-2.991800	3.240400	-9.694000	27.577462	6.067496E-5	20.807693
2234.594357	-2.983100	3.240600	-9.666100	27.606899	5.885982E-5	20.824509
2235.593274	-3.010000	3.239400	-9.749400	27.662176	5.988290E-5	20.818017
2236.598716	-2.996400	3.238400	-9.703100	27.646229	6.057595E-5	20.824255
2237.595799	-2.997300	3.239400	-9.708700	27.626533	5.714370E-5	20.824351
2238.594039	-2.991800	3.238800	-9.689100	27.552768	5.849680E-5	20.825521
2239.598881	-3.014100	3.237800	-9.758600	27.552666	5.932186E-5	20.818305
2240.594781	-2.995700	3.237800	-9.698600	27.577589	5.915684E-5	20.824415
2241.596411	-2.998600	3.236000	-9.703600	27.589393	5.892583E-5	20.821119
2242.597869	-2.989800	3.236800	-9.676500	27.567885	5.796876E-5	20.822238
2243.596696	-3.000400	3.235500	-9.706700	27.622968	5.532856E-5	20.834988
2244.597775	-3.010900	3.235200	-9.740000	27.633852	5.866181E-5	20.819861
2245.602377	-3.003500	3.235700	-9.717700	27.700611	5.810077E-5	20.829191
2246.601212	-3.010800	3.234000	-9.736400	27.718714	5.720970E-5	20.855942
2247.598063	-3.003900	3.235000	-9.717100	27.681982	5.641764E-5	20.849325
2248.598056	-3.011200	3.233700	-9.736900	27.689690	5.575760E-5	20.814883
2249.603750	-3.012700	3.235500	-9.745900	27.691845	5.480053E-5	20.827008
2250.598195	-3.007100	3.232100	-9.718600	27.660320	5.770474E-5	20.833218
2251.598121	-3.033300	3.233400	-9.806600	27.680209	5.417348E-5	20.835214
2252.600820	-3.020500	3.232100	-9.761600	27.694739	5.532856E-5	20.865955
2253.599261	-3.012000	3.231800	-9.733100	27.640398	5.400847E-5	20.843518
2254.602530	-3.014800	3.231900	-9.742200	27.625390	5.361244E-5	20.835054
2255.599711	-3.017400	3.232900	-9.753700	27.644708	5.371145E-5	20.848802
2256.598442	-2.995900	3.233700	-9.687200	27.638729	5.430549E-5	20.837570
2257.599090	-3.011200	3.230000	-9.725400	27.671316	5.328241E-5	20.858033
2258.600096	-3.011100	3.229000	-9.722200	27.726366	5.199532E-5	20.865539
2259.600504	-3.004300	3.230300	-9.703700	27.703599	5.186331E-5	20.849267
2260.599466	-3.004900	3.228900	-9.701500	27.722568	5.110425E-5	20.852709
2261.611287	-2.995400	3.228400	-9.669500	27.661807	5.212733E-5	20.861266
2262.599649	-3.007200	3.229400	-9.710600	27.697716	5.268837E-5	20.833390
2263.600433	-3.018600	3.227200	-9.740900	27.670533	5.285338E-5	20.851555
2264.599220	-3.001900	3.229700	-9.694700	27.620136	5.206132E-5	20.852526
2265.599881	-3.017500	3.227600	-9.737500	27.667231	5.387646E-5	20.842068
2266.600272	-3.023300	3.225500	-9.751200	27.695773	5.143428E-5	20.847082
2267.600980	-3.029300	3.225100	-9.768700	27.646618	5.295239E-5	20.858310
2268.603620	-3.012100	3.225900	-9.715100	27.609089	5.311740E-5	20.850420
2269.601425	-2.993300	3.226000	-9.655400	27.650034	5.209433E-5	20.868860
2270.601453	-3.005100	3.225600	-9.691700	27.649039	5.080723E-5	20.859798
2271.610112	-2.960700	3.225800	-9.550400	27.627014	5.291939E-5	20.849964
2272.601226	-3.007400	3.224200	-9.696000	27.719119	5.110425E-5	20.866781
2273.603972	-3.013000	3.222900	-9.709700	27.739997	5.351343E-5	20.856971
2274.604314	-3.021700	3.221400	-9.732900	27.795617	5.493254E-5	20.855572
2275.605205	-2.998900	3.223800	-9.666900	27.855969	5.272137E-5	20.860360
2276.607821	-3.005200	3.222100	-9.681200	27.838087	5.222634E-5	20.880769
2277.607030	-2.978400	3.221500	-9.593900	27.809867	5.282038E-5	20.849050
2278.605187	-2.994900	3.221500	-9.647300	27.824518	4.975116E-5	20.880389
2279.608286	-2.998000	3.221400	-9.656800	27.814797	5.202832E-5	20.858279
2280.608487	-3.014400	3.221000	-9.707900	27.813877	5.047721E-5	20.875843
2281.605446	-2.979600	3.220700	-9.595700	27.844943	5.212733E-5	20.871074
2282.606485	-2.980000	3.220600	-9.596300	27.871397	4.928912E-5	20.889636
2283.604502	-2.983200	3.218600	-9.600100	27.858947	5.054321E-5	20.865254
2284.608542	-3.029800	3.218500	-9.751300	27.841115	4.965215E-5	20.869118
2285.606167	-2.977500	3.218300	-9.581700	27.881233	5.216033E-5	20.883889
2286.606823	-2.988200	3.218000	-9.613700	27.958489	5.159929E-5	20.889575
2287.612162	-2.995600	3.217600	-9.638100	28.000238	4.985016E-5	20.890820
2288.607327	-2.968000	3.216500	-9.545200	28.016104	4.945413E-5	20.859852
2289.611000	-2.988300	3.216400	-9.610300	27.985433	4.872808E-5	20.877815
2290.611036	-3.037400	3.214600	-9.762700	27.924438	4.892610E-5	20.877588
2291.610915	-2.982800	3.215400	-9.590200	27.934180	5.093924E-5	20.881703
2292.615173	-3.001700	3.215400	-9.651000	27.967402	4.810103E-5	20.886693
2293.609488	-2.988400	3.213800	-9.603200	27.882529	4.671493E-5	20.888512
2294.610260	-2.989200	3.213400	-9.605100	27.886543	4.813404E-5	20.897293
2295.619104	-2.996300	3.213400	-9.627600	27.855522	4.886009E-5	20.876505
2296.611062	-3.014800	3.212100	-9.682900	27.846197	4.661593E-5	20.897938
2297.610221	-3.011400	3.211700	-9.670900	27.826953	4.542784E-5	20.910812
2298.609232	-2.993200	3.210400	-9.608400	27.847458	4.539484E-5	20.887354
2299.620402	-3.008500	3.211800	-9.661900	27.881652	4.668193E-5	20.879569
2300.613778	-3.000000	3.211800	-9.634800	27.866622	4.678094E-5	20.889572
2301.613465	-2.995700	3.209500	-9.613900	27.837461	4.618689E-5	20.897680
2302.611921	-2.990500	3.209900	-9.598900	27.870438	4.618689E-5	20.892464
2303.613934	-3.020900	3.207700	-9.689800	27.847127	4.480079E-5	20.900771
2304.613853	-3.001800	3.207900	-9.628700	27.814891	4.582387E-5	20.896778
2305.617342	-3.005700	3.209200	-9.645100	27.790166	4.381072E-5	20.895602
2306.613926	-2.987400	3.208300	-9.584200	27.834006	4.443777E-5	20.906056
2307.619644	-2.985700	3.207000	-9.574600	27.898994	4.453677E-5	20.903185
2308.613901	-2.990400	3.207800	-9.591700	27.915108	4.192958E-5	20.899490
2309.612113	-3.000400	3.208700	-9.627100	27.951058	4.153355E-5	20.919551
2310.623772	-3.001700	3.206400	-9.623400	27.966800	4.371171E-5	20.906947
2311.612661	-2.992000	3.207800	-9.596700	27.925096	3.948740E-5	20.924713
2312.617325	-2.998600	3.205100	-9.609900	27.912474	4.100551E-5	20.901580
2313.618261	-2.991400	3.204800	-9.585900	27.872700	3.740825E-5	20.908964
2314.614630	-2.965600	3.204800	-9.503100	27.808551	3.948740E-5	20.895613
2315.614746	-2.988200	3.204200	-9.573700	27.822957	3.744125E-5	20.891145
2316.614646	-3.002400	3.202800	-9.615600	27.847578	3.777128E-5	20.901699
2317.613715	-2.974500	3.203200	-9.526100	27.837237	3.641818E-5	20.905041
2318.629103	-2.991000	3.201600	-9.575400	27.860271	3.724324E-5	20.904042
2319.614086	-2.992600	3.201700	-9.580300	27.790271	3.767227E-5	20.926051
2320.615148	-2.972400	3.203300	-9.521000	27.787120	3.546111E-5	20.908657
2321.614692	-2.977500	3.200500	-9.528800	27.794461	3.721024E-5	20.936430
2322.618165	-2.978300	3.202200	-9.536200	27.821339	3.668220E-5	20.904689
2323.620351	-2.999400	3.200100	-9.597300	27.919455	3.631917E-5	20.912399
2324.619281	-2.998000	3.199600	-9.591600	27.974323	3.602215E-5	20.907407
2325.619351	-3.004300	3.197700	-9.605900	27.940206	3.641818E-5	20.916689
2326.614525	-2.993000	3.198400	-9.571900	27.884394	3.559312E-5	20.912198
2327.627792	-2.979300	3.198400	-9.528200	27.942339	3.308493E-5	20.918362
2328.630139	-2.997200	3.196600	-9.579200	27.957860	3.582413E-5	20.942990
2329.616610	-3.011600	3.195800	-9.624000	27.924958	3.625317E-5	20.925997
2330.617243	-3.005300	3.196000	-9.603900	27.927734	3.430602E-5	20.915990
2331.618232	-3.015800	3.196800	-9.639400	27.931229	3.612116E-5	20.926619
2332.620048	-3.016300	3.195600	-9.638500	27.931676	3.589014E-5	20.915216
2333.618898	-3.004100	3.194600	-9.596900	27.992543	3.638517E-5	20.928590
2334.619190	-3.010800	3.193600	-9.614300	28.082140	3.470205E-5	20.940542
2335.619782	-2.963700	3.194800	-9.467600	28.116622	3.565912E-5	20.946331
2336.620997	-2.984000	3.192800	-9.525600	28.093220	3.589014E-5	20.909974
2337.622048	-3.007200	3.192800	-9.600700	28.108416	3.691321E-5	20.940441
2338.621125	-2.977400	3.192500	-9.503800	28.061560	3.556011E-5	20.926940
2339.621138	-3.025200	3.190200	-9.650000	27.998020	3.625317E-5	20.928887
2340.621024	-3.014000	3.191500	-9.618100	28.009100	3.549411E-5	20.925342
2341.622242	-2.993500	3.190900	-9.551600	28.024345	3.595614E-5	20.937841
2342.624545	-3.009600	3.189400	-9.597900	28.102312	3.671520E-5	20.928608
2343.623374	-3.024200	3.188400	-9.641500	28.119567	3.849733E-5	20.924167
2344.622641	-3.018500	3.187200	-9.620100	28.134934	3.661619E-5	20.933946
2345.625565	-3.009500	3.187900	-9.593000	28.134313	3.641818E-5	20.946596
2346.625235	-3.017700	3.187200	-9.617100	28.095689	3.668220E-5	20.942328
2347.622869	-2.990200	3.186400	-9.526100	27.993820	3.562612E-5	20.937935
2348.625721	-3.006000	3.185200	-9.574400	27.999572	3.542810E-5	20.951309
2349.625677	-3.011000	3.184800	-9.589300	27.955786	3.641818E-5	20.940903
2350.623008	-2.995200	3.185400	-9.540200	27.999123	3.595614E-5	20.951332
2351.627503	-2.987200	3.185200	-9.513800	28.048753	3.697922E-5	20.928747
2352.629789	-3.005900	3.184500	-9.571100	28.043770	3.608815E-5	20.935583
2353.624187	-2.988500	3.182400	-9.510200	28.017143	3.648418E-5	20.971838
2354.627954	-3.014300	3.181800	-9.590000	28.007520	3.443803E-5	20.940345
2355.624799	-2.988000	3.182500	-9.508500	28.038560	3.496607E-5	20.965422
2356.623679	-3.007300	3.180900	-9.565000	28.064516	3.618716E-5	20.948405
2357.627176	-3.007000	3.181200	-9.565300	28.086701	3.460304E-5	20.946081
2358.624732	-3.013400	3.180400	-9.582600	28.080950	3.565912E-5	20.942189
2359.623668	-2.984700	3.181100	-9.493500	28.016117	3.645118E-5	20.952791
2360.633715	-2.997300	3.179800	-9.529700	28.051889	3.546111E-5	20.937118
2361.630007	-3.003500	3.177500	-9.542600	28.099413	3.658319E-5	20.952713
2362.627193	-2.986300	3.178000	-9.489600	28.132579	3.404200E-5	20.966658
2363.630692	-3.019800	3.176800	-9.592200	28.141279	3.457004E-5	20.962142
2364.630906	-2.998100	3.176300	-9.522300	28.190435	3.480106E-5	20.941930
2365.628823	-3.024700	3.174800	-9.600600	28.246823	3.324994E-5	20.947491
2366.627653	-3.009800	3.176300	-9.559300	28.175286	3.361297E-5	20.975986
2367.639621	-3.011600	3.174800	-9.559900	28.169657	3.447103E-5	20.969372
2368.635011	-2.974400	3.175900	-9.445500	28.232245	3.400900E-5	20.945617
2369.627687	-2.994700	3.173400	-9.502900	28.254428	3.331595E-5	20.963681
2370.629375	-2.996900	3.172500	-9.506900	28.298669	3.394300E-5	20.964602
2371.632234	-2.990000	3.171600	-9.482300	28.315323	3.321694E-5	20.991323
2372.629043	-3.012200	3.171500	-9.552400	28.336860	3.288692E-5	20.961330
2373.631162	-3.007100	3.169900	-9.530200	28.279456	3.143481E-5	20.965172
2374.631743	-3.017700	3.169400	-9.563700	28.231692	2.971869E-5	20.973505
2375.629982	-3.014700	3.168100	-9.550100	28.250850	3.301893E-5	20.961501
2376.637967	-3.000500	3.169100	-9.507800	28.262845	3.407501E-5	20.966465
2377.629292	-2.998100	3.169100	-9.500000	28.276079	3.146781E-5	20.983106
2378.641729	-2.995200	3.168400	-9.489600	28.234908	3.044474E-5	20.977217
2379.630971	-2.955200	3.168300	-9.362000	28.223181	3.064275E-5	20.963042
2380.631677	-2.995200	3.167500	-9.486400	28.272977	3.087377E-5	20.963390
2381.635154	-2.991200	3.166600	-9.470300	28.189691	3.084077E-5	20.976738
2382.632026	-2.993600	3.165000	-9.474100	28.195415	3.156682E-5	20.974914
2383.631935	-2.963300	3.164900	-9.378100	28.161752	2.862961E-5	20.971370
2384.636385	-3.003600	3.163500	-9.501600	28.169533	2.945467E-5	20.945069
2385.631683	-3.019300	3.162000	-9.546700	28.215539	2.955367E-5	20.971468
2386.634925	-3.012000	3.161800	-9.522600	28.230285	2.895963E-5	20.942221
2387.642582	-3.006800	3.161400	-9.504000	28.177758	2.872861E-5	20.982741
2388.634843	-3.017600	3.161300	-9.538800	28.178675	2.882762E-5	20.972287
2389.638559	-3.003800	3.160500	-9.491600	28.251127	2.836559E-5	20.949928
2390.642733	-2.978500	3.160900	-9.414500	28.319187	2.816757E-5	20.947805
2391.636940	-3.023000	3.157800	-9.544800	28.379065	2.843159E-5	20.961153
2392.637722	-2.970800	3.158700	-9.383300	28.348480	2.671546E-5	20.950273
2393.642148	-2.971400	3.158500	-9.384100	28.289961	2.899263E-5	20.951569
2394.640429	-2.999500	3.156300	-9.466700	28.248839	2.882762E-5	20.937668
2395.640138	-3.008000	3.156000	-9.492600	28.176929	2.777154E-5	20.942558
2396.642876	-3.006500	3.155300	-9.485600	28.183026	2.721050E-5	20.968132
2397.642258	-2.984800	3.155900	-9.418700	28.203500	2.661646E-5	20.958401
2398.641072	-3.018800	3.154100	-9.520100	28.151840	2.433929E-5	20.950490
2399.641520	-2.966200	3.155000	-9.357200	28.223353	2.559338E-5	20.965111
2400.638299	-2.979300	3.154700	-9.398200	28.226153	2.400927E-5	20.959396
2401.640769	-2.999000	3.151500	-9.451000	28.268562	2.453730E-5	20.949464
2402.642134	-3.005400	3.150800	-9.468600	28.251730	2.443830E-5	20.970921
2403.641585	-2.977100	3.149800	-9.376500	28.293544	2.516435E-5	20.947116
2404.642974	-3.003300	3.149100	-9.456600	28.381206	2.301919E-5	20.959990
2405.644989	-3.005500	3.150000	-9.466500	28.340659	2.249115E-5	20.944295
2406.645937	-2.987700	3.147900	-9.404000	28.278918	2.457031E-5	20.955148
2407.644234	-2.987200	3.146900	-9.399400	28.302538	2.414128E-5	20.941473
2408.649542	-2.976600	3.148100	-9.369600	28.307122	2.499934E-5	20.956045
2409.644002	-2.986800	3.145700	-9.394300	28.362911	2.635244E-5	20.951527
2410.644874	-2.969700	3.146200	-9.341500	28.397781	2.443830E-5	20.927372
2411.649564	-2.985500	3.144400	-9.385900	28.398945	2.513135E-5	20.941345
2412.645870	-3.001300	3.143900	-9.434900	28.324169	2.562638E-5	20.952347
2413.646466	-2.985200	3.141400	-9.376900	28.334752	2.754053E-5	20.935029
2414.649199	-2.965200	3.143500	-9.319600	28.274126	2.229314E-5	20.954591
2415.648004	-2.976100	3.142100	-9.349300	28.284931	2.278818E-5	20.951720
2416.649105	-2.991100	3.141300	-9.395400	28.272214	2.480132E-5	20.936073
2417.649665	-3.011400	3.139000	-9.452000	28.261309	2.397626E-5	20.939791
2418.646015	-2.998900	3.139000	-9.412400	28.290357	2.334922E-5	20.925418
2419.652714	-2.980300	3.138000	-9.351200	28.269609	2.222714E-5	20.933925
2420.649274	-2.996400	3.137000	-9.398400	28.184663	2.146808E-5	20.937542
2421.647482	-3.013100	3.135400	-9.446300	28.136225	2.070902E-5	20.931927
2422.649323	-2.978700	3.134900	-9.337200	28.237508	2.084103E-5	20.931951
2423.651501	-2.984500	3.135000	-9.355200	28.294913	1.892689E-5	20.925738
2424.652026	-3.002200	3.135500	-9.412100	28.325967	2.008198E-5	20.936141
2425.650976	-3.008900	3.132100	-9.423400	28.302990	2.077503E-5	20.920595
2426.654610	-2.993000	3.133100	-9.376300	28.316325	1.912491E-5	20.921692
2427.649665	-3.008400	3.131400	-9.419700	28.370899	1.876188E-5	20.924012
2428.653384	-3.026700	3.130600	-9.473800	28.396352	1.813483E-5	20.914555
2429.653991	-3.000700	3.130500	-9.392500	28.391369	1.820084E-5	20.948888
2430.650819	-2.991400	3.129100	-9.359700	28.427974	1.876188E-5	20.942126
2431.654811	-3.006700	3.128100	-9.404400	28.441975	1.836585E-5	20.924459
2432.657274	-3.000600	3.127800	-9.384600	28.469929	1.671573E-5	20.940280
2433.653534	-3.001000	3.126300	-9.380700	28.445221	1.737578E-5	20.942899
2434.655040	-3.002500	3.125800	-9.384500	28.503456	1.400953E-5	20.906242
2435.655769	-2.997900	3.125000	-9.367800	28.485888	1.872888E-5	20.907990
2436.655931	-3.025500	3.122400	-9.446100	28.432830	1.622069E-5	20.919044
2437.662213	-3.024600	3.121200	-9.439200	28.408294	1.539563E-5	20.917097
2438.657666	-3.030600	3.121100	-9.458200	28.402495	1.490060E-5	20.932593
2439.656854	-3.002900	3.122400	-9.374900	28.372111	1.549464E-5	20.915276
2440.658226	-2.987500	3.121000	-9.323400	28.390798	1.516462E-5	20.919868
2441.661131	-3.013100	3.118500	-9.395700	28.461007	1.457057E-5	20.918495
2442.655947	-2.999800	3.117400	-9.350500	28.392137	1.572566E-5	20.916474
2443.659166	-3.003300	3.116800	-9.359700	28.350030	1.536263E-5	20.926232
2444.656232	-2.972700	3.117900	-9.267500	28.370328	1.430655E-5	20.902577
2445.658490	-2.966800	3.116500	-9.245300	28.396154	1.417454E-5	20.914830
2446.657862	-2.983400	3.115100	-9.292100	28.400937	1.483459E-5	20.930076
2447.659397	-2.991200	3.115200	-9.317600	28.471171	1.754079E-5	20.913558
2448.659170	-2.975200	3.112800	-9.260400	28.539864	1.311847E-5	20.927258
2449.662478	-2.978500	3.112400	-9.269000	28.561248	1.334948E-5	20.919397
2450.660655	-3.000400	3.110300	-9.330800	28.625277	1.430655E-5	20.894745
2451.658766	-2.996400	3.110200	-9.318200	28.585731	1.453757E-5	20.902330
2452.661289	-2.995600	3.109600	-9.314600	28.534263	1.483459E-5	20.904077
2453.662459	-2.995300	3.108400	-9.309900	28.510202	1.433956E-5	20.919198
2454.659328	-3.007100	3.106600	-9.341400	28.487033	1.351449E-5	20.908195
2455.664930	-2.985100	3.106900	-9.273700	28.497093	1.156735E-5	20.905999
2456.663584	-3.018700	3.104900	-9.371700	28.536024	1.410854E-5	20.899212
2457.661017	-3.004100	3.104300	-9.325000	28.477119	1.301946E-5	20.917651
2458.663904	-2.990100	3.103300	-9.278100	28.456749	1.262343E-5	20.893347
2459.665246	-2.975400	3.103000	-9.232300	28.490329	1.252442E-5	20.905825
2460.661973	-2.981400	3.102000	-9.247000	28.471841	1.407554E-5	20.896691
2461.663786	-2.987600	3.099400	-9.259400	28.463862	1.443856E-5	20.899087
2462.666658	-2.989600	3.099900	-9.266600	28.460071	1.311847E-5	20.900485
2463.662972	-2.991700	3.098700	-9.268900	28.491542	1.384452E-5	20.891401
2464.665936	-2.987600	3.097200	-9.252100	28.510921	1.351449E-5	20.897639
2465.666567	-2.998200	3.096700	-9.283900	28.507352	1.216140E-5	20.890727
2466.671741	-3.004100	3.095400	-9.298100	28.486735	1.206239E-5	20.902206
2467.664398	-2.977500	3.094100	-9.211400	28.492608	1.166636E-5	20.889629
2468.665861	-2.983700	3.093200	-9.228500	28.528961	1.384452E-5	20.877402
2469.663826	-3.006300	3.092800	-9.297000	28.563132	1.166636E-5	20.895693
2470.669230	-2.983100	3.091600	-9.222200	28.584642	1.196338E-5	20.887010
2471.666363	-2.995600	3.089400	-9.253900	28.590390	1.107231E-5	20.896592
2472.667302	-3.004100	3.088300	-9.277000	28.642893	1.051127E-5	20.899685
2473.674516	-2.963500	3.090500	-9.157900	28.648766	1.262343E-5	20.905125
2474.670337	-3.011300	3.087600	-9.296600	28.625501	1.232641E-5	20.912513
2475.669861	-3.005700	3.085400	-9.273300	28.594725	1.318447E-5	20.881993
2476.670825	-2.998600	3.083900	-9.246500	28.631372	1.163336E-5	20.884289
2477.671156	-2.998100	3.084700	-9.247700	28.646735	1.143534E-5	20.880322
2478.667642	-2.972700	3.082900	-9.163000	28.603250	9.521201E-6	20.897216
2479.671271	-2.985900	3.082600	-9.202500	28.672998	1.087430E-5	20.879274
2480.671718	-3.013700	3.079700	-9.280500	28.674313	1.014825E-5	20.878701
2481.668540	-2.990000	3.079700	-9.207600	28.694480	1.242541E-5	20.883841
2482.672001	-3.007700	3.078100	-9.257300	28.633777	9.653210E-6	20.905202
2483.675178	-3.024700	3.076400	-9.304300	28.597254	1.090730E-5	20.878851
2484.671544	-2.963500	3.077800	-9.120000	28.631720	1.001624E-5	20.902182
2485.673202	-3.001700	3.075100	-9.230000	28.642673	1.074229E-5	20.889506
2486.673731	-3.018000	3.072200	-9.270800	28.588880	8.762145E-6	20.898390
2487.675928	-3.008900	3.073200	-9.246700	28.630309	8.927157E-6	20.872314
2488.674180	-2.989400	3.072900	-9.185700	28.716210	1.001624E-5	20.890081
2489.685205	-2.983000	3.071300	-9.160900	28.701072	9.719215E-6	20.885265
2490.673351	-2.986600	3.070800	-9.170100	28.697331	8.234106E-6	20.869170
2491.676939	-2.978600	3.068600	-9.138600	28.685661	1.001624E-5	20.890131
2492.675522	-3.016400	3.066400	-9.248500	28.731027	8.861152E-6	20.868497
2493.675962	-3.001500	3.066200	-9.201900	28.707341	7.871079E-6	20.879252
2494.675805	-3.006300	3.065400	-9.214500	28.724116	9.323186E-6	20.864381
2495.676220	-3.000300	3.062700	-9.187500	28.694286	6.220958E-6	20.877482
2496.674880	-3.010900	3.063700	-9.224200	28.701273	6.781999E-6	20.872192
2497.675737	-3.012800	3.060500	-9.219700	28.764995	9.455196E-6	20.894176
2498.675315	-2.978100	3.061200	-9.115700	28.679521	6.187956E-6	20.872093
2499.675588	-2.991500	3.058500	-9.148700	28.686706	7.904082E-6	20.873167
2500.675456	-2.999300	3.058100	-9.170400	28.708263	9.818223E-6	20.879706
2501.677106	-2.997500	3.056300	-9.160400	28.680217	8.267109E-6	20.882277
2502.675594	-3.005700	3.055100	-9.181500	28.690227	8.729143E-6	20.870549
2503.675032	-3.032600	3.053500	-9.258900	28.780931	1.028026E-5	20.861867
2504.675770	-2.993400	3.053900	-9.140400	28.717036	8.960159E-6	20.871474
2505.673964	-2.993300	3.052200	-9.135700	28.690700	1.080830E-5	20.866284
2506.678070	-2.978900	3.050800	-9.087300	28.734479	8.399118E-6	20.868655
2507.677570	-2.992400	3.050000	-9.125600	28.785640	1.150135E-5	20.865662
2508.676258	-2.989700	3.047600	-9.110800	28.801546	8.960159E-6	20.852287
2509.676460	-3.002000	3.046800	-9.145700	28.712654	1.031326E-5	20.857578
2510.678211	-3.034900	3.043900	-9.237100	28.710499	1.061028E-5	20.855881
2511.676434	-2.978600	3.044600	-9.067000	28.747191	8.762145E-6	20.857753
2512.677839	-3.005000	3.043900	-9.146100	28.805907	1.031326E-5	20.865214
2513.676497	-3.007300	3.042900	-9.150300	28.858376	1.272244E-5	20.853112
2514.677082	-3.014300	3.041100	-9.166200	28.861051	1.090730E-5	20.846324
2515.678276	-2.999700	3.041000	-9.120300	28.905691	1.196338E-5	20.857155
2516.682318	-2.992300	3.036900	-9.086600	28.864792	1.080830E-5	20.861945
2517.679796	-2.994700	3.036500	-9.092500	28.829937	1.097331E-5	20.862395
2518.679518	-2.981400	3.036800	-9.053300	28.742310	1.222740E-5	20.847621
2519.681075	-2.975700	3.034700	-9.029200	28.686416	1.044527E-5	20.843004
2520.680560	-2.995600	3.033300	-9.085900	28.687233	1.031326E-5	20.847621
2521.683025	-2.993600	3.031300	-9.074100	28.759404	1.173236E-5	20.839710
2522.683943	-3.013000	3.030100	-9.129200	28.724867	9.983235E-6	20.854233
2523.683499	-2.995600	3.030000	-9.075800	28.678362	1.004924E-5	20.840108
2524.691994	-3.007500	3.026700	-9.101500	28.686142	7.112024E-6	20.853159
2525.682578	-2.976700	3.027000	-9.009100	28.743646	9.389191E-6	20.844225
2526.683638	-2.984800	3.025600	-9.029900	28.760640	1.156735E-5	20.858498
2527.683430	-3.013200	3.025400	-9.115600	28.793640	1.021425E-5	20.836738
2528.689755	-3.004200	3.023700	-9.082200	28.815044	1.186437E-5	20.860194
2529.684465	-2.997900	3.022000	-9.058800	28.686635	1.057728E-5	20.835639
2530.686831	-3.001800	3.021000	-9.067700	28.692308	8.630135E-6	20.846094
2531.686102	-2.987900	3.019700	-9.021900	28.725359	9.455196E-6	20.837185
2532.687264	-3.009600	3.018900	-9.084900	28.821680	1.031326E-5	20.835112
2533.685857	-3.008200	3.017700	-9.077300	28.872910	1.074229E-5	20.831718
2534.692173	-3.007400	3.014500	-9.064500	28.893445	1.054428E-5	20.855724
2535.685972	-2.985400	3.015000	-9.000600	28.908828	9.257181E-6	20.847040
2536.687712	-3.008800	3.011800	-9.060500	28.834064	8.399118E-6	20.821984
2537.692764	-3.019100	3.011500	-9.091200	28.808896	9.620208E-6	20.833614
2538.688563	-2.996800	3.009700	-9.019000	28.847714	9.323186E-6	20.844742
2539.689889	-3.015100	3.008100	-9.068700	28.863864	1.021425E-5	20.841098
2540.691496	-2.998400	3.007400	-9.016400	28.842833	7.046019E-6	20.841248
2541.689463	-3.024100	3.005800	-9.089600	28.851355	9.818223E-6	20.853151
2542.690520	-2.983100	3.004200	-8.960900	28.872485	9.554203E-6	20.842669
2543.693657	-3.004700	3.001900	-9.019400	28.972411	6.980014E-6	20.837604
2544.688578	-3.009300	3.001400	-9.030800	28.900552	5.593912E-6	20.845814
2545.687583	-2.993800	3.002000	-8.986500	28.890669	5.989941E-6	20.839651
2546.693427	-3.007100	2.997600	-9.013300	28.901023	6.947011E-6	20.827324
2547.691717	-3.045100	2.997500	-9.126600	28.866714	8.300111E-6	20.857244
2548.690939	-3.006200	2.995900	-9.004600	28.832726	5.131878E-6	20.831541
2549.688303	-3.010200	2.994900	-9.014400	28.751345	8.234106E-6	20.845816
2550.689847	-2.978000	2.994000	-8.915700	28.770817	9.257181E-6	20.836034
2551.692117	-3.016300	2.992000	-9.023400	28.812488	6.649990E-6	20.812102
2552.693628	-2.990400	2.989600	-8.938500	28.878210	1.008224E-5	20.825204
2553.689581	-3.016200	2.988400	-9.013200	28.953365	6.947011E-6	20.816045
2554.692257	-3.007100	2.988500	-8.985900	28.924606	5.725922E-6	20.839228
2555.692393	-3.024900	2.986300	-9.032000	28.950691	6.484977E-6	20.823308
2556.691881	-3.022300	2.984300	-9.018300	28.932930	7.112024E-6	20.826278
2557.691413	-2.991600	2.983200	-8.923700	28.891861	4.801853E-6	20.826628
2558.689940	-3.022700	2.980200	-9.006400	28.967536	6.484977E-6	20.837908
2559.696822	-2.994300	2.981800	-8.927400	29.045013	4.801853E-6	20.852906
2560.693404	-3.017000	2.978800	-8.986100	29.039937	7.673065E-6	20.830722
2561.695978	-3.011100	2.977000	-8.963100	29.029411	5.659917E-6	20.820591
2562.691961	-2.992600	2.976100	-8.905800	28.977743	5.725922E-6	20.817847
2563.696768	-2.999400	2.974700	-8.921600	28.905415	6.848004E-6	20.819421
2564.696093	-3.017400	2.972400	-8.967700	28.864937	7.937084E-6	20.795712
2565.691588	-2.999100	2.972300	-8.913500	28.915299	9.092169E-6	20.823688
2566.692461	-2.998400	2.969600	-8.903300	28.924836	7.013016E-6	20.824762
2567.695454	-3.023800	2.967300	-8.971800	28.986489	7.112024E-6	20.824287
2568.692426	-3.018500	2.965500	-8.949900	29.014232	6.848004E-6	20.804349
2569.701007	-2.999600	2.965400	-8.894400	28.980297	6.286963E-6	20.825161
2570.696403	-2.991200	2.963100	-8.862800	28.947849	6.583985E-6	20.807169
2571.695251	-3.008100	2.962300	-8.909600	28.936603	7.640062E-6	20.825711
2572.697341	-3.006300	2.960100	-8.898100	28.919314	7.145026E-6	20.805448
2573.696474	-2.990400	2.959500	-8.849600	28.991767	9.554203E-6	20.827708
2574.693473	-2.993000	2.958600	-8.854600	28.988769	9.026164E-6	20.807145
2575.696715	-3.005600	2.956100	-8.884100	29.037588	6.715994E-6	20.813657
2576.700022	-2.973700	2.956700	-8.790400	29.087098	1.047827E-5	20.819446
2577.696330	-3.017500	2.952200	-8.907200	29.104089	8.069094E-6	20.800057
2578.695785	-3.011700	2.951700	-8.888900	29.119517	6.947011E-6	20.803749
2579.702007	-2.977500	2.950500	-8.783800	29.183016	8.498126E-6	20.799457
2580.695092	-3.020000	2.947700	-8.901600	29.165433	7.013016E-6	20.802127
2581.694696	-2.992300	2.947300	-8.818500	29.151539	6.980014E-6	20.802351
2582.698299	-2.985600	2.946100	-8.795400	29.153892	5.329892E-6	20.816576
2583.694993	-2.978400	2.944300	-8.767900	29.128062	4.933863E-6	20.802876
2584.696435	-3.002800	2.942100	-8.833100	29.006775	4.999868E-6	20.819596
2585.697177	-2.982100	2.941600	-8.771200	29.028845	4.702846E-6	20.808642
2586.696162	-2.996500	2.937900	-8.802400	29.120333	6.980014E-6	20.804097
2587.697270	-2.999700	2.937600	-8.811500	29.147726	5.956939E-6	20.804673
2588.700390	-3.005800	2.936000	-8.823900	29.148618	6.583985E-6	20.797511
2589.697122	-3.007100	2.932700	-8.817800	29.148965	5.197883E-6	20.794067
2590.700170	-2.980300	2.932600	-8.739500	29.147429	2.392676E-6	20.796788
2591.698805	-3.010500	2.931100	-8.823000	29.149410	5.329892E-6	20.813009
2592.696390	-3.006500	2.929700	-8.807200	29.197479	5.065873E-6	20.808342
2593.696515	-2.981600	2.928100	-8.729500	29.140223	5.065873E-6	20.784310
2594.699440	-3.005100	2.925700	-8.789800	29.106739	5.098875E-6	20.790874
2595.700171	-3.019100	2.924000	-8.826900	29.173782	3.712773E-6	20.788729
2596.698872	-2.997600	2.922600	-8.759400	29.147060	4.537834E-6	20.784087
2597.708677	-2.980600	2.922000	-8.708400	29.075560	3.877785E-6	20.790277
2598.699606	-2.989800	2.918300	-8.724800	29.082817	4.273815E-6	20.799012
2599.705115	-2.998600	2.916600	-8.745100	29.020082	3.085727E-6	20.789381
2600.704011	-3.001800	2.916000	-8.752800	28.957960	4.405824E-6	20.779423
2601.700028	-3.016500	2.913800	-8.789000	28.965416	3.844783E-6	20.794996
2602.701159	-3.016300	2.912500	-8.784100	29.064220	4.339819E-6	20.790705
2603.703882	-2.994500	2.910900	-8.716200	29.106969	3.745776E-6	20.785415
2604.699635	-2.971700	2.910000	-8.646600	29.034846	4.669844E-6	20.794300
2605.702479	-2.986200	2.908500	-8.684600	28.984715	3.415751E-6	20.790258
2606.705335	-2.983400	2.906200	-8.669400	29.048024	3.679771E-6	20.790033
2607.703408	-3.029900	2.903400	-8.795500	29.092680	5.098875E-6	20.783820
2608.711389	-2.997200	2.902800	-8.699400	29.135354	6.815002E-6	20.778930
2609.709733	-3.001600	2.900900	-8.705700	29.114327	5.065873E-6	20.794252
2610.706415	-2.999000	2.898400	-8.691300	29.084607	3.382749E-6	20.786117
2611.705155	-2.989100	2.896400	-8.656500	29.063604	5.560909E-6	20.781075
2612.706230	-3.019600	2.894300	-8.739100	29.049586	5.725922E-6	20.802987
2613.708251	-3.028900	2.891200	-8.755600	29.079357	5.857931E-6	20.782724
2614.706450	-3.004100	2.890200	-8.681600	29.075419	8.102096E-6	20.778281
2615.710013	-3.029000	2.888700	-8.749200	29.084682	7.475050E-6	20.768648
2616.707454	-3.006700	2.887100	-8.680200	29.123714	4.768851E-6	20.798021
2617.708037	-3.009400	2.885900	-8.683500	29.137335	6.980014E-6	20.785193
2618.710064	-3.024100	2.883300	-8.718200	29.208980	5.857931E-6	20.787689
2619.708978	-3.013500	2.881000	-8.681200	29.245358	3.910788E-6	20.801115
2620.709278	-2.992600	2.879800	-8.617500	29.287801	7.343041E-6	20.808327
2621.709785	-3.015500	2.875300	-8.669800	29.375234	5.725922E-6	20.786916
2622.709108	-3.002200	2.875300	-8.631100	29.351216	2.623693E-6	20.789262
2623.709797	-3.015300	2.873100	-8.662600	29.315782	3.580764E-6	20.767300
2624.713131	-3.028100	2.871600	-8.694500	29.348046	6.385970E-6	20.799817
2625.716897	-2.981600	2.870700	-8.558600	29.330887	4.009795E-6	20.775411
2626.711698	-2.971600	2.868000	-8.521700	29.334031	5.494905E-6	20.760088
2627.710873	-3.019000	2.864400	-8.646300	29.312093	3.679771E-6	20.785394
2628.714843	-2.996000	2.864400	-8.580800	29.204720	2.095654E-6	20.763956
2629.713262	-3.007500	2.861700	-8.604500	29.173840	4.636841E-6	20.782624
2630.714946	-2.981200	2.860700	-8.527300	29.153731	1.369601E-6	20.761411
2631.712071	-3.012500	2.857700	-8.608200	29.112991	4.438827E-6	20.792432
2632.714852	-3.022400	2.855700	-8.630400	29.159204	4.438827E-6	20.792532
2633.715953	-2.982100	2.855000	-8.513300	29.246920	5.659917E-6	20.782301
2634.713504	-3.009600	2.852300	-8.583200	29.273640	6.319965E-6	20.806383
2635.715434	-2.992400	2.849400	-8.525500	29.319004	3.877785E-6	20.790936
2636.717632	-3.024600	2.847400	-8.611600	29.263413	5.263888E-6	20.779007
2637.715597	-3.001700	2.845700	-8.541000	29.266534	3.745776E-6	20.757496
2638.716509	-2.996300	2.844400	-8.522200	29.295482	5.131878E-6	20.783825
2639.717587	-2.994300	2.842500	-8.510300	29.399800	6.154953E-6	20.774691
2640.717377	-3.017100	2.839200	-8.565300	29.431541	7.013016E-6	20.777286
2641.716745	-3.007000	2.838600	-8.534800	29.452684	6.748997E-6	20.785795
2642.718327	-3.020600	2.833600	-8.558600	29.409801	4.933863E-6	20.785720
2643.714950	-3.016000	2.832300	-8.541200	29.399799	5.659917E-6	20.760939
2644.718497	-2.991600	2.830400	-8.466000	29.290799	6.022943E-6	20.781951
2645.718709	-3.006400	2.827900	-8.501000	29.265047	5.956939E-6	20.792034
2646.717137	-2.980000	2.825900	-8.420500	29.226986	6.154953E-6	20.803463
2647.714621	-2.982900	2.824200	-8.423400	29.216807	5.329892E-6	20.777085
2648.717895	-3.003100	2.822200	-8.474400	29.263289	7.607060E-6	20.776985
2649.716378	-2.986700	2.817700	-8.414200	29.337350	6.253960E-6	20.778132
2650.718825	-2.984300	2.815900	-8.401900	29.395660	5.197883E-6	20.782373
2651.721461	-2.977600	2.814700	-8.380500	29.325242	6.815002E-6	20.778256
2652.715636	-2.989800	2.810600	-8.402300	29.342376	8.003089E-6	20.775136
2653.719277	-2.979800	2.809600	-8.369900	29.418613	7.805075E-6	20.782748
2654.720971	-2.990500	2.805500	-8.388400	29.395115	8.234106E-6	20.798893
2655.716306	-3.016200	2.803100	-8.454200	29.346064	8.168101E-6	20.789758
2656.724051	-2.976100	2.801100	-8.335500	29.333683	6.220958E-6	20.768272
2657.724863	-2.989200	2.798100	-8.362700	29.359855	6.980014E-6	20.775209
2658.717240	-2.975800	2.797000	-8.322600	29.331677	9.059167E-6	20.748231
2659.727105	-2.991700	2.794400	-8.358600	29.382287	7.409045E-6	20.790232
2660.724381	-2.991000	2.791000	-8.346100	29.353564	8.861152E-6	20.803956
2661.721464	-2.985900	2.788200	-8.324000	29.429601	7.145026E-6	20.780073
2662.722914	-2.965100	2.785400	-8.258300	29.456563	7.673065E-6	20.795395
2663.727846	-2.978200	2.782300	-8.284200	29.419697	4.867858E-6	20.780047
2664.725864	-3.001400	2.778900	-8.339800	29.409645	6.385970E-6	20.808322
2665.726368	-2.992800	2.776200	-8.307800	29.442227	4.636841E-6	20.791851
2666.725014	-3.002200	2.772200	-8.321600	29.501151	7.277036E-6	20.791976
2667.721736	-3.026100	2.768400	-8.376600	29.528731	5.131878E-6	20.789905
2668.723015	-2.993500	2.767400	-8.283300	29.477483	7.673065E-6	20.784240
2669.722370	-3.003700	2.763800	-8.300700	29.463791	6.748997E-6	20.821647
2670.725224	-2.998700	2.761000	-8.278600	29.474487	5.098875E-6	20.809669
2671.726781	-2.983300	2.758100	-8.226400	29.476665	6.088948E-6	20.793372
2672.722490	-3.023000	2.753800	-8.324100	29.486890	7.640062E-6	20.800834
2673.724071	-3.020300	2.751300	-8.308900	29.506919	8.762145E-6	20.795893
2674.724123	-2.998500	2.749000	-8.241100	29.475428	7.310038E-6	20.820574
2675.723668	-2.999400	2.746300	-8.236100	29.495358	6.154953E-6	20.816956
2676.726962	-2.993000	2.743300	-8.209700	29.485356	6.088948E-6	20.791228
2677.723648	-3.027800	2.738700	-8.289700	29.523408	4.306817E-6	20.791652
2678.725050	-2.996000	2.735000	-8.193400	29.524199	5.989941E-6	20.809044
2679.725078	-2.999400	2.731700	-8.192600	29.429056	8.564130E-6	20.787110
2680.724895	-2.993500	2.728800	-8.167700	29.449208	7.805075E-6	20.796991
2681.724848	-2.972000	2.727200	-8.104500	29.525809	6.914009E-6	20.807348
2682.726188	-3.003200	2.721700	-8.172900	29.537592	7.706067E-6	20.789828
2683.724639	-2.979400	2.719100	-8.100400	29.651565	6.616987E-6	20.792349
2684.727079	-3.001900	2.714800	-8.149100	29.634706	7.079021E-6	20.822294
2685.724422	-2.974700	2.711100	-8.063800	29.604803	6.583985E-6	20.816804
2686.725046	-3.008200	2.706800	-8.141700	29.663246	7.145026E-6	20.805548
2687.727377	-2.958600	2.704500	-7.999700	29.663370	8.003089E-6	20.816579
2688.722739	-3.005200	2.698400	-8.109100	29.696738	7.343041E-6	20.806123
2689.726329	-2.996600	2.694400	-8.073200	29.623639	7.013016E-6	20.811137
2690.726990	-3.032100	2.689900	-8.155400	29.562221	8.135099E-6	20.820345
2691.726315	-3.004600	2.686000	-8.068800	29.555388	5.065873E-6	20.815353
2692.727601	-2.999100	2.681600	-8.041100	29.687304	6.187956E-6	20.807043
2693.729021	-3.011300	2.679500	-8.067500	29.749728	6.947011E-6	20.823038
2694.724281	-2.999000	2.672900	-8.015200	29.773094	5.131878E-6	20.795862
2695.726058	-2.993100	2.670500	-7.992400	29.731683	4.933863E-6	20.817646
2696.730825	-3.019800	2.664700	-8.045800	29.724827	7.112024E-6	20.827330
2697.726593	-3.018600	2.660000	-8.029000	29.749777	5.890934E-6	20.824035
2698.726761	-3.039700	2.655300	-8.070200	29.748315	4.834856E-6	20.818295
2699.731775	-2.997100	2.651900	-7.946400	29.757300	5.824929E-6	20.813603
2700.728062	-3.004100	2.646400	-7.948500	29.793883	4.042798E-6	20.828203
2701.727377	-2.987200	2.642900	-7.892900	29.778635	4.504832E-6	20.826580
2702.730811	-3.017100	2.637000	-7.954900	29.804550	3.415751E-6	20.809561
2703.727993	-2.999800	2.632400	-7.895500	29.835785	3.712773E-6	20.813080
2704.728921	-2.967700	2.627100	-7.795100	29.906640	5.098875E-6	20.813405
2705.732873	-2.983500	2.621800	-7.820900	29.889144	3.646768E-6	20.816150
2706.731756	-3.001600	2.616900	-7.853800	29.888524	3.085727E-6	20.827379
2707.732865	-2.996300	2.612200	-7.825500	29.899464	3.250739E-6	20.812332
2708.732237	-2.994600	2.607300	-7.806800	29.871054	4.504832E-6	20.816875
2709.732997	-2.994500	2.600900	-7.787700	29.918571	2.887713E-6	20.837764
2710.729415	-3.036500	2.594400	-7.875800	29.920008	5.989941E-6	20.802229
2711.731440	-2.978400	2.590100	-7.713400	29.890607	3.250739E-6	20.827583
2712.731064	-2.994400	2.585500	-7.741200	29.819998	5.329892E-6	20.817077
2713.733822	-3.013200	2.579100	-7.770600	29.825716	3.976793E-6	20.838963
2714.735020	-3.031500	2.573100	-7.799500	29.784557	3.811781E-6	20.836817
2715.731915	-2.968800	2.567100	-7.619900	29.820049	4.075800E-6	20.810965
2716.733086	-3.005900	2.560100	-7.694800	29.923920	5.461902E-6	20.826563
2717.733355	-3.009200	2.554600	-7.686200	30.035872	4.999868E-6	20.809543
2718.733016	-3.028500	2.547400	-7.713300	30.022610	3.052725E-6	20.835522
2719.733893	-2.977900	2.543400	-7.572600	30.016300	5.098875E-6	20.822996
2720.733454	-2.985300	2.536800	-7.572100	29.955797	3.316744E-6	20.848275
2721.735093	-2.989100	2.530800	-7.563900	29.953126	4.867858E-6	20.838944
2722.734100	-3.022500	2.523200	-7.625900	29.979381	3.844783E-6	20.828911
2723.734521	-2.973100	2.518500	-7.487000	30.022836	1.831635E-6	20.837647
2724.734150	-2.993400	2.512100	-7.518900	29.979063	1.435606E-6	20.819582
2725.733727	-2.984600	2.504500	-7.473800	30.011381	2.689698E-6	20.829889
2726.734988	-2.998000	2.499400	-7.492300	30.018063	1.864637E-6	20.827145
