LabVIEW Measurement	
Writer_Version	2
Reader_Version	2
Separator	Tab
Decimal_Separator	.
Multi_Headings	No
X_Columns	One
Time_Pref	Absolute
Operator	admin
Description	Clolumns are: time, Current, Voltage, Power, Battery Temp, and Chamber Temp
Date	2024/08/16
Time	13:07:17.8513970375061035156
***End_of_Header***	
	
Channels	6						
Samples	1	1	1	1	1	1	
Date	2024/09/17	2024/09/17	2024/09/17	2024/09/17	2024/09/17	2024/09/17	
Time	03:01:13.8293128013610839844	03:01:13.8373198509216308594	03:01:13.8433198928833007812	03:01:13.8124289512634277344	03:01:13.8124289512634277344	03:01:13.8124289512634277344	
X_Dimension	Time	Time	Time	Time	Time	Time	
X0	0.0000000000000000E+0	0.0000000000000000E+0	0.0000000000000000E+0	0.0000000000000000E+0	0.0000000000000000E+0	0.0000000000000000E+0	
Delta_X	1.000000	1.000000	1.000000	1.000000	1.000000	1.000000	
***End_of_Header***							
X_Value	Untitled	Untitled 1	Untitled 2	Untitled 3	Untitled 4	Untitled 5	Comment
0.000000	0.026940	4.090000	0.110390	20.858617	0.000465	20.746243
1.000190	-2.964500	3.918600	-11.615000	20.839259	0.000461	20.770507
2.001730	-2.974000	3.912100	-11.634000	20.854595	0.000464	20.748860
3.003423	-2.996100	3.906400	-11.703000	20.838573	0.000462	20.745639
4.001721	-3.007700	3.902500	-11.737000	20.849830	0.000461	20.745042
5.002519	-3.027600	3.899400	-11.804000	20.853468	0.000461	20.745361
6.008550	-3.002500	3.896600	-11.698000	20.845130	0.000459	20.760257
7.005119	-3.011400	3.894500	-11.728000	20.863866	0.000460	20.749596
8.003831	-3.015900	3.892300	-11.738000	20.860228	0.000459	20.729836
9.001942	-3.000700	3.892200	-11.679000	20.879618	0.000458	20.742589
10.009276	-2.985700	3.889700	-11.612000	20.874763	0.000458	20.741053
11.005405	-2.993300	3.889300	-11.641000	20.894283	0.000456	20.741135
12.003568	-3.006800	3.886500	-11.685000	20.896499	0.000455	20.758524
13.008151	-2.988500	3.885800	-11.611000	20.911499	0.000455	20.726582
14.006691	-2.966400	3.883400	-11.519000	20.923204	0.000454	20.718848
15.008828	-3.025100	3.882700	-11.744000	20.924643	0.000454	20.746842
16.009281	-2.984300	3.881900	-11.584000	20.925894	0.000455	20.751886
17.005105	-2.972900	3.881800	-11.539000	20.927242	0.000453	20.729526
18.006961	-2.983300	3.881900	-11.580000	20.919657	0.000452	20.730000
19.006720	-2.977500	3.880900	-11.554000	20.961067	0.000451	20.731587
20.007172	-3.003000	3.879400	-11.648000	20.961819	0.000451	20.744193
21.008684	-2.995700	3.878600	-11.618000	20.966953	0.000453	20.730835
22.009330	-2.990200	3.879100	-11.598000	20.982369	0.000452	20.746728
23.009331	-3.008600	3.876900	-11.663000	20.979418	0.000449	20.720068
24.012868	-3.024900	3.877400	-11.728000	21.007323	0.000451	20.724744
25.008857	-2.996600	3.875300	-11.611000	20.995839	0.000450	20.757356
26.007415	-3.011800	3.875000	-11.670000	21.033143	0.000448	20.735397
27.010532	-2.991900	3.874900	-11.592000	21.037296	0.000448	20.747612
28.005964	-2.983100	3.875100	-11.559000	21.037321	0.000448	20.715866
29.009787	-3.013000	3.874000	-11.672000	21.034280	0.000449	20.747440
30.012169	-3.012900	3.872500	-11.666000	21.059454	0.000448	20.735161
31.010111	-3.019600	3.871600	-11.689000	21.054632	0.000446	20.738873
32.012068	-3.012600	3.871600	-11.662000	21.062781	0.000446	20.702451
33.008610	-2.997000	3.870800	-11.599000	21.064351	0.000447	20.736266
34.008326	-3.011900	3.869000	-11.651000	21.088085	0.000448	20.731556
35.009143	-2.996100	3.868900	-11.591000	21.089973	0.000445	20.712581
36.018999	-2.992400	3.869800	-11.579000	21.098105	0.000445	20.708861
37.010056	-2.995500	3.868500	-11.587000	21.094109	0.000449	20.724779
38.013710	-2.999900	3.869600	-11.607000	21.116658	0.000445	20.717463
39.018160	-2.994500	3.868400	-11.582000	21.118481	0.000446	20.732089
40.016618	-3.020900	3.866600	-11.680000	21.141855	0.000447	20.713743
41.011354	-2.996200	3.867700	-11.587000	21.167051	0.000446	20.720455
42.013267	-3.011700	3.867800	-11.647000	21.140482	0.000443	20.719482
43.012696	-3.018300	3.865700	-11.667000	21.166243	0.000445	20.734346
44.014518	-2.990800	3.866400	-11.563000	21.165351	0.000445	20.712116
45.013083	-2.987500	3.867700	-11.554000	21.180470	0.000445	20.729138
46.015936	-2.999900	3.866200	-11.597000	21.186919	0.000445	20.706190
47.012763	-2.992200	3.865700	-11.566000	21.202283	0.000443	20.715870
48.011390	-3.000900	3.865800	-11.600000	21.190230	0.000444	20.712346
49.014307	-2.974300	3.866200	-11.498000	21.203909	0.000443	20.740257
50.013047	-2.991900	3.864700	-11.561000	21.229742	0.000444	20.712044
51.021111	-3.010800	3.864300	-11.634000	21.230118	0.000443	20.724275
52.016506	-2.999000	3.866000	-11.593000	21.260599	0.000443	20.731061
53.013918	-2.996600	3.864200	-11.579000	21.221407	0.000443	20.718405
54.015598	-3.003800	3.864500	-11.607000	21.243986	0.000444	20.741942
55.013575	-3.000700	3.863400	-11.591000	21.255255	0.000444	20.720024
56.015194	-2.998200	3.864500	-11.585000	21.262569	0.000445	20.701260
57.016840	-2.988600	3.865300	-11.551000	21.276183	0.000442	20.720098
58.016858	-3.015100	3.863700	-11.649000	21.282197	0.000442	20.716157
59.014936	-2.999800	3.863100	-11.586000	21.309900	0.000445	20.711628
60.013454	-3.014400	3.862400	-11.642000	21.310177	0.000443	20.719967
61.020943	-2.994800	3.862600	-11.567000	21.337838	0.000442	20.730571
62.016942	-3.006600	3.863700	-11.616000	21.339831	0.000441	20.707434
63.014550	-3.033600	3.861200	-11.712000	21.359582	0.000443	20.707753
64.013505	-3.004400	3.862700	-11.604000	21.347701	0.000443	20.726689
65.016574	-3.010200	3.861500	-11.623000	21.350921	0.000442	20.713788
66.014883	-2.989200	3.861200	-11.541000	21.354459	0.000442	20.712112
67.020024	-2.985300	3.862000	-11.529000	21.349916	0.000443	20.709937
68.017347	-2.990400	3.860800	-11.544000	21.366422	0.000443	20.717917
69.018748	-3.023500	3.861300	-11.674000	21.398248	0.000443	20.730320
70.020075	-3.016100	3.860200	-11.642000	21.399024	0.000443	20.715448
71.022604	-3.003100	3.860800	-11.594000	21.398265	0.000443	20.699514
72.023286	-3.004400	3.860500	-11.598000	21.408094	0.000443	20.701763
73.024445	-3.020700	3.860100	-11.658000	21.424354	0.000441	20.715187
74.020895	-2.999000	3.860500	-11.577000	21.431308	0.000443	20.707920
75.023280	-3.014800	3.859800	-11.636000	21.444756	0.000444	20.708099
76.022395	-2.984100	3.860300	-11.518000	21.454079	0.000440	20.716005
77.027399	-3.000600	3.859200	-11.579000	21.446718	0.000441	20.730926
78.024267	-3.019000	3.858700	-11.649000	21.467618	0.000441	20.723862
79.025692	-3.007900	3.858400	-11.605000	21.486165	0.000444	20.731041
80.026323	-2.975200	3.860100	-11.483000	21.490046	0.000442	20.714061
81.024373	-2.973600	3.859800	-11.477000	21.474915	0.000444	20.710300
82.026510	-3.011500	3.858600	-11.620000	21.492072	0.000441	20.719882
83.027235	-3.018100	3.858300	-11.644000	21.532343	0.000445	20.715607
84.025211	-3.003700	3.858200	-11.589000	21.543911	0.000444	20.710587
85.028656	-2.990700	3.857600	-11.535000	21.535137	0.000443	20.695167
86.026173	-2.994700	3.858100	-11.553000	21.538422	0.000445	20.720741
87.027235	-3.013700	3.856800	-11.622000	21.545996	0.000444	20.723105
88.029208	-3.019000	3.856000	-11.640000	21.570341	0.000445	20.717120
89.026945	-3.001200	3.856100	-11.571000	21.573503	0.000444	20.702739
90.025562	-3.002200	3.856500	-11.576000	21.579581	0.000444	20.712142
91.029298	-3.031600	3.855500	-11.687000	21.582351	0.000444	20.714913
92.032683	-3.014500	3.855800	-11.622000	21.608600	0.000446	20.706567
93.039680	-2.988400	3.855700	-11.521000	21.606027	0.000444	20.712527
94.032338	-3.011500	3.855500	-11.610000	21.621818	0.000447	20.708414
95.032472	-2.986900	3.856500	-11.518000	21.625233	0.000444	20.696658
96.030303	-3.000200	3.856500	-11.569000	21.643385	0.000443	20.721937
97.030097	-2.981800	3.856100	-11.497000	21.622684	0.000443	20.715446
98.032087	-2.999200	3.855200	-11.562000	21.636147	0.000445	20.710426
99.031489	-2.993300	3.855200	-11.539000	21.630879	0.000446	20.712741
100.031174	-2.996900	3.856100	-11.555000	21.666144	0.000445	20.704883
101.028567	-2.992300	3.855000	-11.534000	21.669616	0.000444	20.719264
102.032142	-3.017600	3.854700	-11.631000	21.665523	0.000443	20.730342
103.032462	-3.006400	3.853200	-11.583000	21.699155	0.000445	20.731757
104.028835	-3.002100	3.853600	-11.568000	21.704872	0.000445	20.738902
105.027413	-2.995200	3.854100	-11.544000	21.701801	0.000445	20.730612
106.031087	-3.002000	3.854400	-11.570000	21.728880	0.000446	20.717883
107.030553	-3.005500	3.853400	-11.581000	21.742276	0.000446	20.720858
108.030095	-2.990100	3.854100	-11.524000	21.746564	0.000445	20.721831
109.030959	-2.982300	3.854600	-11.495000	21.748631	0.000447	20.729116
110.031619	-3.030900	3.852100	-11.675000	21.754748	0.000447	20.746619
111.031171	-3.005500	3.853100	-11.580000	21.752232	0.000445	20.726082
112.030911	-3.011400	3.853300	-11.602000	21.771151	0.000447	20.721937
113.033568	-3.030300	3.852100	-11.672000	21.769042	0.000446	20.725836
114.032861	-3.026400	3.851700	-11.656000	21.778395	0.000445	20.722394
115.034447	-3.002600	3.854300	-11.572000	21.784912	0.000447	20.735556
116.031142	-3.009200	3.853200	-11.594000	21.768323	0.000447	20.741713
117.033064	-3.000900	3.853200	-11.563000	21.793840	0.000447	20.724576
118.032594	-2.999300	3.852600	-11.554000	21.786684	0.000446	20.728321
119.038182	-2.996300	3.851400	-11.538000	21.808999	0.000448	20.739178
120.038689	-2.992700	3.851600	-11.526000	21.827082	0.000445	20.709009
121.033811	-2.968000	3.852600	-11.433000	21.826290	0.000449	20.751841
122.036325	-2.996300	3.851800	-11.540000	21.848604	0.000450	20.726758
123.034669	-2.995000	3.852300	-11.537000	21.858454	0.000447	20.709589
124.035146	-2.995700	3.852600	-11.539000	21.849053	0.000449	20.731950
125.038118	-3.003100	3.851800	-11.565000	21.868409	0.000448	20.727616
126.035249	-3.002800	3.850800	-11.562000	21.893369	0.000450	20.732211
127.035126	-2.990700	3.851100	-11.517000	21.900695	0.000448	20.717258
128.040347	-2.987500	3.851100	-11.504000	21.909899	0.000451	20.721729
129.034916	-2.996000	3.851200	-11.537000	21.932415	0.000450	20.722457
130.040703	-3.034400	3.850400	-11.682000	21.938998	0.000452	20.723356
131.036513	-3.001700	3.850600	-11.558000	21.927981	0.000451	20.716595
132.035463	-3.002200	3.851800	-11.563000	21.952914	0.000452	20.733493
133.038549	-2.994100	3.849900	-11.526000	21.960378	0.000450	20.725791
134.039742	-2.998600	3.850000	-11.544000	21.951746	0.000453	20.736117
135.039556	-2.989600	3.850100	-11.510000	21.966332	0.000452	20.715629
136.039709	-2.988800	3.850700	-11.508000	21.952725	0.000453	20.738046
137.039218	-2.988900	3.849700	-11.506000	21.974195	0.000453	20.746262
138.038111	-3.015900	3.847500	-11.603000	21.998818	0.000453	20.719701
139.042677	-2.992100	3.850400	-11.519000	22.004380	0.000452	20.739493
140.039311	-3.006500	3.850400	-11.574000	21.984960	0.000453	20.744235
141.040084	-3.005400	3.848300	-11.565000	21.992570	0.000454	20.733835
142.039753	-2.990700	3.848900	-11.510000	22.005955	0.000454	20.742019
143.040805	-2.997700	3.848100	-11.534000	21.993812	0.000456	20.721801
144.042520	-3.010700	3.848700	-11.587000	22.006454	0.000456	20.737302
145.044748	-3.011100	3.847100	-11.583000	22.017429	0.000453	20.739754
146.048094	-2.974700	3.847900	-11.445000	22.049057	0.000455	20.738700
147.049568	-2.997200	3.848000	-11.532000	22.056432	0.000455	20.738022
148.044196	-2.998200	3.847900	-11.535000	22.061183	0.000454	20.757004
149.047356	-3.006200	3.846300	-11.562000	22.075090	0.000456	20.741054
150.047501	-3.009800	3.847100	-11.578000	22.083240	0.000454	20.724082
151.044452	-3.008900	3.845400	-11.570000	22.090320	0.000454	20.743024
152.042688	-2.991700	3.846700	-11.507000	22.105443	0.000454	20.760536
153.043735	-3.020500	3.846000	-11.616000	22.109885	0.000454	20.740801
154.043575	-2.997400	3.846900	-11.529000	22.110155	0.000456	20.733010
155.045733	-3.010600	3.846000	-11.577000	22.124093	0.000457	20.753129
156.043827	-3.019700	3.845800	-11.612000	22.103760	0.000456	20.741781
157.046367	-3.018100	3.845600	-11.606000	22.132267	0.000456	20.730492
158.044279	-2.999800	3.846400	-11.536000	22.147422	0.000457	20.739501
159.048918	-2.986100	3.846200	-11.483000	22.145724	0.000457	20.754397
160.048427	-3.016400	3.844000	-11.594000	22.178083	0.000458	20.734636
161.045662	-2.993500	3.844500	-11.508000	22.166023	0.000458	20.741054
162.050594	-3.013400	3.842900	-11.579000	22.171878	0.000456	20.724629
163.049429	-3.010900	3.845200	-11.576000	22.187783	0.000458	20.739133
164.050599	-3.010400	3.843700	-11.570000	22.198953	0.000457	20.736091
165.047235	-2.989900	3.845500	-11.497000	22.213585	0.000459	20.747422
166.054169	-2.991000	3.844400	-11.498000	22.219839	0.000459	20.739459
167.048233	-2.992700	3.844100	-11.504000	22.224852	0.000460	20.751591
168.051889	-2.978300	3.845400	-11.452000	22.233874	0.000461	20.733597
169.047726	-2.996200	3.843900	-11.516000	22.235425	0.000460	20.742263
170.048508	-3.020400	3.842600	-11.605000	22.252702	0.000461	20.765726
171.050361	-3.011900	3.842500	-11.572000	22.245198	0.000459	20.762480
172.048781	-2.991900	3.843200	-11.498000	22.236404	0.000461	20.759839
173.051815	-3.017900	3.843400	-11.597000	22.251477	0.000462	20.750749
174.051411	-3.016300	3.842500	-11.588000	22.269806	0.000461	20.741126
175.050817	-2.993500	3.841900	-11.499000	22.251534	0.000460	20.756970
176.052228	-2.988700	3.842400	-11.482000	22.262588	0.000463	20.758081
177.059588	-3.006300	3.842100	-11.549000	22.254488	0.000463	20.774628
178.052356	-2.991300	3.842900	-11.494000	22.292078	0.000462	20.764850
179.054921	-2.994700	3.842300	-11.505000	22.313239	0.000464	20.767547
180.056712	-3.013800	3.841800	-11.578000	22.343047	0.000465	20.739072
181.052393	-3.008600	3.841100	-11.555000	22.311574	0.000464	20.750232
182.071818	-2.993800	3.842200	-11.502000	22.337919	0.000465	20.753853
183.059033	-3.005700	3.841400	-11.546000	22.331690	0.000462	20.768479
184.059085	-3.008700	3.839500	-11.551000	22.350581	0.000464	20.765110
185.057934	-3.000800	3.840600	-11.524000	22.369873	0.000464	20.752659
186.058375	-3.008400	3.841100	-11.554000	22.336099	0.000466	20.747763
187.060844	-2.998500	3.840300	-11.514000	22.377645	0.000466	20.762813
188.058754	-2.993600	3.839700	-11.494000	22.382265	0.000465	20.747999
189.059474	-2.993200	3.840200	-11.494000	22.379743	0.000467	20.756853
190.060673	-2.992100	3.841100	-11.492000	22.404691	0.000465	20.766189
191.056652	-3.011000	3.839500	-11.559000	22.412936	0.000466	20.744574
192.065300	-2.977100	3.839900	-11.431000	22.407409	0.000467	20.769860
193.061182	-3.015500	3.838500	-11.575000	22.427826	0.000466	20.771813
194.062370	-2.988000	3.838900	-11.470000	22.433834	0.000468	20.752699
195.064289	-2.990200	3.839700	-11.480000	22.462772	0.000466	20.768878
196.056854	-3.008900	3.838700	-11.549000	22.439498	0.000465	20.743199
197.059156	-3.014600	3.837300	-11.567000	22.446453	0.000469	20.765337
198.061594	-3.004900	3.837600	-11.531000	22.436682	0.000469	20.754603
199.062539	-2.980100	3.837900	-11.437000	22.456674	0.000468	20.765141
200.060282	-2.972900	3.837600	-11.408000	22.447857	0.000468	20.766269
201.057913	-3.012800	3.836200	-11.557000	22.477678	0.000469	20.774322
202.059621	-2.983000	3.838600	-11.449000	22.473677	0.000469	20.777428
203.058384	-3.004100	3.837800	-11.528000	22.497717	0.000470	20.775425
204.059533	-2.983800	3.837700	-11.450000	22.513643	0.000470	20.774305
205.061682	-3.000500	3.836300	-11.509000	22.534874	0.000472	20.786085
206.073195	-3.002500	3.836800	-11.519000	22.545420	0.000472	20.754447
207.063390	-2.982100	3.837000	-11.441000	22.516280	0.000472	20.764144
208.063340	-3.020600	3.835200	-11.584000	22.579327	0.000472	20.765173
209.063110	-2.989600	3.836400	-11.469000	22.553885	0.000473	20.749648
210.059316	-2.978200	3.837600	-11.428000	22.544637	0.000473	20.776897
211.067415	-3.000400	3.836000	-11.509000	22.583931	0.000472	20.780690
212.076967	-2.995200	3.835100	-11.486000	22.549575	0.000474	20.775678
213.059336	-3.005000	3.836000	-11.526000	22.575540	0.000473	20.786036
214.065556	-3.015600	3.834000	-11.560000	22.567182	0.000475	20.783830
215.058674	-2.991100	3.835300	-11.472000	22.568537	0.000476	20.768591
216.060877	-3.029300	3.833500	-11.613000	22.609740	0.000475	20.788522
217.074581	-2.999800	3.835100	-11.504000	22.617037	0.000476	20.785874
218.061513	-3.008900	3.833300	-11.533000	22.606574	0.000475	20.773971
219.061973	-3.014800	3.834400	-11.559000	22.608460	0.000477	20.773489
220.059597	-2.992700	3.834600	-11.474000	22.613422	0.000476	20.753802
221.063167	-3.009300	3.831900	-11.531000	22.633753	0.000476	20.779857
222.059877	-3.011300	3.834100	-11.545000	22.604395	0.000475	20.800238
223.062675	-3.009800	3.831400	-11.531000	22.619421	0.000477	20.771666
224.062356	-2.993200	3.834100	-11.475000	22.645948	0.000476	20.777373
225.062463	-3.007800	3.832800	-11.528000	22.643238	0.000477	20.808323
226.062990	-3.006200	3.832200	-11.519000	22.639500	0.000477	20.772811
227.060106	-2.994000	3.831900	-11.472000	22.636301	0.000477	20.780038
228.061914	-2.998000	3.833600	-11.492000	22.686300	0.000480	20.802618
229.063230	-3.001900	3.832400	-11.503000	22.668916	0.000477	20.807016
230.063599	-3.008400	3.832100	-11.527000	22.695449	0.000478	20.800876
231.063639	-2.999300	3.832200	-11.493000	22.689663	0.000478	20.800771
232.064698	-3.003400	3.832000	-11.508000	22.719362	0.000478	20.807760
233.078743	-3.006100	3.831500	-11.518000	22.719313	0.000480	20.758873
234.064688	-3.011100	3.832000	-11.538000	22.740908	0.000481	20.770547
235.065560	-2.994300	3.831100	-11.470000	22.736052	0.000481	20.810254
236.064447	-3.013300	3.830800	-11.543000	22.776507	0.000481	20.802414
237.068414	-2.996900	3.831400	-11.482000	22.782121	0.000481	20.793813
238.067330	-3.015500	3.829900	-11.548000	22.781370	0.000481	20.787846
239.068006	-3.008300	3.829800	-11.520000	22.822444	0.000485	20.802439
240.071227	-2.998800	3.829700	-11.484000	22.808570	0.000483	20.798972
241.067707	-2.983900	3.830100	-11.428000	22.818714	0.000484	20.777365
242.072290	-3.024600	3.829600	-11.582000	22.800850	0.000482	20.795506
243.073203	-3.026600	3.827800	-11.584000	22.815555	0.000481	20.812607
244.071783	-3.005000	3.827800	-11.501000	22.835728	0.000483	20.800574
245.071372	-2.988100	3.828100	-11.438000	22.811011	0.000482	20.799994
246.073403	-3.001600	3.828000	-11.489000	22.827079	0.000481	20.789538
247.069757	-3.005100	3.827700	-11.501000	22.845447	0.000483	20.794663
248.078887	-3.003300	3.829900	-11.502000	22.881932	0.000485	20.797550
249.070415	-3.004400	3.828800	-11.502000	22.884282	0.000485	20.806542
250.070482	-3.005800	3.829200	-11.509000	22.908468	0.000485	20.817022
251.070635	-3.025300	3.826800	-11.575000	22.884086	0.000486	20.787853
252.083779	-2.955700	3.828800	-11.316000	22.921671	0.000485	20.816499
253.072602	-3.005200	3.827100	-11.500000	22.882609	0.000484	20.816720
254.076874	-2.993700	3.827200	-11.456000	22.908069	0.000485	20.795759
255.082630	-2.996800	3.827900	-11.470000	22.920577	0.000485	20.827257
256.075384	-3.011500	3.826800	-11.524000	22.914099	0.000488	20.805119
257.080601	-2.990000	3.826600	-11.440000	22.911169	0.000486	20.822572
258.077160	-2.994600	3.827200	-11.460000	22.895697	0.000488	20.817504
259.077462	-3.021400	3.825900	-11.559000	22.893731	0.000488	20.808421
260.075043	-2.996700	3.826400	-11.466000	22.908957	0.000488	20.800442
261.073656	-3.004000	3.826900	-11.495000	22.923049	0.000488	20.795121
262.073820	-2.998100	3.826800	-11.471000	22.928761	0.000489	20.828817
263.084121	-2.994200	3.825900	-11.454000	22.917876	0.000490	20.824076
264.076381	-2.992400	3.825600	-11.447000	22.962934	0.000488	20.822752
265.080578	-2.962800	3.826100	-11.334000	22.977212	0.000490	20.831842
266.075539	-2.990200	3.825200	-11.437000	22.976462	0.000491	20.814495
267.077938	-2.989100	3.824200	-11.430000	22.946973	0.000490	20.814822
268.077943	-2.965300	3.826100	-11.345000	22.994281	0.000492	20.824287
269.080923	-2.979300	3.824100	-11.392000	23.007883	0.000491	20.823216
270.077845	-2.986300	3.823700	-11.418000	23.044826	0.000492	20.833680
271.078747	-2.980600	3.823900	-11.397000	23.029953	0.000493	20.818777
272.075121	-2.992200	3.822200	-11.435000	23.079567	0.000492	20.810169
273.077978	-2.981000	3.823100	-11.396000	23.089095	0.000493	20.810233
274.083101	-3.004300	3.823000	-11.484000	23.054527	0.000494	20.806416
275.083405	-3.007500	3.823300	-11.497000	23.067973	0.000494	20.835061
276.078552	-3.009600	3.822200	-11.503000	23.054625	0.000492	20.825006
277.078040	-2.996100	3.823900	-11.456000	23.072190	0.000494	20.823640
278.079716	-3.013200	3.823100	-11.518000	23.059185	0.000495	20.814403
279.078436	-3.012000	3.822300	-11.512000	23.044074	0.000494	20.819176
280.082939	-3.007600	3.821300	-11.492000	23.064415	0.000495	20.827229
281.082520	-2.996000	3.822600	-11.451000	23.067115	0.000495	20.841313
282.082620	-3.003300	3.822400	-11.479000	23.058727	0.000494	20.813944
283.078666	-3.026600	3.821100	-11.565000	23.062260	0.000496	20.827441
284.080926	-3.000800	3.821400	-11.466000	23.083236	0.000494	20.832337
285.078241	-2.992600	3.820800	-11.433000	23.084957	0.000495	20.815570
286.084835	-2.999800	3.819900	-11.458000	23.076065	0.000495	20.819462
287.080408	-2.995200	3.819100	-11.438000	23.090864	0.000495	20.844721
288.077155	-3.002800	3.819100	-11.468000	23.099129	0.000496	20.827399
289.079828	-3.000900	3.819000	-11.459000	23.105084	0.000497	20.840953
290.080514	-2.988100	3.820100	-11.414000	23.113332	0.000498	20.849217
291.084475	-3.005600	3.819400	-11.478000	23.098810	0.000497	20.821390
292.081019	-2.987100	3.820000	-11.409000	23.104440	0.000497	20.851686
293.079434	-2.984300	3.818700	-11.395000	23.098092	0.000498	20.843429
294.079136	-3.000600	3.819100	-11.459000	23.114124	0.000495	20.833890
295.080545	-2.982300	3.818700	-11.387000	23.133932	0.000498	20.828608
296.081844	-2.986500	3.817400	-11.399000	23.120014	0.000498	20.822722
297.087863	-3.012400	3.817900	-11.500000	23.156522	0.000499	20.819003
298.085164	-2.982000	3.819100	-11.388000	23.171598	0.000498	20.846911
299.079516	-3.001500	3.815900	-11.453000	23.157525	0.000500	20.852723
300.081897	-2.986700	3.817700	-11.401000	23.175302	0.000499	20.825968
301.079978	-2.983900	3.818700	-11.394000	23.207003	0.000498	20.847778
302.084518	-2.995800	3.817800	-11.436000	23.202402	0.000501	20.856443
303.083084	-2.980600	3.817000	-11.375000	23.197418	0.000500	20.858560
304.081700	-2.984300	3.816100	-11.388000	23.203471	0.000500	20.859410
305.083413	-3.011600	3.815800	-11.490000	23.209948	0.000501	20.843143
306.083167	-3.003600	3.815100	-11.458000	23.251079	0.000500	20.841688
307.084745	-2.992700	3.816100	-11.420000	23.238091	0.000503	20.839578
308.085558	-3.002800	3.814700	-11.454000	23.217249	0.000500	20.840976
309.085823	-2.995600	3.815000	-11.428000	23.215250	0.000504	20.832810
310.081924	-2.998700	3.814500	-11.438000	23.244813	0.000503	20.844892
311.083181	-2.986800	3.815400	-11.395000	23.231957	0.000504	20.842440
312.083448	-2.996600	3.814600	-11.430000	23.233580	0.000505	20.852127
313.085145	-2.970900	3.815100	-11.333000	23.263437	0.000503	20.856443
314.081367	-2.994900	3.814000	-11.422000	23.286473	0.000504	20.835908
315.082713	-2.981900	3.815500	-11.377000	23.293667	0.000504	20.839325
316.084414	-3.001200	3.813700	-11.445000	23.288007	0.000504	20.849773
317.082605	-2.975400	3.813600	-11.346000	23.284328	0.000507	20.822379
318.087380	-3.001300	3.814300	-11.447000	23.309932	0.000506	20.832867
319.086115	-2.987000	3.812900	-11.388000	23.309802	0.000508	20.829417
320.085517	-3.007900	3.812400	-11.467000	23.315276	0.000505	20.817834
321.086687	-2.995200	3.813000	-11.419000	23.324289	0.000505	20.811694
322.085381	-3.008000	3.812800	-11.468000	23.307412	0.000510	20.821332
323.091855	-3.013200	3.812000	-11.485000	23.313318	0.000506	20.826776
324.087714	-3.013100	3.811900	-11.485000	23.329346	0.000508	20.819607
325.087373	-2.992400	3.812400	-11.406000	23.354249	0.000508	20.805685
326.087422	-3.009700	3.810900	-11.469000	23.407103	0.000509	20.830210
327.087535	-3.003900	3.812300	-11.451000	23.403571	0.000510	20.825248
328.090049	-3.008400	3.810100	-11.462000	23.415145	0.000508	20.834004
329.094484	-3.003000	3.810200	-11.440000	23.444605	0.000510	20.810427
330.090200	-3.009000	3.809900	-11.462000	23.450575	0.000509	20.832058
331.091236	-3.003600	3.809500	-11.442000	23.426222	0.000510	20.829933
332.091462	-2.996600	3.810400	-11.418000	23.430430	0.000508	20.820401
333.090664	-2.993600	3.811000	-11.407000	23.426467	0.000510	20.817850
334.092794	-3.002900	3.809800	-11.439000	23.443072	0.000511	20.836865
335.090462	-3.007300	3.809200	-11.454000	23.472197	0.000512	20.798255
336.093043	-3.011800	3.810000	-11.475000	23.459825	0.000514	20.811932
337.090522	-3.008200	3.808900	-11.456000	23.474310	0.000511	20.802744
338.091498	-2.996200	3.808900	-11.411000	23.448104	0.000513	20.797339
339.093575	-2.997500	3.808400	-11.415000	23.433832	0.000512	20.822388
340.094655	-2.990000	3.808900	-11.386000	23.444337	0.000513	20.811581
341.091210	-2.993100	3.808000	-11.397000	23.449011	0.000513	20.815791
342.094142	-2.990000	3.808200	-11.386000	23.436222	0.000513	20.816248
343.095116	-2.995300	3.806800	-11.401000	23.456930	0.000512	20.814246
344.094037	-2.972800	3.808500	-11.321000	23.465893	0.000513	20.817540
345.095352	-3.002700	3.807700	-11.433000	23.493949	0.000513	20.810101
346.093270	-3.014400	3.806900	-11.474000	23.519492	0.000513	20.810101
347.094584	-2.998500	3.807200	-11.414000	23.535648	0.000515	20.811598
348.094404	-2.990900	3.805900	-11.382000	23.534751	0.000513	20.791258
349.092497	-2.998300	3.805900	-11.410000	23.526857	0.000515	20.794725
350.098157	-3.013000	3.805300	-11.465000	23.541170	0.000514	20.807649
351.095911	-3.012800	3.804900	-11.463000	23.497498	0.000513	20.798011
352.094727	-3.016100	3.804200	-11.472000	23.504405	0.000514	20.791184
353.095442	-3.009300	3.805600	-11.452000	23.524696	0.000515	20.815791
354.094427	-2.980300	3.805400	-11.340000	23.511297	0.000514	20.805679
355.098283	-2.992900	3.804700	-11.386000	23.516899	0.000516	20.815563
356.100226	-3.007300	3.802700	-11.434000	23.493020	0.000516	20.819601
357.095736	-3.000500	3.806000	-11.419000	23.487677	0.000517	20.797651
358.096449	-2.998400	3.804200	-11.406000	23.518522	0.000516	20.783998
359.098475	-2.985400	3.803300	-11.354000	23.529426	0.000516	20.790661
360.096581	-2.980800	3.803800	-11.337000	23.572983	0.000518	20.792125
361.098228	-2.992100	3.803800	-11.381000	23.594325	0.000516	20.788863
362.101871	-3.001300	3.802300	-11.410000	23.564852	0.000517	20.806259
363.100002	-2.993700	3.801400	-11.379000	23.568563	0.000517	20.789590
364.101980	-3.001400	3.801900	-11.410000	23.550841	0.000518	20.770403
365.096744	-3.013000	3.801800	-11.454000	23.554071	0.000516	20.807306
366.100019	-3.020000	3.801300	-11.479000	23.552334	0.000517	20.789917
367.097421	-2.986200	3.802500	-11.354000	23.577746	0.000519	20.777458
368.098783	-2.986700	3.801900	-11.354000	23.598361	0.000516	20.782952
369.097965	-2.987700	3.801700	-11.358000	23.588428	0.000518	20.812824
370.098292	-2.995900	3.800100	-11.383000	23.594504	0.000522	20.789991
371.097683	-2.992000	3.801000	-11.371000	23.591894	0.000519	20.780262
372.100273	-2.976900	3.802700	-11.319000	23.621373	0.000519	20.794168
373.100749	-3.003300	3.800100	-11.411000	23.608725	0.000518	20.784333
374.100158	-2.998400	3.799700	-11.392000	23.636141	0.000520	20.780049
375.100079	-3.004900	3.798700	-11.414000	23.662553	0.000520	20.780923
376.101992	-3.008400	3.798900	-11.426000	23.672436	0.000519	20.782297
377.109034	-3.009200	3.798800	-11.429000	23.678031	0.000521	20.779845
378.103026	-3.003800	3.799400	-11.412000	23.708657	0.000520	20.799644
379.099201	-3.014900	3.799000	-11.453000	23.695692	0.000518	20.789965
380.101616	-2.994700	3.799600	-11.378000	23.681136	0.000521	20.796709
381.098981	-3.014100	3.797600	-11.445000	23.680354	0.000519	20.789286
382.106854	-3.007900	3.798100	-11.424000	23.688108	0.000521	20.795638
383.102815	-2.987900	3.798500	-11.348000	23.669068	0.000519	20.775126
384.103358	-2.996700	3.797200	-11.378000	23.687912	0.000521	20.794019
385.104022	-3.044900	3.796200	-11.558000	23.681021	0.000523	20.762454
386.105947	-3.015400	3.797100	-11.449000	23.711101	0.000523	20.777913
387.106024	-3.020700	3.796800	-11.468000	23.722028	0.000522	20.763737
388.104292	-3.013700	3.796600	-11.441000	23.749563	0.000522	20.780439
389.105225	-2.995900	3.796800	-11.374000	23.775948	0.000524	20.745252
390.106589	-2.997100	3.797100	-11.378000	23.796886	0.000522	20.768617
391.105150	-3.005500	3.795500	-11.407000	23.773013	0.000521	20.759379
392.101538	-3.005400	3.795100	-11.404000	23.789825	0.000523	20.763433
393.107658	-2.991200	3.796500	-11.355000	23.810013	0.000523	20.786994
394.103436	-3.009700	3.794500	-11.420000	23.772783	0.000521	20.766736
395.104076	-2.994900	3.795900	-11.367000	23.791381	0.000523	20.778745
396.103446	-3.005900	3.794000	-11.403000	23.770125	0.000523	20.756009
397.104304	-3.001000	3.794300	-11.386000	23.751062	0.000522	20.783838
398.106381	-3.019000	3.794500	-11.455000	23.771747	0.000524	20.774232
399.104508	-3.018200	3.794200	-11.451000	23.783431	0.000525	20.778360
400.104270	-2.984900	3.794100	-11.325000	23.774348	0.000524	20.759295
401.110576	-3.005200	3.793700	-11.400000	23.764326	0.000525	20.765843
402.109252	-3.016200	3.792100	-11.436000	23.776647	0.000523	20.743581
403.108453	-3.009800	3.793300	-11.416000	23.777853	0.000525	20.766602
404.106154	-2.998400	3.792100	-11.369000	23.808893	0.000522	20.779707
405.106506	-3.011500	3.791100	-11.416000	23.834323	0.000523	20.773437
406.106651	-3.011600	3.791600	-11.418000	23.860086	0.000526	20.772717
407.105872	-2.976700	3.792200	-11.286000	23.854836	0.000526	20.766504
408.108589	-2.978500	3.791900	-11.293000	23.844384	0.000524	20.762662
409.109240	-3.005100	3.790700	-11.391000	23.862532	0.000526	20.751935
410.107753	-3.001100	3.790800	-11.375000	23.825199	0.000525	20.773772
411.108486	-2.991800	3.790300	-11.339000	23.858178	0.000525	20.775546
412.110955	-2.999100	3.790500	-11.367000	23.826471	0.000526	20.757029
413.111123	-3.015900	3.789200	-11.427000	23.829382	0.000527	20.775595
414.113276	-2.989800	3.791700	-11.335000	23.816540	0.000525	20.767460
415.114665	-2.981400	3.791000	-11.301000	23.841456	0.000527	20.748820
416.112086	-2.997200	3.789000	-11.355000	23.832349	0.000526	20.744430
417.112871	-3.011400	3.788500	-11.407000	23.858952	0.000526	20.758778
418.111048	-3.005300	3.788000	-11.383000	23.869405	0.000527	20.740334
419.117731	-3.018500	3.787400	-11.432000	23.890862	0.000529	20.754265
420.109923	-3.015500	3.788700	-11.424000	23.917815	0.000529	20.768490
421.111761	-2.986400	3.788600	-11.313000	23.928992	0.000527	20.750300
422.112916	-3.009700	3.786900	-11.397000	23.932008	0.000528	20.752850
423.112330	-2.999600	3.787300	-11.360000	23.946365	0.000529	20.769618
424.117638	-2.990500	3.787000	-11.323000	23.931584	0.000530	20.736777
425.117804	-2.963900	3.788000	-11.226000	23.934218	0.000530	20.767869
426.113832	-2.993100	3.786100	-11.330000	23.931454	0.000529	20.744234
427.111119	-3.025200	3.785400	-11.450000	23.939035	0.000532	20.768906
428.114891	-3.006200	3.785900	-11.379000	23.910110	0.000533	20.741323
429.113093	-2.994900	3.786100	-11.338000	23.938954	0.000531	20.756496
430.118713	-3.013000	3.786300	-11.407000	23.967552	0.000529	20.742500
431.113675	-2.985000	3.785600	-11.299000	23.995823	0.000528	20.746195
432.115599	-3.008900	3.785200	-11.388000	23.971334	0.000530	20.733965
433.114564	-3.013300	3.785400	-11.406000	23.977799	0.000530	20.741396
434.115659	-2.994000	3.785600	-11.333000	23.961633	0.000529	20.763592
435.114954	-3.005900	3.783200	-11.371000	23.978199	0.000529	20.754600
436.115541	-3.007200	3.783500	-11.377000	23.974644	0.000530	20.752932
437.117069	-3.015500	3.784900	-11.412000	23.942622	0.000531	20.745950
438.116744	-2.989100	3.785300	-11.314000	23.911121	0.000530	20.731904
439.118881	-3.003300	3.783200	-11.360000	23.906735	0.000531	20.767336
440.116894	-3.011800	3.783000	-11.393000	23.919460	0.000530	20.739319
441.123100	-3.013600	3.782100	-11.397000	23.960524	0.000531	20.742564
442.117828	-2.999000	3.782700	-11.343000	24.001642	0.000531	20.765782
443.116685	-3.024400	3.782500	-11.438000	24.009256	0.000531	20.758244
444.118832	-3.014600	3.781500	-11.399000	24.051107	0.000531	20.745687
445.117707	-2.993800	3.782900	-11.324000	24.036157	0.000531	20.738280
446.120970	-3.005800	3.782500	-11.369000	24.067248	0.000532	20.740537
447.118341	-3.005200	3.780300	-11.360000	24.044887	0.000530	20.746088
448.119663	-2.989100	3.782100	-11.303000	24.039695	0.000531	20.738509
449.116246	-2.992000	3.780400	-11.310000	24.041203	0.000534	20.734332
450.119754	-3.001200	3.779800	-11.343000	24.030508	0.000531	20.729295
451.122057	-2.995700	3.780600	-11.325000	24.032301	0.000531	20.754328
452.120945	-3.023600	3.780200	-11.429000	24.063130	0.000533	20.731666
453.119534	-3.009800	3.778900	-11.373000	24.111182	0.000532	20.714898
454.119156	-3.007200	3.779700	-11.365000	24.077199	0.000532	20.722542
455.122518	-3.023500	3.778800	-11.424000	24.098915	0.000533	20.750486
456.121099	-3.011400	3.779000	-11.379000	24.085832	0.000532	20.738312
457.126383	-2.997900	3.779600	-11.330000	24.078226	0.000530	20.732581
458.129878	-3.012800	3.779600	-11.386000	24.111116	0.000531	20.748025
459.123223	-3.006900	3.778900	-11.362000	24.115714	0.000532	20.735566
460.124869	-2.976000	3.779000	-11.245000	24.086003	0.000534	20.719991
461.123472	-2.988700	3.777500	-11.289000	24.107065	0.000533	20.743487
462.127334	-2.995900	3.776900	-11.314000	24.105027	0.000533	20.731485
463.124247	-2.988700	3.777500	-11.289000	24.137917	0.000534	20.731755
464.124841	-2.989400	3.777500	-11.292000	24.101661	0.000534	20.730006
465.123433	-2.998400	3.778000	-11.327000	24.053340	0.000534	20.739391
466.124908	-2.991600	3.778100	-11.302000	24.118737	0.000531	20.741917
467.124870	-2.991800	3.777100	-11.299000	24.124264	0.000534	20.740822
468.126308	-2.992900	3.775300	-11.298000	24.113765	0.000534	20.731240
469.125737	-3.009000	3.776500	-11.362000	24.111898	0.000535	20.731739
470.127600	-3.001500	3.774700	-11.329000	24.095555	0.000534	20.726253
471.129331	-3.001500	3.774500	-11.329000	24.127906	0.000534	20.731673
472.128520	-3.005400	3.776500	-11.350000	24.123456	0.000534	20.726260
473.127771	-3.001600	3.775000	-11.330000	24.165425	0.000535	20.710032
474.126713	-3.011100	3.774700	-11.365000	24.177846	0.000535	20.725811
475.130796	-3.016200	3.774000	-11.382000	24.215534	0.000535	20.722835
476.126128	-3.004900	3.774400	-11.340000	24.205517	0.000534	20.724642
477.127489	-3.006200	3.774300	-11.345000	24.183487	0.000533	20.724356
478.128582	-3.002400	3.773200	-11.327000	24.165180	0.000534	20.716425
479.128252	-3.002000	3.774500	-11.330000	24.172394	0.000534	20.731248
480.127747	-3.001400	3.773900	-11.326000	24.159393	0.000534	20.733855
481.127230	-3.000500	3.772700	-11.319000	24.135650	0.000532	20.725688
482.128385	-3.000400	3.773100	-11.320000	24.111938	0.000533	20.707121
483.128062	-3.027900	3.771500	-11.419000	24.112859	0.000533	20.713261
484.129502	-3.006600	3.771800	-11.339000	24.100242	0.000532	20.719573
485.129210	-2.985300	3.772700	-11.261000	24.106436	0.000536	20.712509
486.130812	-3.007700	3.772600	-11.346000	24.125518	0.000535	20.730226
487.131701	-3.009600	3.772000	-11.351000	24.142114	0.000534	20.709411
488.128514	-3.013100	3.769600	-11.356000	24.138861	0.000535	20.720374
489.131227	-2.998500	3.771700	-11.308000	24.157665	0.000534	20.716000
490.129705	-2.988600	3.769800	-11.266000	24.171578	0.000533	20.711462
491.129329	-2.989200	3.770700	-11.270000	24.192346	0.000536	20.723759
492.130256	-2.991100	3.768800	-11.272000	24.166892	0.000534	20.712452
493.131455	-3.004400	3.770000	-11.326000	24.198443	0.000534	20.711855
494.131680	-2.991100	3.769200	-11.273000	24.208313	0.000535	20.696624
495.136732	-3.001500	3.769400	-11.313000	24.242202	0.000536	20.706435
496.133996	-2.987500	3.769500	-11.260000	24.233644	0.000535	20.689789
497.132619	-3.014500	3.767900	-11.357000	24.262300	0.000534	20.722329
498.140544	-2.994300	3.768000	-11.281000	24.238861	0.000533	20.701661
499.133831	-3.002200	3.768900	-11.314000	24.241354	0.000532	20.717440
500.135818	-3.018800	3.767600	-11.372000	24.276530	0.000536	20.673062
501.137866	-3.009300	3.766900	-11.335000	24.314361	0.000534	20.709591
502.134414	-2.995700	3.767700	-11.286000	24.322372	0.000535	20.704351
503.137663	-2.988000	3.767500	-11.256000	24.308762	0.000535	20.700181
504.136592	-2.995000	3.766900	-11.281000	24.284330	0.000535	20.703174
505.138494	-3.007200	3.765200	-11.321000	24.265390	0.000535	20.696503
506.137924	-2.989900	3.765300	-11.258000	24.263426	0.000534	20.709232
507.136810	-2.976200	3.767200	-11.211000	24.265512	0.000535	20.710851
508.136286	-2.989700	3.765200	-11.256000	24.247476	0.000534	20.698449
509.138073	-3.040100	3.763000	-11.439000	24.279987	0.000534	20.702136
510.133682	-2.985900	3.765100	-11.241000	24.242864	0.000533	20.693822
511.135102	-2.993400	3.765600	-11.271000	24.217036	0.000534	20.704426
512.138108	-2.994300	3.765000	-11.273000	24.227166	0.000536	20.703207
513.136068	-3.011600	3.764200	-11.335000	24.248577	0.000535	20.698605
514.135297	-2.983600	3.764800	-11.232000	24.276369	0.000536	20.703723
515.135777	-3.006200	3.764000	-11.315000	24.308585	0.000534	20.688622
516.145742	-3.027300	3.763000	-11.391000	24.325895	0.000535	20.698401
517.139968	-3.033800	3.762000	-11.412000	24.332813	0.000534	20.689693
518.137360	-2.996900	3.763400	-11.278000	24.363227	0.000534	20.708351
519.136706	-3.009700	3.763500	-11.326000	24.377463	0.000534	20.689440
520.138382	-3.016900	3.762600	-11.351000	24.362926	0.000533	20.718481
521.138361	-3.003000	3.762300	-11.298000	24.351786	0.000534	20.704933
522.139034	-3.007300	3.762200	-11.313000	24.376258	0.000535	20.704353
523.137765	-2.995300	3.761200	-11.265000	24.351932	0.000534	20.706029
524.140664	-2.991700	3.761400	-11.253000	24.401438	0.000535	20.699268
525.141304	-2.984900	3.761600	-11.227000	24.403280	0.000535	20.709651
526.143498	-2.988700	3.761900	-11.242000	24.422552	0.000534	20.701484
527.139642	-2.996200	3.760500	-11.265000	24.438279	0.000536	20.698769
528.139383	-2.983500	3.759700	-11.216000	24.388995	0.000533	20.706700
529.142729	-2.993400	3.760500	-11.256000	24.395725	0.000532	20.713926
530.142144	-2.985100	3.761300	-11.226000	24.406938	0.000534	20.680602
531.142969	-3.004100	3.759600	-11.294000	24.416790	0.000533	20.681951
532.139364	-2.991300	3.759400	-11.243000	24.400770	0.000536	20.696226
533.140230	-2.983200	3.758600	-11.212000	24.415926	0.000534	20.698629
534.142286	-2.981800	3.759000	-11.208000	24.435923	0.000537	20.677438
535.140456	-2.986600	3.759300	-11.227000	24.417939	0.000535	20.694959
536.144459	-3.001100	3.758600	-11.279000	24.376901	0.000535	20.685082
537.146689	-3.019300	3.757800	-11.345000	24.349984	0.000535	20.694590
538.142552	-2.998900	3.758200	-11.269000	24.369941	0.000533	20.689954
539.142797	-3.023400	3.756900	-11.357000	24.407858	0.000535	20.694802
540.149441	-3.000300	3.756800	-11.271000	24.447176	0.000534	20.688728
541.143127	-3.029300	3.756300	-11.378000	24.431538	0.000533	20.665451
542.148810	-3.000800	3.757800	-11.276000	24.405267	0.000536	20.662328
543.143046	-3.015500	3.755900	-11.326000	24.415901	0.000535	20.677739
544.147015	-2.995000	3.757500	-11.253000	24.436517	0.000536	20.701743
545.144557	-3.001300	3.756300	-11.272000	24.417490	0.000534	20.681704
546.145278	-2.999700	3.755600	-11.266000	24.460433	0.000535	20.677371
547.145570	-3.004900	3.755900	-11.284000	24.412975	0.000537	20.693297
548.143713	-3.003800	3.755500	-11.280000	24.433721	0.000535	20.667167
549.144188	-3.016200	3.754900	-11.325000	24.421588	0.000534	20.664951
550.146048	-2.995900	3.755300	-11.250000	24.462681	0.000534	20.696224
551.146101	-3.001100	3.754500	-11.266000	24.466763	0.000536	20.678981
552.149889	-2.999500	3.754600	-11.261000	24.468556	0.000534	20.663234
553.153408	-2.986200	3.755500	-11.213000	24.480249	0.000535	20.680182
554.149571	-3.011500	3.752700	-11.301000	24.455404	0.000534	20.692716
555.149441	-2.996600	3.753600	-11.247000	24.450213	0.000536	20.678972
556.148077	-2.979900	3.754400	-11.185000	24.452877	0.000533	20.698716
557.146646	-3.003800	3.753000	-11.272000	24.485194	0.000535	20.689412
558.149188	-3.011300	3.753300	-11.301000	24.477355	0.000538	20.679176
559.148683	-3.000400	3.752500	-11.259000	24.480965	0.000535	20.683746
560.150144	-3.014600	3.751600	-11.309000	24.474601	0.000535	20.678309
561.166340	-2.969500	3.752000	-11.141000	24.497481	0.000534	20.681351
562.147101	-3.000500	3.752600	-11.258000	24.482611	0.000535	20.665007
563.151397	-2.986000	3.751200	-11.200000	24.469378	0.000533	20.682552
564.154616	-3.012200	3.750400	-11.296000	24.489301	0.000535	20.684049
565.149281	-3.006300	3.751600	-11.277000	24.471528	0.000536	20.675226
566.151114	-3.011600	3.750200	-11.293000	24.507267	0.000535	20.690221
567.150191	-2.997300	3.751000	-11.242000	24.486497	0.000535	20.683132
568.153179	-2.996600	3.751200	-11.240000	24.475211	0.000535	20.678447
569.152818	-3.001600	3.750100	-11.255000	24.481502	0.000534	20.691398
570.149400	-2.994300	3.750300	-11.229000	24.506004	0.000533	20.669985
571.151039	-2.982700	3.749400	-11.182000	24.512392	0.000535	20.673076
572.152836	-3.009900	3.749000	-11.283000	24.553384	0.000536	20.684334
573.150093	-2.963800	3.749600	-11.112000	24.554484	0.000535	20.676902
574.152825	-2.994400	3.749300	-11.225000	24.537740	0.000535	20.691872
575.154155	-2.984900	3.748600	-11.188000	24.513337	0.000534	20.690147
576.149522	-2.991700	3.749300	-11.216000	24.465205	0.000535	20.680737
577.153046	-3.008100	3.746800	-11.270000	24.462573	0.000535	20.673828
578.151925	-3.012300	3.747500	-11.288000	24.474095	0.000533	20.666895
579.152852	-3.010400	3.746800	-11.278000	24.486578	0.000535	20.680369
580.155186	-3.000500	3.748400	-11.246000	24.489096	0.000533	20.684317
581.151269	-2.995500	3.747000	-11.223000	24.519261	0.000534	20.689452
582.151170	-3.013600	3.746300	-11.289000	24.502639	0.000534	20.695535
583.152035	-3.004200	3.747100	-11.256000	24.508636	0.000536	20.666462
584.150985	-3.006800	3.747300	-11.267000	24.511202	0.000534	20.685634
585.152843	-3.007000	3.745000	-11.260000	24.500732	0.000535	20.695044
586.153463	-2.989500	3.745900	-11.197000	24.522716	0.000535	20.681064
587.150711	-3.004200	3.745900	-11.253000	24.587947	0.000535	20.686771
588.152706	-2.994600	3.745000	-11.214000	24.625580	0.000535	20.665734
589.154306	-2.997100	3.745600	-11.225000	24.602523	0.000534	20.681007
590.155269	-3.017300	3.744100	-11.296000	24.632293	0.000534	20.684801
591.155036	-2.989100	3.743900	-11.190000	24.623372	0.000535	20.688651
592.164438	-3.015900	3.743300	-11.289000	24.641695	0.000532	20.679535
593.153129	-3.020800	3.742300	-11.304000	24.598148	0.000533	20.697481
594.154105	-2.979900	3.743600	-11.154000	24.559177	0.000534	20.674024
595.155188	-2.982100	3.742400	-11.160000	24.521192	0.000534	20.695184
596.153610	-2.984900	3.743600	-11.173000	24.533031	0.000532	20.683828
597.156147	-3.013400	3.743200	-11.279000	24.533536	0.000533	20.676273
598.158002	-3.002300	3.742900	-11.236000	24.514152	0.000534	20.681007
599.154283	-2.995900	3.743300	-11.214000	24.520467	0.000533	20.673117
600.158719	-3.003400	3.742000	-11.238000	24.566087	0.000533	20.678113
601.157804	-3.020300	3.741400	-11.299000	24.566657	0.000533	20.692437
602.156849	-2.994600	3.741800	-11.204000	24.616496	0.000533	20.715893
603.155678	-3.006600	3.741900	-11.250000	24.624798	0.000533	20.707628
604.156816	-3.003900	3.742000	-11.239000	24.626664	0.000533	20.676306
605.155890	-3.008700	3.740600	-11.254000	24.630021	0.000533	20.689633
606.158329	-2.993500	3.741300	-11.199000	24.621833	0.000533	20.683313
607.155007	-3.004300	3.740100	-11.236000	24.630070	0.000532	20.717185
608.156142	-2.981900	3.740800	-11.154000	24.618346	0.000533	20.691669
609.159852	-2.984600	3.741200	-11.165000	24.665673	0.000533	20.716401
610.156336	-2.996100	3.739400	-11.203000	24.677755	0.000535	20.710981
611.161038	-2.997300	3.739600	-11.207000	24.654601	0.000533	20.702919
612.156464	-2.991900	3.738800	-11.185000	24.639969	0.000534	20.713842
613.157342	-3.001900	3.738200	-11.220000	24.635798	0.000534	20.715346
614.158506	-2.995500	3.740000	-11.203000	24.641240	0.000532	20.697573
615.160096	-3.008400	3.737400	-11.243000	24.693340	0.000533	20.709550
616.157854	-3.005300	3.738200	-11.233000	24.662626	0.000533	20.695799
617.158308	-3.001300	3.738800	-11.220000	24.654121	0.000534	20.696747
618.157549	-3.011300	3.737400	-11.254000	24.619243	0.000532	20.713434
619.156981	-2.988600	3.738800	-11.173000	24.620816	0.000533	20.699838
620.157263	-2.991200	3.736600	-11.176000	24.611683	0.000533	20.696363
621.156259	-3.006700	3.736500	-11.233000	24.612652	0.000531	20.708717
622.161241	-2.998800	3.737100	-11.206000	24.615406	0.000532	20.697729
623.158530	-3.002000	3.735200	-11.212000	24.607373	0.000533	20.700100
624.157908	-3.007400	3.736100	-11.236000	24.592822	0.000532	20.710630
625.158628	-2.982400	3.736800	-11.143000	24.588708	0.000528	20.708399
626.157855	-2.989800	3.735100	-11.166000	24.605972	0.000531	20.718610
627.161669	-2.978100	3.736900	-11.128000	24.629942	0.000531	20.715160
628.160392	-3.007800	3.735500	-11.234000	24.635441	0.000531	20.706927
629.159001	-3.010400	3.735000	-11.243000	24.676323	0.000531	20.715708
630.158144	-2.993100	3.736000	-11.181000	24.682498	0.000531	20.716689
631.158872	-2.995900	3.735300	-11.190000	24.690947	0.000533	20.712838
632.161035	-2.986500	3.735000	-11.154000	24.726189	0.000530	20.711694
633.162441	-3.016300	3.733300	-11.260000	24.745162	0.000531	20.720303
634.162277	-3.002400	3.733900	-11.210000	24.768297	0.000531	20.702267
635.160636	-2.990500	3.733500	-11.164000	24.740853	0.000532	20.718349
636.164027	-2.997200	3.732400	-11.186000	24.711957	0.000532	20.706421
637.161231	-3.010300	3.731800	-11.232000	24.685896	0.000531	20.720098
638.162936	-3.007100	3.732100	-11.223000	24.713994	0.000531	20.716052
639.162615	-2.999800	3.732000	-11.195000	24.724120	0.000531	20.705349
640.162878	-3.016000	3.732000	-11.255000	24.732593	0.000531	20.711956
641.168041	-3.007100	3.732500	-11.223000	24.793485	0.000531	20.704785
642.163522	-3.006500	3.732200	-11.220000	24.817621	0.000530	20.723794
643.167397	-2.998400	3.730200	-11.183000	24.779002	0.000529	20.725339
644.168707	-2.993000	3.730800	-11.165000	24.754856	0.000529	20.732877
645.169415	-3.004200	3.731600	-11.210000	24.730213	0.000530	20.719052
646.167599	-3.009600	3.730300	-11.225000	24.737814	0.000529	20.722887
647.167195	-3.019200	3.730100	-11.262000	24.798666	0.000529	20.716624
648.167161	-2.991500	3.729500	-11.155000	24.805207	0.000530	20.715128
649.172331	-2.993100	3.730800	-11.166000	24.759931	0.000530	20.705251
650.168817	-2.988700	3.729200	-11.145000	24.754482	0.000530	20.722069
651.169591	-2.993300	3.729100	-11.161000	24.742718	0.000530	20.724489
652.172550	-3.012500	3.727600	-11.229000	24.739932	0.000529	20.726909
653.167056	-2.982400	3.728500	-11.118000	24.725652	0.000529	20.728700
654.172946	-3.001100	3.727900	-11.187000	24.693595	0.000530	20.718341
655.169757	-2.982200	3.728800	-11.119000	24.706857	0.000527	20.732125
656.169351	-3.030300	3.728100	-11.296000	24.750319	0.000528	20.730694
657.170163	-3.018900	3.727000	-11.251000	24.800279	0.000530	20.722985
658.170706	-3.013900	3.726500	-11.230000	24.820147	0.000529	20.720164
659.171095	-3.010500	3.728000	-11.222000	24.845351	0.000530	20.739296
660.169809	-3.021000	3.725300	-11.253000	24.827145	0.000528	20.734775
661.170711	-3.001800	3.726700	-11.185000	24.819390	0.000529	20.734104
662.178271	-2.991900	3.725900	-11.145000	24.853358	0.000528	20.754445
663.171371	-3.008400	3.725900	-11.208000	24.893108	0.000530	20.730328
664.176115	-2.991100	3.727200	-11.148000	24.880751	0.000527	20.745428
665.191892	-3.002700	3.726900	-11.190000	24.845791	0.000529	20.716028
666.174134	-2.994900	3.725400	-11.156000	24.842557	0.000528	20.736492
667.170684	-3.007800	3.725100	-11.203000	24.839502	0.000528	20.740539
668.171897	-3.004400	3.724200	-11.189000	24.855093	0.000527	20.734374
669.171912	-2.988000	3.724700	-11.129000	24.844667	0.000527	20.729600
670.171402	-2.986800	3.725100	-11.125000	24.850833	0.000527	20.735789
671.172324	-2.986600	3.725700	-11.127000	24.836986	0.000527	20.727581
672.173781	-3.009400	3.723800	-11.205000	24.853024	0.000526	20.728979
673.174120	-2.994600	3.723900	-11.150000	24.867124	0.000528	20.758304
674.173382	-3.012600	3.723600	-11.217000	24.850075	0.000528	20.746408
675.176405	-2.987500	3.724000	-11.123000	24.830729	0.000527	20.741691
676.172897	-3.025100	3.723600	-11.263000	24.844528	0.000529	20.723770
677.175722	-2.985400	3.722500	-11.113000	24.872231	0.000527	20.727392
678.175829	-3.014800	3.721300	-11.218000	24.906213	0.000526	20.758655
679.175580	-2.989800	3.722800	-11.129000	24.907410	0.000527	20.752270
680.191107	-2.994600	3.722800	-11.147000	24.891194	0.000528	20.742632
681.182874	-2.985200	3.721500	-11.108000	24.875139	0.000525	20.750226
682.178336	-2.975200	3.724100	-11.080000	24.872475	0.000527	20.748501
683.184022	-2.973800	3.722900	-11.070000	24.834761	0.000528	20.739573
684.179965	-2.992200	3.721900	-11.136000	24.788526	0.000524	20.749597
685.174735	-2.998100	3.721600	-11.156000	24.768934	0.000527	20.728038
686.181492	-3.024500	3.720100	-11.251000	24.790888	0.000525	20.755287
687.177654	-3.016800	3.721300	-11.225000	24.780273	0.000526	20.750324
688.188644	-2.976200	3.721300	-11.074000	24.817216	0.000525	20.759898
689.182165	-2.994600	3.719200	-11.136000	24.806618	0.000525	20.746417
690.183566	-2.975500	3.720500	-11.069000	24.829475	0.000524	20.771728
691.180935	-3.001700	3.719200	-11.163000	24.808109	0.000525	20.754552
692.180902	-3.005600	3.719200	-11.178000	24.794342	0.000524	20.741209
693.178525	-2.996000	3.719800	-11.143000	24.823382	0.000524	20.755181
694.180865	-3.004600	3.719200	-11.173000	24.828506	0.000525	20.756056
695.178929	-2.984900	3.720100	-11.103000	24.882136	0.000524	20.740179
696.178491	-3.017900	3.719400	-11.224000	24.886413	0.000525	20.739730
697.183206	-2.993000	3.718000	-11.127000	24.869177	0.000524	20.746614
698.180159	-2.988100	3.718900	-11.112000	24.832400	0.000525	20.744791
699.179419	-2.968900	3.718000	-11.037000	24.854703	0.000524	20.767649
700.185324	-3.001200	3.718700	-11.160000	24.895927	0.000524	20.756392
701.182016	-3.021900	3.716400	-11.229000	24.938623	0.000523	20.754200
702.183668	-2.996500	3.717400	-11.139000	24.967204	0.000523	20.769137
703.182602	-3.015700	3.716000	-11.206000	24.942696	0.000524	20.761608
704.188490	-2.997800	3.717900	-11.145000	24.919344	0.000525	20.756188
705.182298	-2.992900	3.717300	-11.124000	24.938143	0.000526	20.741390
706.186263	-3.010100	3.715900	-11.185000	24.904423	0.000521	20.754487
707.183968	-2.973300	3.717200	-11.052000	24.898200	0.000523	20.771002
708.184472	-3.019700	3.715000	-11.217000	24.891317	0.000523	20.758878
709.183368	-2.990100	3.715900	-11.110000	24.910540	0.000522	20.746402
710.184377	-2.990500	3.715400	-11.110000	24.887212	0.000525	20.763766
711.183829	-3.042700	3.713300	-11.297000	24.916478	0.000522	20.765639
712.185596	-2.991600	3.714700	-11.111000	24.934299	0.000523	20.761241
713.187366	-2.971500	3.715400	-11.040000	24.964288	0.000522	20.763366
714.184984	-2.997300	3.714300	-11.132000	24.888710	0.000523	20.774754
715.185663	-3.005500	3.712000	-11.155000	24.913668	0.000521	20.756654
716.187863	-2.993400	3.714000	-11.117000	24.954474	0.000524	20.772955
717.189672	-3.030200	3.713600	-11.250000	24.950508	0.000521	20.760914
718.191139	-3.004000	3.712500	-11.151000	24.912471	0.000524	20.764936
719.189404	-3.002700	3.712100	-11.145000	24.922171	0.000520	20.781785
720.188193	-3.002900	3.711600	-11.144000	24.952682	0.000520	20.763570
721.187906	-2.997000	3.713100	-11.127000	24.987134	0.000521	20.773021
722.188558	-2.967700	3.713600	-11.020000	25.021398	0.000521	20.775171
723.191773	-2.999400	3.711900	-11.132000	25.002454	0.000520	20.778915
724.190705	-3.003300	3.711700	-11.147000	24.963376	0.000520	20.762924
725.189651	-3.007100	3.710600	-11.157000	24.979332	0.000518	20.779888
726.189721	-2.997100	3.711300	-11.123000	24.952356	0.000520	20.774149
727.191294	-3.028100	3.708800	-11.229000	24.999823	0.000520	20.782438
728.191021	-3.004300	3.710800	-11.147000	24.994847	0.000518	20.783608
729.192826	-2.987500	3.710700	-11.084000	24.989210	0.000521	20.797865
730.190187	-2.974100	3.710800	-11.036000	24.946744	0.000520	20.775628
731.190927	-3.006300	3.708900	-11.149000	24.965077	0.000520	20.787866
732.194660	-2.994900	3.710900	-11.112000	24.980260	0.000519	20.786984
733.190953	-3.004500	3.709200	-11.144000	24.968727	0.000519	20.777778
734.191128	-2.982500	3.709300	-11.062000	24.959678	0.000519	20.775334
735.190499	-3.006700	3.707700	-11.147000	24.972677	0.000519	20.762777
736.191018	-2.997600	3.710100	-11.120000	24.954058	0.000519	20.780124
737.190621	-3.016800	3.708000	-11.185000	24.945726	0.000520	20.780296
738.189869	-3.001500	3.708600	-11.131000	24.919303	0.000517	20.773216
739.190760	-3.011800	3.707800	-11.165000	24.952372	0.000519	20.799769
740.193394	-3.020500	3.706000	-11.193000	24.929444	0.000518	20.759686
741.190403	-2.997000	3.708600	-11.114000	24.934225	0.000518	20.809530
742.190954	-3.022800	3.706900	-11.204000	24.978720	0.000517	20.782593
743.192230	-2.989500	3.708400	-11.086000	24.984747	0.000517	20.798600
744.191236	-2.987900	3.707100	-11.075000	25.017634	0.000516	20.790834
745.195902	-2.980800	3.706600	-11.048000	24.987304	0.000516	20.784571
746.192416	-2.989100	3.706500	-11.078000	24.982735	0.000515	20.784727
747.191837	-3.001000	3.707000	-11.123000	24.982230	0.000516	20.789910
748.198832	-3.010600	3.706500	-11.158000	24.995335	0.000517	20.772243
749.192729	-3.011800	3.705100	-11.158000	24.989715	0.000517	20.779405
750.201687	-3.002800	3.706000	-11.128000	25.011102	0.000516	20.794708
751.194767	-3.013200	3.703800	-11.160000	25.054307	0.000516	20.802990
752.193742	-3.000300	3.705700	-11.117000	25.057736	0.000515	20.810699
753.194395	-2.982600	3.705200	-11.050000	25.064951	0.000515	20.785225
754.195505	-2.998700	3.703400	-11.104000	25.072949	0.000515	20.782822
755.195586	-2.972300	3.705300	-11.012000	25.071735	0.000514	20.799148
756.194580	-2.992600	3.705000	-11.086000	25.123098	0.000514	20.791438
757.194824	-2.980600	3.704600	-11.041000	25.097511	0.000515	20.810323
758.195549	-3.009200	3.703600	-11.144000	25.121380	0.000516	20.790188
759.197104	-3.016400	3.703900	-11.172000	25.139597	0.000515	20.814165
760.197163	-3.018600	3.703300	-11.178000	25.146755	0.000514	20.812342
761.198681	-3.021000	3.702500	-11.185000	25.156845	0.000513	20.819152
762.197304	-3.001200	3.703200	-11.114000	25.101510	0.000513	20.815760
763.196820	-3.005800	3.702700	-11.129000	25.053233	0.000513	20.818980
764.197926	-2.979000	3.703000	-11.030000	25.046661	0.000512	20.812384
765.199042	-2.992300	3.701500	-11.076000	24.985969	0.000513	20.821164
766.199197	-3.013900	3.700800	-11.152000	25.007259	0.000512	20.814558
767.198898	-3.006100	3.700600	-11.123000	25.033883	0.000514	20.793867
768.199086	-2.999000	3.702400	-11.103000	25.030055	0.000515	20.823690
769.199396	-3.014700	3.700800	-11.156000	25.020502	0.000512	20.825006
770.198099	-3.013500	3.700700	-11.151000	25.014711	0.000511	20.791693
771.202169	-3.017300	3.701800	-11.168000	25.065588	0.000514	20.824271
772.201341	-3.006600	3.701100	-11.127000	25.110167	0.000512	20.798372
773.199187	-3.014300	3.699400	-11.149000	25.083244	0.000513	20.831088
774.198316	-2.999600	3.699700	-11.096000	25.059928	0.000509	20.820960
775.197629	-2.995300	3.700200	-11.082000	25.102708	0.000512	20.807479
776.199697	-2.996300	3.700500	-11.087000	25.080036	0.000512	20.810799
777.200908	-2.991000	3.699500	-11.064000	25.053910	0.000510	20.827720
778.198853	-2.983600	3.700000	-11.039000	25.068650	0.000510	20.819758
779.200107	-3.003700	3.698100	-11.107000	25.043493	0.000509	20.818687
780.203555	-3.004500	3.699100	-11.113000	25.042622	0.000509	20.827295
781.200898	-3.001700	3.697700	-11.099000	25.046743	0.000509	20.814363
782.206749	-2.997400	3.697700	-11.082000	25.073838	0.000510	20.813112
783.203083	-3.002200	3.698900	-11.104000	25.103522	0.000509	20.816832
784.204971	-3.003100	3.698900	-11.107000	25.125201	0.000510	20.839067
785.204338	-3.017400	3.696000	-11.151000	25.124655	0.000509	20.834727
786.204480	-3.023700	3.696700	-11.177000	25.128213	0.000509	20.818385
787.203662	-3.018000	3.696900	-11.156000	25.075263	0.000510	20.825448
788.208168	-3.014200	3.696200	-11.140000	25.069416	0.000510	20.818630
789.204098	-2.981000	3.696600	-11.018000	25.088538	0.000509	20.824549
790.205584	-3.004300	3.696600	-11.104000	25.139297	0.000508	20.818132
791.206552	-3.013200	3.695500	-11.135000	25.140518	0.000508	20.833108
792.207941	-2.998900	3.696700	-11.085000	25.167408	0.000508	20.822644
793.209422	-2.997400	3.695600	-11.076000	25.144867	0.000507	20.844585
794.207802	-2.996500	3.696000	-11.074000	25.105118	0.000507	20.858736
795.207402	-2.996200	3.695900	-11.072000	25.061932	0.000509	20.810643
796.207147	-3.009800	3.695400	-11.121000	25.076428	0.000508	20.843212
797.207312	-2.986800	3.695800	-11.038000	25.059269	0.000505	20.846376
798.209673	-3.000900	3.694300	-11.086000	25.057827	0.000507	20.826912
799.207895	-3.001200	3.694800	-11.088000	25.024689	0.000506	20.823519
800.208523	-2.993400	3.694600	-11.058000	25.045172	0.000505	20.854510
801.207658	-2.998500	3.695400	-11.080000	25.090818	0.000505	20.822097
802.207253	-3.022800	3.692200	-11.160000	25.131365	0.000505	20.850471
803.210312	-2.994600	3.694300	-11.062000	25.168825	0.000506	20.842558
804.209244	-2.984200	3.693600	-11.021000	25.197358	0.000507	20.824737
805.208695	-2.988400	3.692800	-11.035000	25.241883	0.000505	20.841937
806.209207	-2.989600	3.693800	-11.042000	25.198205	0.000506	20.839812
807.209501	-2.994300	3.693000	-11.057000	25.205184	0.000505	20.843973
808.208889	-3.001800	3.691800	-11.081000	25.201389	0.000507	20.836370
809.211420	-3.024200	3.691700	-11.162000	25.166691	0.000505	20.835675
810.209313	-3.011300	3.691200	-11.114000	25.166691	0.000503	20.840416
811.211700	-3.017000	3.691400	-11.135000	25.182529	0.000504	20.833557
812.211032	-3.003900	3.690500	-11.085000	25.199549	0.000503	20.832626
813.212228	-2.998600	3.691300	-11.068000	25.185265	0.000504	20.818287
814.214550	-2.990800	3.691800	-11.041000	25.207512	0.000504	20.825922
815.212850	-2.971100	3.691100	-10.966000	25.203261	0.000502	20.831612
816.212317	-2.988700	3.691400	-11.031000	25.194963	0.000504	20.835609
817.214737	-3.012200	3.690900	-11.117000	25.151365	0.000503	20.807961
818.217778	-3.017200	3.690700	-11.134000	25.150095	0.000507	20.822807
819.215034	-3.009700	3.690200	-11.106000	25.179280	0.000505	20.811329
820.214847	-2.990900	3.690500	-11.037000	25.163539	0.000503	20.820657
821.222221	-2.994100	3.689600	-11.046000	25.142513	0.000501	20.834636
822.213451	-3.016900	3.688700	-11.127000	25.128759	0.000501	20.812769
823.214602	-2.961000	3.690100	-10.925000	25.102414	0.000503	20.807185
824.214723	-2.978700	3.687800	-10.984000	25.115982	0.000499	20.811796
825.216226	-2.973600	3.688800	-10.968000	25.147131	0.000501	20.814616
826.214047	-3.001600	3.687700	-11.068000	25.194410	0.000500	20.818933
827.215090	-2.996300	3.686800	-11.045000	25.190607	0.000502	20.805632
828.222478	-2.998300	3.687900	-11.056000	25.219571	0.000500	20.816218
829.216504	-3.024100	3.686300	-11.147000	25.181951	0.000499	20.817805
830.220813	-3.000900	3.687100	-11.064000	25.220036	0.000501	20.810995
831.215658	-3.027300	3.685700	-11.157000	25.224678	0.000500	20.812810
832.215314	-2.993900	3.688000	-11.039000	25.189305	0.000501	20.812859
833.216018	-3.006600	3.686800	-11.084000	25.157262	0.000500	20.800131
834.215668	-2.969900	3.686900	-10.949000	25.185152	0.000499	20.821966
835.216391	-3.011000	3.684600	-11.093000	25.209207	0.000498	20.792062
836.217986	-2.990000	3.685700	-11.019000	25.186765	0.000499	20.808412
837.218118	-3.016200	3.683000	-11.107000	25.214744	0.000499	20.807105
838.217537	-3.002100	3.686200	-11.065000	25.203287	0.000497	20.803189
839.220253	-2.985600	3.685600	-11.003000	25.232691	0.000500	20.803312
840.217376	-3.021000	3.684300	-11.130000	25.198361	0.000498	20.812942
841.220643	-3.019000	3.684600	-11.123000	25.194232	0.000498	20.799314
842.217978	-3.013800	3.682500	-11.097000	25.211903	0.000497	20.802830
843.217811	-2.993800	3.684700	-11.030000	25.201561	0.000496	20.802879
844.218633	-3.012900	3.684600	-11.099000	25.240418	0.000497	20.785940
845.218155	-3.021900	3.683200	-11.129000	25.237161	0.000496	20.798317
846.219114	-3.002200	3.682700	-11.055000	25.281449	0.000496	20.800108
847.219374	-2.970600	3.683300	-10.941000	25.297058	0.000497	20.807244
848.218759	-2.995200	3.682900	-11.030000	25.308668	0.000495	20.795194
849.219445	-2.956800	3.683900	-10.891000	25.238270	0.000496	20.780463
850.219334	-3.010700	3.682500	-11.086000	25.211203	0.000494	20.798334
851.221264	-3.021900	3.681500	-11.124000	25.249905	0.000494	20.801154
852.222746	-3.006100	3.681700	-11.067000	25.257339	0.000495	20.811463
853.221779	-3.000000	3.682400	-11.046000	25.234092	0.000495	20.805193
854.219847	-2.999700	3.682000	-11.045000	25.238106	0.000496	20.797843
855.223002	-2.985500	3.681500	-10.990000	25.231616	0.000493	20.781370
856.221395	-3.001300	3.680200	-11.044000	25.240182	0.000492	20.774796
857.224597	-3.003200	3.681300	-11.055000	25.272760	0.000493	20.800867
858.222130	-2.996700	3.680000	-11.027000	25.235598	0.000493	20.785842
859.221806	-2.995300	3.679500	-11.020000	25.204036	0.000495	20.776440
860.226530	-2.999200	3.678900	-11.032000	25.215843	0.000493	20.797303
861.221914	-3.005000	3.679500	-11.056000	25.213115	0.000491	20.773227
862.226263	-2.993700	3.679600	-11.015000	25.203914	0.000491	20.790068
863.227528	-2.989400	3.679600	-10.999000	25.198034	0.000493	20.766621
864.225210	-2.967900	3.679100	-10.918000	25.233186	0.000492	20.785317
865.223854	-2.997700	3.678600	-11.027000	25.220875	0.000491	20.783388
866.226842	-2.999000	3.677300	-11.027000	25.190859	0.000493	20.774591
867.225342	-2.990300	3.679000	-11.000000	25.205598	0.000492	20.781801
868.227221	-3.003900	3.678800	-11.050000	25.228268	0.000490	20.785595
869.225131	-2.991400	3.678600	-11.003000	25.226477	0.000490	20.768149
870.224809	-3.007800	3.677900	-11.061000	25.208635	0.000492	20.801920
871.227392	-3.015000	3.677200	-11.086000	25.258477	0.000490	20.793164
872.227221	-2.999400	3.677100	-11.028000	25.256840	0.000489	20.770184
873.228885	-3.011700	3.675700	-11.069000	25.241426	0.000489	20.767037
874.226485	-2.987500	3.676200	-10.982000	25.232135	0.000489	20.761502
875.226780	-3.011700	3.676500	-11.072000	25.186575	0.000488	20.771712
876.226722	-2.987400	3.676700	-10.983000	25.190899	0.000491	20.759458
877.227612	-3.004700	3.674700	-11.040000	25.222054	0.000488	20.764657
878.226225	-3.012200	3.674300	-11.065000	25.260112	0.000489	20.775840
879.228676	-2.985100	3.675500	-10.971000	25.275843	0.000488	20.776462
880.227302	-3.004500	3.673000	-11.034000	25.295385	0.000488	20.768106
881.226454	-3.008600	3.674600	-11.054000	25.271332	0.000488	20.783312
882.228408	-2.992300	3.673900	-10.993000	25.275086	0.000489	20.766217
883.226512	-3.008400	3.674200	-11.053000	25.244763	0.000489	20.760429
884.231209	-3.021500	3.672600	-11.096000	25.248125	0.000488	20.777082
885.228504	-3.003000	3.672700	-11.028000	25.270224	0.000488	20.741895
886.226244	-3.005400	3.672900	-11.037000	25.245096	0.000486	20.758393
887.230271	-3.005400	3.672500	-11.037000	25.267195	0.000485	20.780106
888.229882	-2.975600	3.673500	-10.930000	25.314249	0.000486	20.762390
889.238091	-2.982400	3.673200	-10.954000	25.315071	0.000486	20.776493
890.235470	-3.005500	3.672800	-11.038000	25.371470	0.000486	20.772904
891.231404	-3.009300	3.672900	-11.052000	25.361211	0.000485	20.746481
892.232186	-3.014300	3.671600	-11.066000	25.348607	0.000484	20.778397
893.234696	-3.003200	3.672600	-11.029000	25.333301	0.000484	20.764450
894.231962	-3.006900	3.672100	-11.041000	25.301514	0.000483	20.757664
895.234400	-3.017100	3.670500	-11.073000	25.254491	0.000484	20.766404
896.232037	-3.003100	3.671300	-11.025000	25.289715	0.000484	20.754827
897.229926	-3.016900	3.671100	-11.075000	25.315168	0.000485	20.751459
898.234605	-3.004000	3.670900	-11.025000	25.314451	0.000483	20.746472
899.234217	-2.991900	3.670700	-10.982000	25.317138	0.000481	20.755334
900.236310	-2.979500	3.669100	-10.932000	25.256119	0.000481	20.733898
901.234349	-2.986500	3.669400	-10.958000	25.266989	0.000480	20.744811
902.234824	-3.024100	3.667300	-11.089000	25.288216	0.000482	20.738148
903.234867	-3.010600	3.669100	-11.045000	25.278421	0.000481	20.764351
904.234345	-2.999600	3.669400	-11.005000	25.260605	0.000481	20.772542
905.237426	-2.991200	3.669700	-10.975000	25.308303	0.000481	20.752153
906.234886	-3.001000	3.668000	-11.006000	25.305697	0.000482	20.765184
907.237206	-2.992000	3.668300	-10.974000	25.325084	0.000478	20.752406
908.236942	-3.019200	3.666700	-11.069000	25.338681	0.000481	20.740928
909.235590	-3.008300	3.667800	-11.033000	25.294168	0.000479	20.757401
910.238044	-3.016000	3.667100	-11.059000	25.292954	0.000481	20.740061
911.234998	-3.016600	3.667100	-11.062000	25.264920	0.000480	20.744631
912.235816	-3.010200	3.666800	-11.037000	25.244385	0.000478	20.747721
913.236376	-2.995400	3.666800	-10.983000	25.236144	0.000478	20.754146
914.235808	-3.006300	3.666900	-11.022000	25.276458	0.000478	20.769017
915.239567	-2.990500	3.666600	-10.963000	25.320499	0.000478	20.756338
916.236830	-2.973800	3.666100	-10.901000	25.332256	0.000479	20.745383
917.236889	-2.991200	3.665200	-10.961000	25.375383	0.000477	20.740796
918.236342	-2.973000	3.666000	-10.898000	25.320979	0.000478	20.756820
919.238396	-3.009900	3.663100	-11.025000	25.321256	0.000476	20.740027
920.237716	-2.980400	3.666300	-10.926000	25.333810	0.000478	20.743150
921.239389	-3.005600	3.664400	-11.012000	25.351080	0.000478	20.741523
922.238822	-2.989300	3.664200	-10.953000	25.347774	0.000475	20.737256
923.238630	-2.998300	3.664200	-10.985000	25.323169	0.000475	20.751432
924.239374	-3.001000	3.664400	-10.996000	25.329658	0.000476	20.735187
925.239336	-3.032300	3.663400	-11.108000	25.358106	0.000476	20.716809
926.242415	-3.025900	3.662500	-11.082000	25.374536	0.000477	20.731411
927.240663	-2.990800	3.663600	-10.956000	25.363878	0.000478	20.731615
928.240624	-3.007200	3.663200	-11.014000	25.314262	0.000476	20.734902
929.244099	-2.999500	3.662200	-10.984000	25.318235	0.000474	20.725140
930.247562	-3.006300	3.660900	-11.005000	25.299948	0.000474	20.737599
931.243351	-3.004600	3.661800	-11.002000	25.300469	0.000473	20.738123
932.242877	-2.983700	3.662200	-10.926000	25.274789	0.000472	20.734150
933.245074	-2.982900	3.661700	-10.922000	25.255255	0.000474	20.724968
934.246098	-2.994200	3.660800	-10.960000	25.282785	0.000474	20.755929
935.243133	-2.979700	3.662600	-10.912000	25.330351	0.000475	20.737306
936.243634	-2.976100	3.661900	-10.896000	25.381807	0.000473	20.765265
937.243902	-2.992400	3.661400	-10.955000	25.374146	0.000473	20.751409
938.244143	-2.996500	3.660400	-10.968000	25.405857	0.000474	20.746740
939.245387	-2.986700	3.660200	-10.931000	25.363488	0.000472	20.735965
940.244337	-3.007000	3.660100	-11.005000	25.367087	0.000473	20.732466
941.246106	-3.004700	3.659300	-10.994000	25.335749	0.000471	20.742252
942.246767	-3.007900	3.658200	-11.002000	25.356918	0.000471	20.720358
943.246447	-3.022800	3.658900	-11.059000	25.400663	0.000471	20.742473
944.246496	-3.010200	3.657700	-11.009000	25.361461	0.000469	20.728239
945.248267	-3.010300	3.658000	-11.011000	25.328365	0.000470	20.715395
946.243763	-3.011600	3.658300	-11.016000	25.350535	0.000469	20.737183
947.250771	-2.992900	3.657200	-10.945000	25.293468	0.000471	20.726825
948.247442	-3.017200	3.657300	-11.034000	25.285016	0.000468	20.736358
949.247462	-2.998500	3.657700	-10.966000	25.264717	0.000468	20.741581
950.261761	-3.019600	3.657500	-11.043000	25.285114	0.000469	20.714169
951.246432	-3.005500	3.655900	-10.987000	25.297302	0.000469	20.733520
952.248795	-3.014600	3.656200	-11.021000	25.320190	0.000468	20.734216
953.250718	-3.010400	3.655700	-11.004000	25.384111	0.000470	20.707359
954.249165	-2.992800	3.656500	-10.942000	25.407722	0.000466	20.736758
955.248177	-3.003900	3.655100	-10.979000	25.428450	0.000467	20.726751
956.251342	-3.008500	3.654900	-10.994000	25.450992	0.000466	20.719042
957.249591	-2.992400	3.654900	-10.936000	25.455885	0.000466	20.731542
958.249873	-2.991100	3.655700	-10.934000	25.478183	0.000466	20.730700
959.248402	-2.980300	3.655600	-10.894000	25.468886	0.000467	20.722786
960.249836	-2.992700	3.654800	-10.938000	25.467511	0.000466	20.716663
961.252840	-2.990100	3.652500	-10.920000	25.476954	0.000464	20.730414
962.249879	-3.001000	3.653900	-10.965000	25.426260	0.000464	20.699895
963.253806	-3.018800	3.653500	-11.028000	25.456984	0.000463	20.738810
964.252114	-3.013400	3.653000	-11.007000	25.432415	0.000464	20.731208
965.263041	-2.990900	3.652800	-10.924000	25.391814	0.000463	20.735009
966.253811	-3.005400	3.652900	-10.978000	25.409701	0.000465	20.731158
967.258706	-3.032600	3.652600	-11.076000	25.399491	0.000462	20.713793
968.259645	-2.976300	3.653500	-10.872000	25.407486	0.000460	20.724667
969.252869	-2.986500	3.651400	-10.904000	25.392156	0.000461	20.705479
970.253885	-2.983400	3.652900	-10.897000	25.395730	0.000460	20.731829
971.256769	-2.989200	3.651200	-10.913000	25.423590	0.000458	20.719974
972.254192	-2.986200	3.652100	-10.905000	25.465167	0.000461	20.719525
973.258345	-3.028700	3.651600	-11.059000	25.471679	0.000461	20.718004
974.256852	-2.994700	3.651800	-10.934000	25.470752	0.000460	20.717547
975.254708	-3.010500	3.650300	-10.988000	25.497250	0.000459	20.723768
976.255750	-2.961800	3.652200	-10.816000	25.484843	0.000458	20.721741
977.262659	-3.010900	3.649800	-10.988000	25.488596	0.000458	20.724561
978.254919	-2.995100	3.649600	-10.930000	25.430543	0.000458	20.718421
979.258871	-2.999500	3.648800	-10.943000	25.461259	0.000457	20.717023
980.255594	-3.002100	3.648300	-10.952000	25.475148	0.000457	20.712952
981.255175	-3.000700	3.648500	-10.947000	25.465875	0.000460	20.704589
982.255985	-3.017100	3.646600	-11.000000	25.443536	0.000455	20.703493
983.259137	-3.000400	3.648800	-10.947000	25.436087	0.000458	20.719247
984.256366	-2.992000	3.647400	-10.912000	25.401519	0.000457	20.700655
985.257694	-3.007100	3.648000	-10.969000	25.409847	0.000456	20.720400
986.256825	-3.011600	3.647400	-10.983000	25.386400	0.000455	20.714873
987.256634	-3.003300	3.648100	-10.955000	25.385219	0.000456	20.717007
988.256684	-3.020900	3.646900	-11.016000	25.356935	0.000454	20.707572
989.257562	-3.022500	3.645900	-11.019000	25.389599	0.000453	20.706231
990.257943	-3.008300	3.645300	-10.964000	25.392107	0.000454	20.707801
991.260496	-2.997000	3.646900	-10.929000	25.402194	0.000455	20.719827
992.257830	-2.983400	3.645300	-10.874000	25.415367	0.000454	20.711243
993.259521	-2.981100	3.645600	-10.867000	25.414821	0.000454	20.694098
994.258100	-2.997800	3.644000	-10.923000	25.396812	0.000451	20.699723
995.262673	-3.006400	3.644500	-10.955000	25.345911	0.000455	20.693182
996.258377	-2.989800	3.644500	-10.895000	25.349094	0.000453	20.689266
997.258804	-3.011400	3.643500	-10.971000	25.355852	0.000453	20.693207
998.262248	-2.989400	3.645200	-10.896000	25.371988	0.000453	20.714627
999.257814	-2.999100	3.645500	-10.932000	25.375766	0.000452	20.695659
1000.257051	-2.997700	3.643700	-10.922000	25.378763	0.000450	20.710523
1001.263589	-2.993400	3.643600	-10.906000	25.385007	0.000451	20.685971
1002.262562	-2.996000	3.643000	-10.913000	25.433465	0.000451	20.713769
1003.261606	-2.990200	3.644000	-10.895000	25.390812	0.000451	20.695120
1004.264173	-2.987900	3.641700	-10.880000	25.405556	0.000452	20.708029
1005.260219	-3.004000	3.642500	-10.941000	25.389844	0.000449	20.679447
1006.261261	-2.981300	3.644200	-10.863000	25.365117	0.000451	20.690656
1007.261026	-2.993700	3.642600	-10.904000	25.389770	0.000448	20.688857
1008.261595	-2.993700	3.641700	-10.901000	25.380269	0.000448	20.703975
1009.261798	-2.993800	3.642200	-10.902000	25.431072	0.000447	20.686707
1010.259593	-3.008600	3.641400	-10.955000	25.401079	0.000448	20.693101
1011.262408	-3.021300	3.639700	-10.996000	25.431348	0.000446	20.679398
1012.263324	-2.987000	3.640500	-10.873000	25.468675	0.000449	20.696020
1013.262137	-3.008000	3.640100	-10.948000	25.440263	0.000447	20.673177
1014.264708	-3.000600	3.638800	-10.917000	25.391700	0.000448	20.686054
1015.263857	-2.994600	3.639400	-10.897000	25.405769	0.000445	20.670781
1016.264502	-3.008900	3.639300	-10.949000	25.364662	0.000448	20.704424
1017.266709	-3.022600	3.639000	-10.998000	25.371021	0.000447	20.682358
1018.264875	-2.999200	3.638700	-10.912000	25.402235	0.000446	20.689046
1019.264588	-2.995700	3.638300	-10.898000	25.471549	0.000446	20.689422
1020.266887	-2.979200	3.638200	-10.838000	25.426009	0.000446	20.665500
1021.266397	-2.995300	3.637800	-10.895000	25.414089	0.000443	20.690044
1022.269746	-3.021100	3.636600	-10.984000	25.385138	0.000444	20.678990
1023.268304	-3.021900	3.635800	-10.986000	25.420350	0.000441	20.696805
1024.269557	-3.009900	3.637900	-10.948000	25.379692	0.000443	20.699127
1025.267460	-3.011900	3.636400	-10.952000	25.402455	0.000442	20.678835
1026.270732	-3.006800	3.635300	-10.929000	25.434239	0.000442	20.677085
1027.270749	-2.997200	3.636000	-10.897000	25.466095	0.000442	20.702913
1028.271061	-3.018300	3.634700	-10.969000	25.508118	0.000442	20.680151
1029.268331	-3.001600	3.634900	-10.909000	25.513141	0.000443	20.681402
1030.268338	-3.013600	3.634400	-10.952000	25.510951	0.000440	20.674461
1031.270294	-2.993600	3.635700	-10.883000	25.486993	0.000440	20.711097
1032.266691	-3.024400	3.634400	-10.990000	25.453469	0.000440	20.687387
1033.268724	-3.011200	3.634500	-10.943000	25.454934	0.000441	20.691704
1034.268517	-2.993000	3.634200	-10.876000	25.374734	0.000438	20.687510
1035.267863	-3.015500	3.634500	-10.958000	25.390846	0.000438	20.687092
1036.267840	-2.993600	3.632400	-10.873000	25.396659	0.000438	20.691033
1037.266989	-3.002200	3.634500	-10.911000	25.426782	0.000439	20.700419
1038.275241	-2.964600	3.633900	-10.772000	25.402847	0.000437	20.710524
1039.270625	-2.972800	3.634300	-10.803000	25.351001	0.000439	20.696871
1040.270549	-2.989200	3.633600	-10.861000	25.369368	0.000437	20.693028
1041.273334	-2.994500	3.632300	-10.876000	25.397139	0.000439	20.689144
1042.269935	-2.986600	3.631700	-10.846000	25.445271	0.000439	20.686267
1043.273163	-2.995900	3.632300	-10.881000	25.466225	0.000438	20.685024
1044.272839	-3.016400	3.631700	-10.953000	25.439629	0.000437	20.713320
1045.271820	-3.015800	3.629700	-10.945000	25.466966	0.000437	20.697149
1046.272631	-3.025600	3.630800	-10.985000	25.481880	0.000437	20.686994
1047.273923	-2.998500	3.630900	-10.886000	25.492204	0.000436	20.697836
1048.277191	-2.996800	3.630800	-10.879000	25.495125	0.000434	20.694606
1049.277741	-3.005500	3.629600	-10.908000	25.529373	0.000436	20.677788
1050.278241	-2.989000	3.630800	-10.852000	25.540623	0.000434	20.689087
1051.276804	-2.982700	3.629900	-10.826000	25.540875	0.000436	20.672744
1052.278237	-2.998100	3.629800	-10.881000	25.565573	0.000434	20.666726
1053.277041	-3.011000	3.627600	-10.922000	25.558980	0.000433	20.695195
1054.277718	-2.982300	3.628300	-10.819000	25.594690	0.000434	20.695023
1055.275130	-2.989200	3.627700	-10.843000	25.606102	0.000434	20.677085
1056.275214	-2.992500	3.628100	-10.855000	25.594536	0.000432	20.703404
1057.278812	-2.984400	3.627500	-10.825000	25.508330	0.000434	20.660922
1058.274325	-2.996500	3.626800	-10.867000	25.507223	0.000433	20.687788
1059.281246	-3.000400	3.627800	-10.883000	25.469751	0.000432	20.692358
1060.280558	-3.017100	3.627100	-10.942000	25.484136	0.000431	20.692579
1061.277551	-3.003200	3.625700	-10.888000	25.461772	0.000430	20.682923
1062.280318	-3.016100	3.624500	-10.931000	25.472087	0.000431	20.706559
1063.279833	-3.006400	3.625800	-10.899000	25.457938	0.000433	20.693298
1064.280085	-3.022700	3.624100	-10.954000	25.439279	0.000429	20.705382
1065.285606	-2.989500	3.626100	-10.839000	25.397880	0.000430	20.690363
1066.278441	-2.994700	3.624200	-10.853000	25.409017	0.000429	20.690166
1067.280046	-2.966200	3.626000	-10.754000	25.447891	0.000427	20.699331
1068.285587	-3.004600	3.623200	-10.886000	25.469555	0.000428	20.683152
1069.279812	-2.975400	3.623900	-10.781000	25.453729	0.000428	20.688596
1070.281538	-2.999000	3.622600	-10.863000	25.463026	0.000430	20.696985
1071.280178	-2.990400	3.624400	-10.838000	25.535689	0.000427	20.707842
1072.282501	-3.009600	3.623700	-10.905000	25.582309	0.000425	20.682587
1073.280560	-2.968000	3.624200	-10.756000	25.576188	0.000427	20.684500
1074.280490	-2.981400	3.622400	-10.799000	25.566305	0.000426	20.672204
1075.282799	-3.016200	3.621900	-10.924000	25.559842	0.000426	20.678516
1076.284501	-2.994500	3.621700	-10.844000	25.549837	0.000425	20.695496
1077.284066	-3.000700	3.621200	-10.865000	25.561934	0.000425	20.688204
1078.283790	-3.021100	3.620300	-10.936000	25.552638	0.000424	20.695464
1079.282541	-3.011000	3.620900	-10.902000	25.518920	0.000425	20.674403
1080.283750	-2.996300	3.621200	-10.849000	25.550700	0.000423	20.691621
1081.284685	-2.973200	3.620900	-10.764000	25.611164	0.000423	20.673634
1082.284406	-3.005000	3.619600	-10.875000	25.555820	0.000424	20.687754
1083.285345	-3.014100	3.617500	-10.902000	25.526930	0.000424	20.693828
1084.290341	-2.990800	3.619700	-10.824000	25.535315	0.000423	20.716001
1085.287744	-2.999200	3.618400	-10.852000	25.521777	0.000422	20.703353
1086.289358	-2.988400	3.619300	-10.815000	25.536739	0.000421	20.703206
1087.291216	-3.016100	3.617500	-10.909000	25.555063	0.000422	20.692209
1088.288371	-3.017800	3.617200	-10.914000	25.526930	0.000422	20.705683
1089.287917	-2.999700	3.618500	-10.854000	25.515020	0.000423	20.704154
1090.293736	-2.999700	3.617900	-10.852000	25.492682	0.000419	20.712068
1091.295895	-3.003000	3.617900	-10.863000	25.455699	0.000420	20.687729
1092.289609	-3.000700	3.617400	-10.854000	25.459907	0.000421	20.705233
1093.291054	-3.007900	3.616600	-10.878000	25.452743	0.000419	20.694245
1094.291335	-2.981200	3.616800	-10.781000	25.492007	0.000421	20.724193
1095.289902	-3.003600	3.616700	-10.862000	25.520938	0.000419	20.695872
1096.295406	-2.995200	3.617300	-10.833000	25.555999	0.000416	20.695995
1097.290124	-3.008100	3.615600	-10.875000	25.594437	0.000418	20.696191
1098.285881	-3.005100	3.615000	-10.863000	25.538726	0.000418	20.701407
1099.299546	-2.973900	3.615600	-10.750000	25.532864	0.000417	20.693624
1100.291833	-3.016000	3.614100	-10.899000	25.518130	0.000418	20.708700
1101.289241	-2.986200	3.614400	-10.793000	25.533263	0.000418	20.687386
1102.293305	-3.024800	3.613600	-10.929000	25.517039	0.000416	20.693853
1103.292611	-2.996800	3.612800	-10.826000	25.524895	0.000416	20.679455
1104.289866	-2.994200	3.613100	-10.817000	25.540744	0.000417	20.696322
1105.288851	-3.018000	3.614500	-10.907000	25.590489	0.000414	20.698390
1106.297347	-2.985400	3.613400	-10.787000	25.572223	0.000414	20.705176
1107.288799	-3.017800	3.611800	-10.899000	25.549333	0.000417	20.719173
1108.290926	-2.983600	3.612800	-10.779000	25.566085	0.000413	20.715609
1109.293378	-2.994200	3.612700	-10.816000	25.518391	0.000414	20.715601
1110.292247	-2.985900	3.611400	-10.782000	25.509200	0.000415	20.730080
1111.299294	-2.979800	3.612000	-10.762000	25.504552	0.000411	20.708341
1112.295708	-3.020000	3.610800	-10.904000	25.500701	0.000414	20.732450
1113.297262	-2.983600	3.611500	-10.775000	25.557530	0.000413	20.703697
1114.296567	-3.011700	3.608900	-10.868000	25.571572	0.000413	20.699781
1115.298851	-3.038500	3.609600	-10.967000	25.563041	0.000412	20.713026
1116.292194	-2.980400	3.610400	-10.760000	25.518432	0.000410	20.710426
1117.291124	-3.008500	3.609600	-10.859000	25.552207	0.000409	20.717792
1118.297758	-2.989100	3.609200	-10.787000	25.569204	0.000410	20.742450
1119.302426	-3.002000	3.608000	-10.830000	25.547306	0.000410	20.710026
1120.296607	-2.996200	3.608400	-10.810000	25.558760	0.000408	20.706829
1121.294240	-3.013200	3.608000	-10.871000	25.551955	0.000409	20.723703
1122.295626	-2.986500	3.607600	-10.773000	25.513532	0.000409	20.699340
1123.297995	-2.986200	3.608500	-10.774000	25.505904	0.000407	20.729614
1124.296717	-2.973800	3.608500	-10.730000	25.532141	0.000409	20.710443
1125.293983	-3.020800	3.606700	-10.893000	25.539573	0.000407	20.731658
1126.300988	-2.988300	3.606600	-10.777000	25.549090	0.000409	20.717981
1127.302244	-3.019300	3.605100	-10.883000	25.551117	0.000406	20.724285
1128.296093	-2.978700	3.607200	-10.743000	25.579648	0.000407	20.727808
1129.300166	-2.991600	3.606800	-10.789000	25.594487	0.000407	20.693396
1130.300908	-3.008800	3.605300	-10.847000	25.614479	0.000409	20.719167
1131.300420	-2.991200	3.605600	-10.784000	25.645443	0.000406	20.713280
1132.299113	-2.998500	3.605000	-10.809000	25.597402	0.000406	20.716714
1133.303060	-2.999000	3.604600	-10.810000	25.598851	0.000407	20.720066
1134.300604	-3.003500	3.604200	-10.824000	25.575115	0.000406	20.741274
1135.299063	-3.005100	3.603500	-10.829000	25.531450	0.000405	20.724449
1136.299568	-3.024200	3.603800	-10.898000	25.549360	0.000404	20.724416
1137.297592	-3.016800	3.602700	-10.868000	25.525907	0.000403	20.741168
1138.303163	-2.999000	3.602400	-10.802000	25.554179	0.000404	20.722144
1139.306350	-2.998000	3.603100	-10.801000	25.512483	0.000402	20.734325
1140.302760	-3.000700	3.602500	-10.809000	25.501543	0.000402	20.712905
1141.298829	-3.004100	3.601700	-10.819000	25.538256	0.000403	20.715161
1142.303404	-3.004500	3.601100	-10.818000	25.575726	0.000402	20.732878
1143.303533	-2.996100	3.602300	-10.792000	25.599381	0.000402	20.720598
1144.305799	-3.015200	3.600600	-10.856000	25.622783	0.000402	20.739361
1145.304989	-3.000200	3.600300	-10.801000	25.623206	0.000403	20.733622
1146.302009	-2.997600	3.601800	-10.796000	25.657873	0.000399	20.744732
1147.301647	-3.004000	3.600900	-10.817000	25.685645	0.000399	20.728529
1148.306722	-3.001100	3.599900	-10.803000	25.696681	0.000402	20.730131
1149.306070	-2.990100	3.599000	-10.760000	25.647983	0.000400	20.732903
1150.305474	-2.997500	3.599800	-10.789000	25.680085	0.000400	20.728635
1151.306958	-3.018900	3.599400	-10.865000	25.678612	0.000397	20.711982
1152.307209	-3.005300	3.598700	-10.813000	25.696852	0.000398	20.732674
1153.305473	-3.027800	3.597300	-10.891000	25.692848	0.000398	20.718694
1154.306258	-2.967100	3.599300	-10.678000	25.681103	0.000398	20.732976
1155.305824	-3.005900	3.598700	-10.816000	25.683260	0.000398	20.738462
1156.309421	-3.019500	3.596200	-10.858000	25.660299	0.000398	20.736737
1157.308424	-3.018000	3.597600	-10.857000	25.653039	0.000398	20.734661
1158.306310	-3.018300	3.596300	-10.853000	25.656718	0.000396	20.729821
1159.309878	-3.007500	3.597900	-10.820000	25.692319	0.000397	20.735708
1160.310538	-2.986800	3.596400	-10.741000	25.681486	0.000395	20.724826
1161.310195	-2.997200	3.596600	-10.779000	25.706384	0.000394	20.760266
1162.308307	-2.993500	3.595700	-10.763000	25.670905	0.000395	20.742174
1163.305572	-3.030700	3.594500	-10.893000	25.667625	0.000396	20.746466
1164.305598	-2.973900	3.597100	-10.697000	25.657735	0.000393	20.753603
1165.308678	-2.987400	3.594400	-10.737000	25.676912	0.000394	20.743940
1166.308582	-2.988200	3.594600	-10.740000	25.686500	0.000394	20.755942
1167.312306	-3.009400	3.594100	-10.815000	25.731965	0.000392	20.744235
1168.305802	-3.002900	3.594000	-10.791000	25.703047	0.000393	20.754544
1169.305149	-2.996000	3.594300	-10.768000	25.696585	0.000394	20.734302
1170.310361	-3.022000	3.592300	-10.855000	25.649832	0.000392	20.748036
1171.307671	-2.994300	3.593200	-10.757000	25.602565	0.000392	20.746083
1172.307114	-3.008300	3.592600	-10.806000	25.614091	0.000393	20.733950
1173.308846	-2.980300	3.592100	-10.704000	25.630932	0.000393	20.754659
1174.308015	-2.986400	3.592000	-10.727000	25.661993	0.000391	20.746026
1175.310678	-2.990500	3.592000	-10.741000	25.681764	0.000392	20.735063
1176.316071	-3.009900	3.591000	-10.808000	25.704220	0.000393	20.768051
1177.309381	-3.021800	3.590600	-10.849000	25.674805	0.000390	20.759368
1178.307601	-3.007000	3.591600	-10.800000	25.678883	0.000390	20.763938
1179.312765	-3.011100	3.590500	-10.810000	25.709137	0.000390	20.747384
1180.306060	-2.989100	3.590100	-10.730000	25.745168	0.000390	20.768402
1181.308566	-3.014100	3.590300	-10.821000	25.729166	0.000388	20.737630
1182.310662	-3.024900	3.588500	-10.854000	25.701136	0.000389	20.748831
1183.311753	-2.993300	3.588600	-10.741000	25.702251	0.000389	20.752322
1184.309140	-3.003200	3.589300	-10.779000	25.692004	0.000388	20.752936
1185.312454	-2.979700	3.589600	-10.695000	25.680105	0.000388	20.745725
1186.306644	-2.981600	3.588400	-10.698000	25.638691	0.000387	20.758184
1187.313269	-3.008700	3.588200	-10.795000	25.622257	0.000387	20.768706
1188.313487	-2.987000	3.587900	-10.716000	25.614899	0.000387	20.757048
1189.308686	-2.995600	3.587500	-10.746000	25.631251	0.000388	20.766834
1190.311503	-3.006900	3.587000	-10.785000	25.657933	0.000386	20.762812
1191.313453	-3.017800	3.586900	-10.824000	25.686601	0.000386	20.747508
1192.312130	-2.994200	3.586700	-10.737000	25.694235	0.000385	20.771298
1193.311303	-2.998200	3.587500	-10.755000	25.703921	0.000386	20.759689
1194.320767	-3.003900	3.586500	-10.772000	25.756588	0.000386	20.776555
1195.309804	-3.004400	3.585000	-10.770000	25.759738	0.000384	20.768813
1196.313025	-3.010300	3.585000	-10.791000	25.726687	0.000383	20.758374
1197.317581	-3.005400	3.586000	-10.777000	25.702375	0.000384	20.782318
1198.311806	-3.013600	3.584200	-10.801000	25.661491	0.000383	20.751212
1199.314075	-2.993700	3.585100	-10.732000	25.695164	0.000384	20.773653
1200.313620	-3.024400	3.583900	-10.838000	25.705972	0.000383	20.771707
1201.311974	-2.996700	3.583900	-10.738000	25.745471	0.000383	20.766811
1202.312269	-3.001000	3.583600	-10.753000	25.792472	0.000382	20.786521
1203.314060	-2.982300	3.584700	-10.689000	25.755759	0.000380	20.779041
1204.312366	-3.024800	3.581900	-10.834000	25.775584	0.000381	20.790895
1205.312024	-3.011100	3.581700	-10.783000	25.772476	0.000380	20.746045
1206.318661	-2.985000	3.582700	-10.694000	25.794507	0.000380	20.786669
1207.311900	-2.998000	3.582300	-10.739000	25.806503	0.000378	20.783546
1208.314717	-3.001400	3.581100	-10.747000	25.801555	0.000378	20.776205
1209.314126	-3.001500	3.581800	-10.750000	25.763272	0.000379	20.784216
1210.319191	-3.010900	3.580000	-10.778000	25.697648	0.000378	20.780415
1211.315937	-3.016700	3.580100	-10.800000	25.660158	0.000376	20.764098
1212.316957	-2.978700	3.581600	-10.667000	25.621617	0.000377	20.761424
1213.314764	-3.010100	3.580100	-10.776000	25.654363	0.000378	20.780089
1214.319068	-2.991500	3.578800	-10.705000	25.658042	0.000376	20.779516
1215.317183	-2.981300	3.580700	-10.674000	25.646956	0.000376	20.774072
1216.320775	-2.979000	3.581100	-10.667000	25.685586	0.000376	20.784896
1217.320148	-3.046600	3.578200	-10.901000	25.675802	0.000376	20.783604
1218.324523	-2.988700	3.578800	-10.695000	25.695027	0.000375	20.792483
1219.321120	-2.980600	3.579000	-10.667000	25.709735	0.000377	20.794927
1220.322696	-3.001000	3.577100	-10.734000	25.703444	0.000376	20.781970
1221.322947	-2.994400	3.577200	-10.710000	25.747346	0.000376	20.801410
1222.322135	-3.002500	3.577200	-10.740000	25.752042	0.000373	20.812765
1223.324614	-3.003100	3.576600	-10.740000	25.733453	0.000375	20.785085
1224.331574	-2.989900	3.576200	-10.691000	25.737506	0.000375	20.794372
1225.326772	-2.986000	3.576900	-10.680000	25.729001	0.000373	20.792467
1226.325499	-2.990100	3.577100	-10.695000	25.716353	0.000371	20.802997
1227.328267	-3.004800	3.576000	-10.744000	25.688298	0.000373	20.796629
1228.330291	-2.997900	3.576000	-10.720000	25.772520	0.000369	20.797299
1229.327686	-2.998500	3.575800	-10.722000	25.782636	0.000371	20.790391
1230.327919	-3.006600	3.575900	-10.750000	25.814279	0.000371	20.794675
1231.324537	-3.008700	3.575000	-10.755000	25.836586	0.000369	20.788634
1232.328407	-3.006100	3.573700	-10.742000	25.866298	0.000372	20.801412
1233.325032	-3.006200	3.573200	-10.741000	25.819862	0.000373	20.796491
1234.329166	-2.999800	3.574700	-10.723000	25.762249	0.000369	20.784612
1235.325881	-2.988000	3.573900	-10.678000	25.767508	0.000369	20.805541
1236.334515	-2.959600	3.575500	-10.581000	25.776875	0.000367	20.793614
1237.331897	-2.975600	3.573200	-10.632000	25.782336	0.000367	20.809531
1238.328011	-2.979500	3.572800	-10.644000	25.767557	0.000369	20.794210
1239.330997	-3.003500	3.573300	-10.732000	25.754454	0.000369	20.794800
1240.329938	-3.006000	3.572200	-10.737000	25.757286	0.000366	20.825145
1241.328383	-2.991600	3.570800	-10.681000	25.746925	0.000367	20.793876
1242.328467	-3.034200	3.570700	-10.833000	25.708982	0.000367	20.816930
1243.333807	-3.021800	3.571200	-10.791000	25.747268	0.000366	20.822194
1244.330041	-3.004500	3.570000	-10.726000	25.739658	0.000367	20.824983
1245.336131	-3.013300	3.570500	-10.759000	25.694665	0.000367	20.812033
1246.337332	-3.015600	3.571000	-10.768000	25.678884	0.000365	20.825105
1247.329558	-2.998300	3.569600	-10.702000	25.696326	0.000364	20.808960
1248.332451	-2.996200	3.569700	-10.695000	25.680650	0.000364	20.816922
1249.327725	-2.990000	3.570700	-10.676000	25.707233	0.000363	20.816121
1250.328871	-3.013000	3.568500	-10.751000	25.740164	0.000365	20.813163
1251.332479	-3.002900	3.569100	-10.717000	25.784243	0.000363	20.804333
1252.331223	-3.016500	3.567500	-10.760000	25.800072	0.000364	20.819759
1253.332480	-2.997600	3.567800	-10.694000	25.817977	0.000364	20.817356
1254.333145	-2.987200	3.567300	-10.656000	25.841627	0.000365	20.813612
1255.335248	-3.017600	3.566000	-10.760000	25.842001	0.000361	20.813040
1256.326460	-3.020000	3.567900	-10.774000	25.855559	0.000364	20.829979
1257.331963	-3.017900	3.565900	-10.761000	25.796410	0.000361	20.822245
1258.332370	-2.995600	3.567400	-10.685000	25.791690	0.000359	20.818452
1259.328569	-3.009500	3.566500	-10.733000	25.775291	0.000362	20.817152
1260.331363	-3.019500	3.565300	-10.764000	25.764378	0.000360	20.828001
1261.330995	-2.998600	3.565800	-10.692000	25.756328	0.000360	20.835563
1262.328317	-3.006300	3.564800	-10.716000	25.723382	0.000362	20.844195
1263.331970	-2.992500	3.563500	-10.663000	25.698818	0.000360	20.837540
1264.332236	-2.990600	3.565100	-10.661000	25.692429	0.000359	20.825908
1265.327879	-2.991900	3.564700	-10.665000	25.724473	0.000358	20.818265
1266.332476	-3.002100	3.564200	-10.699000	25.700926	0.000358	20.811209
1267.328191	-2.990400	3.564700	-10.659000	25.704776	0.000359	20.836413
1268.332954	-2.985800	3.563800	-10.640000	25.677241	0.000356	20.822508
1269.331472	-3.008800	3.561400	-10.715000	25.697849	0.000355	20.845102
1270.331102	-2.993900	3.562400	-10.665000	25.751136	0.000356	20.832718
1271.329604	-2.974900	3.563800	-10.601000	25.794742	0.000357	20.833371
1272.331420	-2.985700	3.562400	-10.636000	25.769497	0.000356	20.833617
1273.331866	-2.980400	3.562200	-10.616000	25.779263	0.000358	20.849116
1274.332069	-3.012000	3.561900	-10.728000	25.771564	0.000357	20.837115
1275.333094	-3.023800	3.560100	-10.764000	25.764850	0.000356	20.833691
1276.331118	-3.011400	3.560300	-10.721000	25.782518	0.000355	20.831050
1277.335229	-3.006200	3.560200	-10.702000	25.796313	0.000355	20.836371
1278.334378	-3.004800	3.561300	-10.699000	25.783152	0.000353	20.837850
1279.333807	-3.019400	3.559900	-10.748000	25.817904	0.000353	20.826292
1280.333009	-3.015000	3.558400	-10.728000	25.826050	0.000354	20.836371
1281.334715	-2.991800	3.559900	-10.650000	25.803149	0.000354	20.834703
1282.333487	-2.981800	3.559600	-10.613000	25.775169	0.000353	20.857805
1283.332226	-2.977800	3.557900	-10.595000	25.778595	0.000353	20.859825
1284.336111	-3.013300	3.557800	-10.719000	25.780760	0.000353	20.845878
1285.334182	-3.014800	3.556900	-10.723000	25.784512	0.000351	20.854388
1286.337573	-2.979800	3.559000	-10.604000	25.748172	0.000351	20.852499
1287.336250	-2.998600	3.558100	-10.668000	25.712833	0.000349	20.843083
1288.338686	-3.038600	3.555000	-10.801000	25.759469	0.000351	20.851519
1289.335162	-3.005000	3.557700	-10.690000	25.728639	0.000351	20.856587
1290.337260	-2.965100	3.557000	-10.546000	25.783837	0.000351	20.861770
1291.341210	-3.012400	3.554200	-10.706000	25.783145	0.000350	20.844006
1292.336239	-3.018600	3.555000	-10.731000	25.816634	0.000349	20.848723
1293.340714	-3.003000	3.554700	-10.674000	25.806127	0.000348	20.851919
1294.341847	-2.998900	3.555800	-10.663000	25.779694	0.000351	20.841014
1295.338095	-2.993100	3.555800	-10.641000	25.778375	0.000347	20.841587
1296.341459	-3.002900	3.554600	-10.673000	25.749003	0.000349	20.846222
1297.340761	-3.021400	3.552500	-10.732000	25.820158	0.000349	20.836143
1298.338482	-2.998700	3.553500	-10.654000	25.847836	0.000350	20.847350
1299.337831	-3.019500	3.553400	-10.729000	25.825700	0.000349	20.833175
1300.341076	-3.015300	3.553900	-10.715000	25.850196	0.000348	20.838341
1301.339094	-2.989600	3.553100	-10.622000	25.827312	0.000347	20.838587
1302.342417	-3.004700	3.552600	-10.674000	25.842627	0.000348	20.824100
1303.343338	-3.015000	3.551800	-10.708000	25.833334	0.000347	20.832308
1304.343153	-2.991800	3.553000	-10.628000	25.808292	0.000347	20.847930
1305.340788	-3.009200	3.550500	-10.684000	25.778627	0.000345	20.835202
1306.347127	-2.996100	3.550900	-10.638000	25.805859	0.000346	20.824149
1307.341933	-3.010300	3.550000	-10.686000	25.826806	0.000346	20.815794
1308.346507	-3.005900	3.550600	-10.671000	25.867301	0.000347	20.803368
1309.349276	-2.999300	3.551300	-10.651000	25.868815	0.000346	20.811527
1310.348063	-3.024300	3.548600	-10.731000	25.822957	0.000348	20.798177
1311.348115	-3.004800	3.549300	-10.665000	25.767925	0.000345	20.811650
1312.348799	-3.015500	3.549500	-10.703000	25.774509	0.000344	20.834384
1313.349924	-3.023900	3.547700	-10.727000	25.744826	0.000344	20.830648
1314.347097	-2.987200	3.549400	-10.602000	25.762358	0.000344	20.804162
1315.349607	-3.031800	3.548400	-10.756000	25.719531	0.000343	20.793387
1316.349891	-2.970600	3.548900	-10.541000	25.679478	0.000344	20.810055
1317.349443	-3.007200	3.547500	-10.667000	25.731780	0.000345	20.822759
1318.352613	-2.972600	3.549400	-10.550000	25.737917	0.000341	20.817069
1319.350891	-2.986500	3.548500	-10.596000	25.824324	0.000342	20.814249
1320.348639	-3.017300	3.546700	-10.701000	25.886897	0.000341	20.810252
1321.350677	-2.996900	3.547600	-10.631000	25.899242	0.000342	20.796101
1322.348044	-2.984200	3.546700	-10.583000	25.898648	0.000341	20.816841
1323.349806	-2.984600	3.547100	-10.586000	25.870581	0.000343	20.805240
1324.351721	-2.991800	3.546800	-10.611000	25.902131	0.000343	20.831719
1325.349956	-2.990000	3.546100	-10.602000	25.927496	0.000339	20.810734
1326.351024	-3.018300	3.545500	-10.700000	25.914500	0.000340	20.832765
1327.353705	-3.005700	3.544700	-10.653000	25.887947	0.000339	20.797082
1328.349563	-3.016000	3.543700	-10.687000	25.825512	0.000339	20.799322
1329.352573	-3.023900	3.544800	-10.718000	25.876895	0.000337	20.797359
1330.355530	-3.001900	3.544500	-10.640000	25.892195	0.000337	20.810358
1331.353120	-3.013200	3.543500	-10.676000	25.943559	0.000338	20.814070
1332.351091	-3.001000	3.543100	-10.632000	25.930246	0.000337	20.813971
1333.352946	-3.000400	3.543100	-10.630000	25.887776	0.000336	20.819669
1334.351525	-2.994200	3.543300	-10.609000	25.844897	0.000336	20.810260
1335.352174	-2.994100	3.542000	-10.604000	25.847582	0.000337	20.792569
1336.353472	-3.020600	3.541900	-10.697000	25.828206	0.000337	20.788277
1337.351968	-3.004800	3.541200	-10.640000	25.812010	0.000337	20.809940
1338.352543	-3.008900	3.541700	-10.655000	25.799111	0.000337	20.816423
1339.355153	-3.002100	3.540000	-10.627000	25.843237	0.000334	20.800057
1340.354346	-3.009900	3.540400	-10.655000	25.803286	0.000335	20.804970
1341.351583	-2.988900	3.539500	-10.578000	25.851977	0.000335	20.812630
1342.360190	-3.002000	3.539400	-10.624000	25.874731	0.000334	20.785228
1343.351093	-3.016200	3.539900	-10.676000	25.892373	0.000334	20.813382
1344.352212	-3.009500	3.538200	-10.647000	25.925111	0.000336	20.790795
1345.356473	-2.975700	3.539200	-10.530000	25.914809	0.000334	20.791824
1346.353113	-2.993600	3.538700	-10.593000	25.913539	0.000335	20.786756
1347.354959	-2.999600	3.538400	-10.613000	25.876245	0.000334	20.792438
1348.356359	-3.014200	3.535700	-10.657000	25.821467	0.000332	20.787198
1349.352617	-3.000500	3.537300	-10.613000	25.809024	0.000332	20.796509
1350.354085	-3.001500	3.536800	-10.615000	25.787352	0.000331	20.809827
1351.354963	-2.996100	3.537400	-10.597000	25.785211	0.000333	20.804358
1352.353544	-3.026100	3.536200	-10.700000	25.740570	0.000330	20.795553
1353.353103	-3.011600	3.536500	-10.649000	25.761788	0.000330	20.778459
1354.353343	-2.999200	3.536600	-10.606000	25.832015	0.000330	20.820079
1355.355915	-3.001500	3.535600	-10.611000	25.875838	0.000333	20.776857
1356.352866	-3.005100	3.535300	-10.622000	25.871989	0.000329	20.785318
1357.354275	-3.012000	3.533200	-10.641000	25.858944	0.000330	20.798292
1358.357094	-2.988600	3.535700	-10.566000	25.817635	0.000330	20.787141
1359.353718	-2.991200	3.534500	-10.571000	25.830925	0.000330	20.776783
1360.355929	-2.991600	3.534200	-10.572000	25.805655	0.000329	20.787436
1361.356073	-2.996100	3.533600	-10.586000	25.857455	0.000330	20.792055
1362.354826	-2.979300	3.532300	-10.522000	25.874667	0.000326	20.781844
1363.355326	-2.992900	3.533800	-10.576000	25.883561	0.000328	20.795047
1364.353268	-2.986500	3.532600	-10.550000	25.856088	0.000325	20.793052
1365.356525	-3.000200	3.533400	-10.600000	25.861573	0.000326	20.781967
1366.354579	-3.005400	3.531900	-10.614000	25.847161	0.000328	20.790723
1367.355739	-3.000600	3.532100	-10.597000	25.864950	0.000328	20.784886
1368.357182	-3.016400	3.531400	-10.651000	25.910213	0.000327	20.790052
1369.359658	-2.985800	3.531100	-10.543000	25.892587	0.000326	20.783725
1370.355679	-3.007100	3.531400	-10.619000	25.880389	0.000324	20.769100
1371.357074	-2.999300	3.530900	-10.590000	25.900115	0.000326	20.775166
1372.363742	-3.015900	3.529200	-10.642000	25.887525	0.000324	20.779114
1373.357775	-2.976700	3.530600	-10.509000	25.855967	0.000323	20.770171
1374.367126	-3.001200	3.529400	-10.592000	25.827793	0.000320	20.775534
1375.357158	-3.008100	3.528600	-10.613000	25.805168	0.000324	20.765135
1376.360866	-3.003900	3.529000	-10.600000	25.840237	0.000323	20.763852
1377.360604	-2.992800	3.527700	-10.556000	25.842450	0.000323	20.785990
1378.360925	-3.016800	3.527700	-10.642000	25.820624	0.000320	20.786825
1379.359716	-3.005000	3.526500	-10.597000	25.777939	0.000322	20.781880
1380.358757	-3.009000	3.526600	-10.611000	25.802044	0.000322	20.783334
1381.359877	-3.000100	3.525100	-10.574000	25.773544	0.000320	20.767507
1382.361608	-2.964300	3.527400	-10.455000	25.756217	0.000320	20.780450
1383.379033	-2.989100	3.525500	-10.537000	25.791897	0.000319	20.770296
1384.359757	-3.000600	3.526700	-10.582000	25.798082	0.000318	20.772716
1385.362986	-2.999600	3.525600	-10.575000	25.800882	0.000318	20.784063
1386.362339	-3.010500	3.525500	-10.612000	25.901957	0.000316	20.793138
1387.366916	-3.011800	3.524800	-10.616000	25.912422	0.000317	20.763348
1388.365539	-2.994900	3.523600	-10.552000	25.917801	0.000318	20.783451
1389.364310	-3.018100	3.524400	-10.636000	25.950018	0.000316	20.757495
1390.367933	-2.983700	3.524300	-10.513000	25.932726	0.000317	20.772840
1391.366055	-2.993900	3.523200	-10.548000	25.923807	0.000318	20.774312
1392.364204	-2.998900	3.523100	-10.565000	25.908574	0.000316	20.771336
1393.374730	-2.995900	3.523400	-10.555000	25.897621	0.000315	20.772661
1394.365301	-2.973700	3.522700	-10.473000	25.892828	0.000315	20.764052
1395.366250	-3.001300	3.522200	-10.570000	25.828432	0.000314	20.767167
1396.366883	-2.989700	3.521400	-10.527000	25.812669	0.000316	20.767454
1397.365037	-2.974500	3.522400	-10.476000	25.816096	0.000314	20.779905
1398.367076	-2.974900	3.522600	-10.478000	25.859668	0.000315	20.776259
1399.369298	-3.004200	3.521100	-10.577000	25.886425	0.000313	20.786069
1400.367839	-3.000600	3.521000	-10.564000	25.882844	0.000314	20.773938
1401.365385	-2.987400	3.520400	-10.515000	25.889599	0.000313	20.776456
1402.375010	-3.019000	3.519100	-10.623000	25.861604	0.000312	20.777731
1403.378962	-3.011000	3.519400	-10.596000	25.856730	0.000312	20.786585
1404.369093	-3.003300	3.519500	-10.569000	25.832088	0.000312	20.769891
1405.371546	-2.999700	3.520400	-10.560000	25.877124	0.000312	20.775303
1406.369006	-3.012400	3.517400	-10.595000	25.896931	0.000312	20.788563
1407.375601	-2.995700	3.518300	-10.539000	25.858919	0.000310	20.772662
1408.381588	-2.993900	3.517600	-10.530000	25.831469	0.000309	20.798193
1409.372925	-2.969800	3.519100	-10.450000	25.840934	0.000310	20.764078
1410.374206	-2.987100	3.517900	-10.507000	25.873624	0.000309	20.772736
1411.371309	-3.007100	3.515700	-10.571000	25.932696	0.000312	20.763801
1412.372876	-3.002200	3.517600	-10.560000	25.942208	0.000310	20.764823
1413.370990	-2.990400	3.516300	-10.515000	25.918382	0.000311	20.774077
1414.373491	-3.023400	3.517200	-10.631000	25.865715	0.000311	20.740134
1415.376919	-3.004800	3.515200	-10.562000	25.815861	0.000309	20.788204
1416.373003	-2.984600	3.516300	-10.494000	25.831860	0.000310	20.754963
1417.376662	-3.005200	3.514500	-10.561000	25.788532	0.000308	20.766916
1418.375042	-2.998000	3.514800	-10.535000	25.861142	0.000307	20.770628
1419.373118	-3.010600	3.514500	-10.579000	25.876750	0.000307	20.768289
1420.378154	-3.015700	3.513800	-10.596000	25.907079	0.000307	20.768412
1421.374465	-3.036500	3.513000	-10.665000	25.931199	0.000307	20.768461
1422.376645	-3.031300	3.513100	-10.648000	25.921840	0.000306	20.757636
1423.379580	-3.020100	3.512600	-10.607000	25.906534	0.000308	20.763597
1424.378608	-3.029700	3.512500	-10.640000	25.911286	0.000306	20.776431
1425.375926	-3.016800	3.511400	-10.591000	25.869344	0.000306	20.746151
1426.391375	-2.999900	3.511300	-10.534000	25.852507	0.000304	20.751996
1427.383669	-2.990200	3.511900	-10.500000	25.874113	0.000304	20.768011
1428.377340	-3.004400	3.510200	-10.545000	25.868408	0.000305	20.756116
1429.381610	-3.001400	3.511500	-10.538000	25.849927	0.000304	20.754620
1430.379423	-2.979900	3.511600	-10.464000	25.878222	0.000303	20.766449
1431.378863	-3.001600	3.510500	-10.536000	25.912359	0.000302	20.757595
1432.378887	-2.989600	3.510000	-10.491000	25.859748	0.000304	20.757374
1433.385094	-2.992300	3.510600	-10.504000	25.855476	0.000306	20.765410
1434.382028	-2.999600	3.509800	-10.527000	25.855231	0.000302	20.767535
1435.380767	-3.006000	3.508400	-10.545000	25.873119	0.000302	20.749942
1436.383191	-2.998800	3.508700	-10.521000	25.867609	0.000301	20.751520
1437.379962	-2.982400	3.508700	-10.463000	25.872336	0.000301	20.757691
1438.385507	-3.016600	3.508700	-10.583000	25.869032	0.000300	20.745837
1439.382551	-3.006600	3.507200	-10.544000	25.902820	0.000302	20.742796
1440.382339	-3.008900	3.507900	-10.553000	25.947560	0.000301	20.746491
1441.391235	-2.989000	3.507900	-10.484000	25.948658	0.000300	20.751862
1442.385905	-2.992000	3.505900	-10.489000	25.965510	0.000300	20.745558
1443.385360	-2.998400	3.506700	-10.512000	25.966820	0.000300	20.730752
1444.388570	-3.001900	3.504800	-10.521000	25.959871	0.000300	20.743211
1445.382016	-2.990100	3.506300	-10.483000	25.945964	0.000299	20.752000
1446.382431	-2.978700	3.505600	-10.441000	25.897798	0.000298	20.746285
1447.386177	-3.007700	3.505600	-10.543000	25.897358	0.000296	20.755326
1448.384190	-2.996800	3.504600	-10.501000	25.896568	0.000297	20.727505
1449.385788	-2.994400	3.504400	-10.493000	25.910825	0.000295	20.737561
1450.385579	-2.985000	3.503700	-10.457000	25.967200	0.000297	20.761007
1451.389612	-2.984700	3.503100	-10.455000	25.915504	0.000295	20.754116
1452.383425	-2.993500	3.502300	-10.483000	25.885695	0.000294	20.746455
1453.387680	-2.987500	3.503200	-10.464000	25.861501	0.000296	20.732581
1454.387591	-3.001300	3.502200	-10.510000	25.890171	0.000296	20.713491
1455.383322	-2.982900	3.502300	-10.446000	25.869257	0.000294	20.737527
1456.391717	-2.968800	3.502000	-10.396000	25.877036	0.000294	20.755774
1457.391841	-3.013400	3.502200	-10.552000	25.867474	0.000293	20.741426
1458.389814	-2.994800	3.501400	-10.485000	25.894703	0.000293	20.734641
1459.388722	-3.022100	3.499600	-10.575000	25.857383	0.000294	20.723702
1460.386539	-3.016700	3.501500	-10.561000	25.837892	0.000292	20.737314
1461.390250	-2.994300	3.500700	-10.481000	25.829664	0.000293	20.715771
1462.396503	-3.021700	3.498300	-10.569000	25.867555	0.000293	20.732498
1463.397470	-2.999700	3.499800	-10.497000	25.911303	0.000291	20.745154
1464.388585	-2.995000	3.497800	-10.474000	25.914208	0.000292	20.714406
1465.389771	-2.988100	3.499200	-10.455000	25.901123	0.000291	20.731607
1466.393812	-2.991200	3.498900	-10.465000	25.895134	0.000291	20.722745
1467.389317	-3.015100	3.498200	-10.547000	25.966678	0.000291	20.753370
1468.391558	-2.998400	3.498100	-10.488000	26.001700	0.000289	20.719801
1469.390090	-3.000900	3.498300	-10.497000	25.983612	0.000288	20.720595
1470.391127	-3.024800	3.496300	-10.575000	26.019112	0.000290	20.715010
1471.391424	-3.031800	3.496200	-10.599000	25.995711	0.000287	20.719949
1472.394082	-3.016000	3.495200	-10.541000	25.951404	0.000287	20.712893
1473.392215	-3.012700	3.494100	-10.526000	25.961511	0.000285	20.730160
1474.396896	-3.003800	3.495200	-10.498000	25.944968	0.000290	20.728238
1475.398363	-3.017300	3.494200	-10.543000	25.962210	0.000285	20.724698
1476.391687	-3.005300	3.495600	-10.504000	25.937025	0.000287	20.733061
1477.399833	-2.996500	3.496000	-10.475000	25.958239	0.000287	20.711224
1478.394209	-2.997300	3.496000	-10.477000	25.921174	0.000285	20.723774
1479.394055	-3.002000	3.493800	-10.488000	25.932533	0.000287	20.719065
1480.396447	-2.997300	3.494100	-10.471000	25.874723	0.000287	20.726423
1481.398038	-2.978900	3.494000	-10.407000	25.820768	0.000288	20.724853
1482.395730	-3.000600	3.493100	-10.481000	25.835767	0.000285	20.722376
1483.398798	-3.001500	3.492400	-10.481000	25.797240	0.000286	20.706433
1484.395628	-3.011600	3.491100	-10.513000	25.785268	0.000285	20.726652
1485.396883	-3.015600	3.492000	-10.529000	25.778928	0.000284	20.717438
1486.396049	-2.998600	3.490100	-10.465000	25.801114	0.000284	20.712696
1487.399738	-3.000800	3.491800	-10.477000	25.868945	0.000284	20.718721
1488.392863	-2.992900	3.491300	-10.448000	25.924355	0.000284	20.698519
1489.396883	-2.966600	3.491800	-10.358000	25.969387	0.000285	20.731435
1490.397760	-3.006200	3.489200	-10.488000	25.978257	0.000283	20.701937
1491.395922	-3.035900	3.489000	-10.590000	25.965294	0.000285	20.700293
1492.401408	-3.010900	3.489700	-10.506000	25.944398	0.000281	20.711069
1493.397665	-3.014700	3.489400	-10.519000	25.923061	0.000282	20.706704
1494.394110	-2.998300	3.490100	-10.463000	25.885604	0.000280	20.698945
1495.399700	-3.001000	3.487800	-10.465000	25.901318	0.000280	20.707146
1496.401951	-2.990300	3.488900	-10.432000	25.897746	0.000282	20.704504
1497.394646	-3.009200	3.488200	-10.496000	25.855811	0.000280	20.708372
1498.399904	-2.997300	3.488000	-10.453000	25.873747	0.000278	20.708372
1499.400857	-3.023600	3.487300	-10.543000	25.889974	0.000281	20.716138
1500.395766	-3.004700	3.487400	-10.478000	25.941639	0.000279	20.695021
1501.399787	-2.985800	3.486100	-10.408000	25.927822	0.000280	20.711961
1502.401746	-2.984500	3.486900	-10.406000	25.935472	0.000281	20.714904
1503.397830	-3.005800	3.485700	-10.476000	25.945660	0.000279	20.712337
1504.404860	-3.006100	3.487300	-10.482000	25.964636	0.000277	20.702951
1505.398818	-2.984800	3.486300	-10.405000	25.962943	0.000277	20.704096
1506.393795	-2.981900	3.484900	-10.391000	25.993148	0.000276	20.725909
1507.399596	-3.039100	3.484800	-10.589000	25.938621	0.000276	20.718069
1508.399683	-3.000200	3.484200	-10.453000	25.970023	0.000277	20.701725
1509.396183	-2.986100	3.483900	-10.401000	25.923428	0.000276	20.712288
1510.398894	-3.003600	3.483400	-10.461000	25.899675	0.000276	20.703598
1511.398683	-3.000900	3.483800	-10.454000	25.925072	0.000276	20.712517
1512.397754	-2.999300	3.484100	-10.449000	25.897714	0.000274	20.698308
1513.400513	-2.990600	3.484600	-10.420000	25.873666	0.000276	20.684106
1514.398656	-3.011800	3.483600	-10.491000	25.879379	0.000275	20.713081
1515.396232	-3.019700	3.482400	-10.515000	25.856601	0.000275	20.696362
1516.403227	-2.998600	3.481900	-10.440000	25.844679	0.000273	20.719000
1517.400825	-3.017100	3.480600	-10.500000	25.825522	0.000273	20.704971
1518.400548	-3.006600	3.480400	-10.463000	25.837875	0.000275	20.696517
1519.399202	-3.016600	3.480200	-10.497000	25.832431	0.000272	20.719973
1520.397957	-3.001600	3.479400	-10.443000	25.847389	0.000272	20.714610
1521.397273	-2.997700	3.480900	-10.434000	25.899406	0.000270	20.709492
1522.399886	-3.006700	3.479000	-10.459000	25.940321	0.000273	20.696067
1523.403853	-3.002600	3.479400	-10.447000	25.909073	0.000271	20.704504
1524.404540	-3.000800	3.478500	-10.437000	25.870289	0.000273	20.695888
1525.401562	-2.990600	3.478100	-10.401000	25.886687	0.000271	20.698136
1526.405839	-3.016300	3.476800	-10.486000	25.913981	0.000269	20.707538
1527.401933	-3.015800	3.478600	-10.490000	25.924201	0.000269	20.683664
1528.400050	-3.007800	3.478000	-10.460000	25.973424	0.000269	20.702298
1529.401663	-2.997100	3.477200	-10.420000	26.017144	0.000270	20.709713
1530.400033	-3.016000	3.476500	-10.484000	25.979836	0.000269	20.704946
1531.400603	-2.989700	3.476900	-10.394000	25.924917	0.000268	20.683436
1532.401210	-2.995100	3.476700	-10.412000	25.932941	0.000268	20.681539
1533.399899	-3.015400	3.475200	-10.478000	25.941867	0.000269	20.700465
1534.401763	-2.988700	3.476500	-10.389000	25.893962	0.000267	20.683632
1535.402516	-3.010500	3.474200	-10.458000	25.906762	0.000267	20.697915
1536.404391	-3.024100	3.474700	-10.506000	25.922956	0.000268	20.709443
1537.404337	-2.991100	3.475300	-10.394000	25.962105	0.000267	20.699934
1538.405265	-3.004200	3.473800	-10.435000	25.990698	0.000265	20.691677
1539.407039	-2.981400	3.474300	-10.357000	26.022196	0.000265	20.692976
1540.408148	-2.997500	3.473400	-10.411000	26.038591	0.000265	20.688586
1541.404951	-3.002400	3.474200	-10.430000	25.987004	0.000266	20.677058
1542.404449	-2.991400	3.473700	-10.390000	25.971779	0.000262	20.698748
1543.412330	-3.001900	3.473000	-10.425000	25.988591	0.000264	20.699991
1544.407098	-2.995000	3.473800	-10.402000	25.959826	0.000265	20.691954
1545.408956	-2.995000	3.473200	-10.401000	25.906599	0.000263	20.700122
1546.419616	-2.996700	3.472600	-10.406000	25.898079	0.000263	20.665955
1547.409453	-2.989900	3.471500	-10.379000	25.922541	0.000264	20.701913
1548.412527	-3.010700	3.470400	-10.446000	25.953649	0.000263	20.707561
1549.412116	-3.047200	3.470100	-10.573000	25.928985	0.000259	20.688471
1550.413654	-2.998800	3.470500	-10.406000	25.956530	0.000262	20.702869
1551.409368	-3.020900	3.470000	-10.482000	25.950223	0.000261	20.697955
1552.413920	-3.005000	3.470600	-10.428000	25.935617	0.000262	20.689918
1553.410178	-2.989200	3.470000	-10.371000	25.886849	0.000261	20.696876
1554.413477	-2.999800	3.468900	-10.405000	25.899747	0.000260	20.697505
1555.410933	-2.988700	3.468400	-10.365000	25.904344	0.000260	20.699753
1556.415258	-2.975400	3.469300	-10.321000	25.931523	0.000261	20.691970
1557.411446	-2.991800	3.469600	-10.379000	25.945455	0.000262	20.675618
1558.413987	-2.980700	3.467200	-10.334000	25.949353	0.000257	20.693286
1559.413687	-2.988500	3.467900	-10.362000	25.982348	0.000259	20.703677
1560.411892	-3.008700	3.466400	-10.428000	25.964747	0.000261	20.700218
1561.414973	-2.964800	3.467600	-10.280000	25.941361	0.000260	20.708493
1562.415044	-2.988300	3.467800	-10.362000	25.954853	0.000258	20.680793
1563.413533	-3.013100	3.466400	-10.443000	25.974748	0.000262	20.685135
1564.416637	-3.005900	3.466400	-10.419000	26.029029	0.000256	20.696049
1565.417156	-2.995600	3.465600	-10.381000	26.056303	0.000256	20.678879
1566.415252	-2.992500	3.465200	-10.369000	26.067572	0.000257	20.717232
1567.413414	-3.011100	3.463900	-10.429000	26.104307	0.000259	20.689656
1568.420645	-2.977100	3.465600	-10.317000	26.069639	0.000255	20.697970
1569.420330	-2.998400	3.465200	-10.389000	26.038240	0.000258	20.699614
1570.417498	-2.996500	3.464200	-10.380000	25.988508	0.000258	20.700857
1571.417989	-2.995400	3.464300	-10.376000	25.995798	0.000255	20.722407
1572.417358	-3.003900	3.464100	-10.405000	26.021104	0.000255	20.691405
1573.420487	-3.015900	3.462200	-10.440000	26.044505	0.000256	20.698321
1574.420884	-3.012900	3.463200	-10.433000	26.044008	0.000255	20.683123
1575.418478	-3.005000	3.463600	-10.406000	26.025530	0.000255	20.684472
1576.419451	-3.000800	3.462200	-10.388000	26.024911	0.000254	20.699973
1577.424449	-2.991300	3.462000	-10.354000	26.008020	0.000253	20.685845
1578.418302	-3.009700	3.461000	-10.416000	26.042414	0.000254	20.697643
1579.421091	-2.993400	3.460400	-10.357000	26.021730	0.000255	20.704363
1580.426292	-2.979700	3.460900	-10.312000	26.053251	0.000256	20.709481
1581.419487	-3.000200	3.460900	-10.382000	26.056677	0.000254	20.705336
1582.420212	-2.965300	3.461300	-10.263000	26.049102	0.000254	20.698199
1583.425737	-2.992100	3.460100	-10.351000	26.026107	0.000252	20.704019
1584.429469	-3.009500	3.458500	-10.406000	26.039272	0.000252	20.726731
1585.426426	-2.998900	3.459600	-10.374000	26.060232	0.000253	20.713176
1586.423489	-3.000000	3.458700	-10.375000	26.089987	0.000252	20.707036
1587.423666	-3.018900	3.458500	-10.440000	26.066294	0.000251	20.711206
1588.425371	-3.014100	3.459100	-10.425000	26.017962	0.000251	20.707690
1589.425844	-3.015300	3.458900	-10.428000	25.953012	0.000248	20.691273
1590.426902	-2.999500	3.457900	-10.371000	25.957675	0.000249	20.710184
1591.426682	-2.998100	3.457600	-10.365000	25.930683	0.000248	20.703455
1592.432755	-2.997500	3.458000	-10.364000	25.905994	0.000249	20.725594
1593.431591	-2.998800	3.457800	-10.368000	25.903431	0.000248	20.708794
1594.425638	-3.003200	3.456600	-10.380000	25.900379	0.000247	20.712366
1595.430349	-2.990700	3.456900	-10.338000	25.956666	0.000247	20.696366
1596.424238	-3.014700	3.455200	-10.415000	25.929145	0.000247	20.704754
1597.426824	-3.017100	3.455200	-10.424000	25.913724	0.000248	20.699219
1598.438626	-2.984400	3.455600	-10.312000	25.947251	0.000246	20.687381
1599.427923	-2.998800	3.455200	-10.360000	25.930113	0.000248	20.705253
1600.426478	-3.014900	3.453500	-10.411000	25.942490	0.000246	20.690185
1601.430906	-2.998300	3.455600	-10.360000	25.946437	0.000248	20.724973
1602.432478	-3.022300	3.453300	-10.436000	25.940847	0.000246	20.705605
1603.426750	-2.994000	3.454400	-10.342000	25.972940	0.000245	20.715563
1604.435879	-2.991700	3.453600	-10.331000	26.005284	0.000245	20.723403
1605.431402	-2.999300	3.452100	-10.352000	26.021949	0.000245	20.708376
1606.429709	-2.977000	3.452700	-10.278000	26.088237	0.000244	20.705278
1607.431948	-2.997300	3.451900	-10.345000	26.089401	0.000244	20.723044
1608.429969	-2.988700	3.451600	-10.315000	26.057066	0.000243	20.706202
1609.435291	-3.030400	3.451300	-10.457000	26.043454	0.000244	20.702482
1610.434680	-2.997900	3.451400	-10.346000	26.032656	0.000244	20.739525
1611.429375	-2.995100	3.450500	-10.334000	26.010541	0.000243	20.726314
1612.432852	-3.000300	3.450200	-10.351000	25.973884	0.000244	20.724098
1613.435762	-3.000700	3.450700	-10.354000	26.005773	0.000243	20.740016
1614.435201	-2.983400	3.450000	-10.292000	25.930463	0.000242	20.698966
1615.429927	-2.986400	3.449500	-10.300000	25.926484	0.000242	20.709668
1616.432149	-3.016000	3.447800	-10.398000	25.991712	0.000241	20.722570
1617.431164	-2.998200	3.449300	-10.341000	26.030330	0.000241	20.727230
1618.432498	-3.007200	3.448100	-10.368000	26.019451	0.000239	20.725783
1619.434834	-3.008500	3.447000	-10.369000	26.017710	0.000240	20.710756
1620.429535	-3.005800	3.448900	-10.366000	25.966846	0.000241	20.731252
1621.445065	-3.006400	3.446800	-10.361000	25.973974	0.000241	20.717076
1622.435559	-2.970400	3.447300	-10.239000	25.989125	0.000239	20.709538
1623.430523	-2.994300	3.447100	-10.321000	26.001151	0.000238	20.735847
1624.432829	-2.991300	3.447800	-10.312000	25.988661	0.000238	20.713339
1625.440511	-2.989900	3.447600	-10.307000	26.006335	0.000239	20.736313
1626.434198	-3.017800	3.445200	-10.396000	25.948943	0.000239	20.748829
1627.434258	-3.002200	3.445800	-10.345000	25.919104	0.000236	20.725488
1628.431914	-3.027200	3.445700	-10.430000	25.886390	0.000238	20.715383
1629.433475	-2.994000	3.444700	-10.313000	25.879628	0.000237	20.702425
1630.434771	-3.001000	3.443900	-10.333000	25.907060	0.000239	20.712914
1631.437798	-2.989900	3.445700	-10.302000	25.945965	0.000238	20.724024
1632.433475	-3.001600	3.443600	-10.336000	26.002550	0.000238	20.735830
1633.437932	-2.995900	3.443300	-10.315000	26.043185	0.000238	20.736353
1634.435448	-3.003900	3.442500	-10.340000	26.072916	0.000236	20.727818
1635.433244	-2.990800	3.442800	-10.295000	26.028157	0.000236	20.721253
1636.434340	-2.999500	3.442600	-10.326000	26.012192	0.000235	20.723705
1637.434895	-3.006700	3.442600	-10.350000	26.002851	0.000236	20.729493
1638.435001	-2.994300	3.443100	-10.309000	25.996960	0.000235	20.720730
1639.433331	-3.000500	3.443100	-10.330000	26.030776	0.000236	20.736688
1640.439231	-2.993100	3.441600	-10.300000	26.050858	0.000235	20.740269
1641.433191	-3.000100	3.443000	-10.328000	26.084892	0.000231	20.738903
1642.438280	-3.007300	3.440300	-10.346000	26.100912	0.000235	20.709954
1643.438613	-2.960500	3.441900	-10.189000	26.080547	0.000235	20.723157
1644.436878	-3.005100	3.440200	-10.337000	26.047245	0.000232	20.740906
1645.435279	-2.997300	3.439700	-10.309000	26.071557	0.000233	20.735461
1646.436730	-2.985500	3.439800	-10.267000	26.049482	0.000232	20.720393
1647.434367	-2.989200	3.440000	-10.282000	26.034828	0.000233	20.748345
1648.435244	-2.976600	3.439600	-10.238000	26.067781	0.000231	20.739729
1649.440668	-2.992500	3.439800	-10.292000	26.061133	0.000233	20.731152
1650.435114	-2.999900	3.438000	-10.313000	26.118324	0.000230	20.734562
1651.439939	-3.016700	3.438100	-10.371000	26.096047	0.000229	20.749638
1652.442190	-2.990700	3.437500	-10.280000	26.127419	0.000231	20.746073
1653.439018	-2.983600	3.436700	-10.253000	26.127891	0.000231	20.743228
1654.443983	-2.989600	3.437100	-10.274000	26.110057	0.000230	20.748542
1655.444001	-3.001200	3.436600	-10.312000	26.078359	0.000231	20.740874
1656.441546	-3.010900	3.436600	-10.346000	26.057546	0.000227	20.755998
1657.438156	-2.974800	3.436400	-10.222000	25.992916	0.000228	20.753652
1658.449929	-3.038300	3.434000	-10.433000	25.971434	0.000228	20.741552
1659.442269	-2.987900	3.436200	-10.266000	25.972728	0.000228	20.747119
1660.444700	-3.008200	3.435600	-10.334000	26.004120	0.000228	20.738830
1661.446519	-2.991600	3.434600	-10.274000	25.998506	0.000229	20.747888
1662.441460	-3.012700	3.434900	-10.348000	25.954020	0.000229	20.749662
1663.440718	-3.039700	3.432800	-10.433000	25.935459	0.000228	20.743817
1664.447137	-2.988600	3.436000	-10.268000	25.955607	0.000228	20.755998
1665.443885	-2.971900	3.434400	-10.206000	25.936949	0.000229	20.757168
1666.439271	-2.998800	3.432800	-10.293000	25.962068	0.000228	20.755851
1667.450721	-2.982800	3.434200	-10.241000	25.963777	0.000226	20.759465
1668.442303	-2.970600	3.433600	-10.199000	25.964298	0.000225	20.748134
1669.445721	-2.972300	3.432100	-10.200000	25.980775	0.000225	20.759472
1670.447289	-2.996700	3.431500	-10.282000	25.955632	0.000225	20.734211
1671.445014	-3.012100	3.430300	-10.332000	25.995951	0.000226	20.759546
1672.447897	-3.012400	3.431100	-10.335000	26.017961	0.000226	20.757003
1673.446122	-3.009200	3.431100	-10.323000	26.041679	0.000225	20.734840
1674.446362	-3.005200	3.431100	-10.310000	26.011923	0.000225	20.745247
1675.448839	-3.022100	3.429700	-10.364000	26.016569	0.000225	20.756554
1676.449374	-2.998600	3.428600	-10.280000	26.070540	0.000225	20.744397
1677.443145	-3.040000	3.428000	-10.420000	26.058522	0.000226	20.758875
1678.450982	-3.009400	3.428800	-10.318000	25.970847	0.000225	20.750920
1679.452088	-2.991400	3.428700	-10.256000	25.959122	0.000225	20.749097
1680.448038	-2.982000	3.428500	-10.223000	25.983566	0.000222	20.763698
1681.450567	-2.994400	3.427400	-10.262000	25.993338	0.000222	20.769723
1682.454255	-2.987500	3.429000	-10.243000	25.942107	0.000220	20.771833
1683.450350	-3.006100	3.428400	-10.305000	25.936028	0.000222	20.751026
1684.452606	-3.014400	3.427800	-10.332000	25.976738	0.000222	20.755891
1685.454600	-3.030000	3.425100	-10.377000	25.992134	0.000221	20.762350
1686.451914	-3.022900	3.427100	-10.359000	25.981328	0.000222	20.759554
1687.454699	-2.988400	3.425300	-10.235000	25.949137	0.000221	20.766568
1688.457715	-2.997900	3.426800	-10.272000	25.979937	0.000219	20.763846
1689.452309	-2.991800	3.426300	-10.250000	26.003257	0.000219	20.772103
1690.461103	-2.961600	3.426000	-10.145000	26.047839	0.000221	20.773746
1691.458792	-2.988800	3.424700	-10.234000	26.064412	0.000219	20.746776
1692.456585	-2.996100	3.424500	-10.259000	26.130698	0.000219	20.784930
1693.459025	-2.991800	3.424800	-10.245000	26.129209	0.000218	20.765416
1694.466215	-2.991900	3.425800	-10.249000	26.149776	0.000220	20.756684
1695.454300	-2.985100	3.423600	-10.219000	26.177861	0.000216	20.780164
1696.459081	-3.005900	3.423200	-10.288000	26.193701	0.000219	20.788020
1697.462842	-3.018200	3.421300	-10.325000	26.125329	0.000219	20.755826
1698.458019	-3.005100	3.422900	-10.285000	26.087895	0.000216	20.778905
1699.456295	-2.979400	3.422800	-10.196000	26.112808	0.000218	20.775962
1700.464399	-3.021300	3.421500	-10.336000	26.121627	0.000216	20.771073
1701.457521	-3.016000	3.421400	-10.318000	26.101010	0.000215	20.786394
1702.459799	-2.996300	3.422200	-10.253000	26.108780	0.000215	20.764803
1703.463601	-3.027500	3.420700	-10.356000	26.153602	0.000215	20.788978
1704.460011	-2.981300	3.420700	-10.197000	26.113964	0.000214	20.772382
1705.467963	-3.007600	3.420600	-10.287000	26.136419	0.000214	20.759858
1706.460724	-2.999200	3.418500	-10.251000	26.117218	0.000215	20.774704
1707.463810	-2.992500	3.420100	-10.234000	26.167286	0.000213	20.781866
1708.465043	-2.998600	3.420000	-10.253000	26.141382	0.000213	20.766741
1709.464944	-3.007200	3.417800	-10.277000	26.175601	0.000212	20.766513
1710.464006	-3.016500	3.417400	-10.308000	26.152130	0.000215	20.775170
1711.465147	-2.999600	3.418300	-10.252000	26.115095	0.000213	20.761665
1712.462026	-3.014100	3.417900	-10.301000	26.136200	0.000212	20.775760
1713.463759	-2.988100	3.417900	-10.212000	26.136746	0.000211	20.768247
1714.463229	-3.001800	3.417800	-10.259000	26.103958	0.000211	20.768018
1715.462775	-2.996300	3.417200	-10.238000	26.064188	0.000212	20.794915
1716.470587	-3.022700	3.415600	-10.323000	26.089304	0.000212	20.788857
1717.464519	-3.001600	3.416700	-10.255000	26.100874	0.000210	20.794318
1718.468037	-2.998000	3.415200	-10.238000	26.100818	0.000211	20.800899
1719.468377	-3.008700	3.415500	-10.275000	26.113087	0.000211	20.790468
1720.466137	-3.003800	3.415500	-10.259000	26.066459	0.000209	20.777756
1721.463916	-3.015700	3.415400	-10.299000	26.067435	0.000210	20.783004
1722.460246	-2.997000	3.415800	-10.235000	26.088671	0.000208	20.803867
1723.463269	-2.969200	3.416300	-10.143000	26.106644	0.000207	20.791106
1724.462787	-2.968300	3.415700	-10.137000	26.164693	0.000207	20.791588
1725.462345	-3.015700	3.412800	-10.291000	26.206559	0.000207	20.790984
1726.470285	-2.998900	3.413000	-10.235000	26.142882	0.000207	20.800491
1727.464367	-3.000300	3.414200	-10.243000	26.189296	0.000207	20.779326
1728.464783	-2.995900	3.413100	-10.224000	26.176409	0.000207	20.826120
1729.465179	-2.998600	3.413600	-10.234000	26.158527	0.000205	20.795349
1730.468366	-3.008500	3.412700	-10.266000	26.165759	0.000206	20.788392
1731.465215	-2.969000	3.412600	-10.131000	26.160471	0.000204	20.796828
1732.479255	-2.991900	3.410000	-10.202000	26.177808	0.000205	20.795757
1733.463049	-2.989300	3.411100	-10.195000	26.200848	0.000205	20.790934
1734.468052	-3.004500	3.409900	-10.244000	26.213409	0.000205	20.813514
1735.468913	-3.010700	3.410300	-10.266000	26.190019	0.000204	20.817037
1736.469049	-3.043100	3.408500	-10.371000	26.146331	0.000201	20.794000
1737.468495	-3.008400	3.408600	-10.253000	26.204899	0.000205	20.796428
1738.470465	-2.968000	3.410800	-10.122000	26.200327	0.000204	20.814593
1739.470275	-3.005700	3.408100	-10.243000	26.182421	0.000202	20.804660
1740.468547	-2.998700	3.410100	-10.225000	26.148023	0.000202	20.802339
1741.469866	-3.024500	3.406800	-10.303000	26.119280	0.000201	20.799535
1742.467113	-3.015000	3.407700	-10.273000	26.120353	0.000202	20.825270
1743.469398	-2.996800	3.408000	-10.212000	26.120630	0.000202	20.807056
1744.471114	-2.966100	3.407600	-10.106000	26.155532	0.000203	20.822686
1745.471152	-2.976800	3.407300	-10.142000	26.137984	0.000202	20.815959
1746.470161	-2.972600	3.407800	-10.130000	26.147104	0.000202	20.784345
1747.472381	-2.991300	3.407200	-10.191000	26.144395	0.000200	20.827616
1748.468262	-2.962600	3.407500	-10.094000	26.177768	0.000202	20.816106
1749.469297	-2.977000	3.407100	-10.141000	26.142955	0.000198	20.809574
1750.470910	-3.002200	3.405900	-10.224000	26.138089	0.000198	20.802314
1751.468743	-2.984000	3.406700	-10.164000	26.097597	0.000198	20.824215
1752.474023	-2.984200	3.405700	-10.163000	26.105228	0.000199	20.832831
1753.468907	-3.024100	3.405600	-10.298000	26.099720	0.000199	20.832038
1754.470901	-3.012000	3.405000	-10.255000	26.088687	0.000199	20.824746
1755.471574	-2.986700	3.404500	-10.167000	26.093252	0.000200	20.818902
1756.469595	-2.980400	3.405400	-10.148000	26.080445	0.000198	20.826896
1757.469148	-3.016400	3.402500	-10.262000	26.115317	0.000199	20.828269
1758.475572	-2.986100	3.403000	-10.161000	26.145143	0.000196	20.794229
1759.471566	-2.985800	3.404700	-10.165000	26.180338	0.000195	20.821533
1760.469461	-2.987300	3.402800	-10.164000	26.148397	0.000197	20.857715
1761.477921	-3.001900	3.403100	-10.215000	26.158908	0.000197	20.820388
1762.471354	-3.007300	3.402300	-10.230000	26.159454	0.000195	20.830419
1763.473210	-2.993900	3.402500	-10.186000	26.163522	0.000195	20.834033
1764.477697	-2.974500	3.401600	-10.117000	26.173732	0.000196	20.841447
1765.473024	-2.989100	3.402500	-10.169000	26.213994	0.000196	20.810783
1766.474876	-2.988300	3.400000	-10.160000	26.233364	0.000196	20.819816
1767.476046	-3.014500	3.400700	-10.251000	26.281099	0.000194	20.817527
1768.474741	-2.981900	3.401900	-10.143000	26.286338	0.000194	20.835593
1769.482297	-3.001600	3.399700	-10.203000	26.270362	0.000193	20.838504
1770.473787	-3.004300	3.398600	-10.209000	26.288389	0.000194	20.829594
1771.474796	-3.042800	3.399100	-10.342000	26.314867	0.000193	20.821590
1772.474818	-3.009000	3.398700	-10.226000	26.253653	0.000193	20.830247
1773.480705	-2.993900	3.398700	-10.175000	26.250871	0.000192	20.830296
1774.477794	-2.983900	3.398000	-10.138000	26.208632	0.000190	20.834318
1775.474277	-2.987200	3.397200	-10.146000	26.181314	0.000191	20.832945
1776.480625	-2.988100	3.398500	-10.154000	26.201604	0.000191	20.845272
1777.478269	-3.020600	3.396000	-10.256000	26.263666	0.000190	20.841258
1778.477051	-2.985100	3.397000	-10.140000	26.342238	0.000191	20.837718
1779.479447	-3.030300	3.395800	-10.289000	26.328727	0.000191	20.830778
1780.479274	-3.023300	3.396300	-10.267000	26.256166	0.000191	20.826609
1781.478849	-2.999400	3.395800	-10.184000	26.243133	0.000190	20.821573
1782.483244	-3.007200	3.394300	-10.207000	26.197641	0.000191	20.836075
1783.480525	-2.988100	3.394100	-10.141000	26.201017	0.000191	20.852269
1784.479691	-2.990500	3.393900	-10.148000	26.196274	0.000191	20.852719
1785.483932	-2.982100	3.395200	-10.124000	26.225781	0.000189	20.860084
1786.478241	-3.002200	3.393700	-10.187000	26.226082	0.000189	20.868920
1787.482350	-3.011700	3.393200	-10.217000	26.228343	0.000189	20.868822
1788.483501	-2.998100	3.394200	-10.175000	26.244207	0.000189	20.836876
1789.480871	-3.025300	3.392100	-10.261000	26.243141	0.000190	20.843391
1790.480093	-2.997000	3.393000	-10.168000	26.201749	0.000188	20.855849
1791.483471	-3.015300	3.393900	-10.232000	26.185974	0.000186	20.828619
1792.483925	-3.010400	3.392800	-10.212000	26.220818	0.000188	20.848459
1793.482417	-2.999300	3.392300	-10.174000	26.243914	0.000186	20.857917
1794.485557	-3.017000	3.390600	-10.229000	26.274282	0.000188	20.863305
1795.481458	-3.016900	3.389900	-10.226000	26.313141	0.000186	20.874381
1796.481732	-2.988600	3.391500	-10.135000	26.302192	0.000185	20.853422
1797.483208	-2.995800	3.390200	-10.156000	26.292333	0.000187	20.854893
1798.481235	-3.002100	3.390400	-10.178000	26.287209	0.000186	20.843106
1799.479672	-3.017500	3.389000	-10.225000	26.294635	0.000185	20.842509
1800.483711	-3.003700	3.390500	-10.183000	26.327686	0.000185	20.852016
1801.480028	-2.991200	3.389400	-10.137000	26.296970	0.000185	20.862872
1802.478228	-3.001200	3.389400	-10.171000	26.272956	0.000184	20.846801
1803.483489	-3.025100	3.388300	-10.249000	26.274340	0.000184	20.853880
1804.478315	-3.023300	3.388000	-10.242000	26.251570	0.000183	20.846646
1805.479316	-3.011200	3.388900	-10.204000	26.212432	0.000184	20.849041
1806.482452	-2.976700	3.389400	-10.088000	26.251350	0.000182	20.832675
1807.479453	-3.002100	3.387900	-10.170000	26.301632	0.000181	20.851436
1808.479452	-2.992300	3.387900	-10.137000	26.353505	0.000182	20.844299
1809.483451	-3.005200	3.387000	-10.178000	26.384090	0.000181	20.838529
1810.481453	-2.976600	3.386100	-10.078000	26.385261	0.000183	20.846817
1811.480452	-3.007600	3.386400	-10.183000	26.343891	0.000181	20.821835
1812.483487	-2.988500	3.386400	-10.120000	26.323222	0.000181	20.851323
1813.480451	-2.962100	3.385500	-10.027000	26.279050	0.000181	20.856243
1814.480451	-3.020900	3.385400	-10.226000	26.303829	0.000181	20.825670
1815.482454	-3.013400	3.384700	-10.199000	26.362502	0.000181	20.822997
1816.480674	-3.000000	3.385200	-10.154000	26.385099	0.000179	20.821526
1817.481674	-3.001000	3.384800	-10.157000	26.335383	0.000180	20.834622
1818.485671	-2.994400	3.384000	-10.132000	26.310165	0.000178	20.834409
1819.483605	-2.965500	3.385700	-10.040000	26.351505	0.000182	20.832333
1820.487075	-2.984000	3.382700	-10.093000	26.381691	0.000180	20.811937
1821.487515	-2.997100	3.383100	-10.138000	26.344721	0.000179	20.814610
1822.485890	-3.002300	3.383200	-10.156000	26.340451	0.000177	20.824068
1823.485777	-3.003200	3.380900	-10.153000	26.313599	0.000177	20.818420
1824.485757	-2.995200	3.381400	-10.126000	26.280906	0.000178	20.825866
1825.485854	-3.000500	3.382200	-10.146000	26.270225	0.000178	20.834573
1826.484853	-2.984600	3.382200	-10.093000	26.291799	0.000176	20.815951
1827.486855	-3.012400	3.380700	-10.183000	26.248895	0.000174	20.809345
1828.484854	-2.978200	3.381300	-10.069000	26.286641	0.000176	20.817880
1829.485855	-2.995000	3.380500	-10.124000	26.327265	0.000177	20.823619
1830.487854	-2.971800	3.381900	-10.050000	26.284282	0.000176	20.811242
1831.484855	-3.011800	3.380300	-10.179000	26.332406	0.000175	20.815983
1832.484854	-3.004700	3.379500	-10.153000	26.367139	0.000177	20.833821
1833.487854	-2.982500	3.380200	-10.081000	26.411559	0.000176	20.820619
1834.485855	-3.007600	3.378500	-10.161000	26.392615	0.000174	20.817226
1835.486855	-2.974900	3.378400	-10.049000	26.355352	0.000175	20.815337
1836.488854	-2.987800	3.379300	-10.096000	26.383742	0.000174	20.790764
1837.486855	-2.975400	3.378400	-10.051000	26.422556	0.000174	20.798007
1838.487855	-2.981900	3.378600	-10.073000	26.388565	0.000172	20.800353
1839.488855	-3.000900	3.377600	-10.135000	26.345217	0.000172	20.811789
1840.488854	-2.985900	3.377200	-10.083000	26.328160	0.000173	20.804604
1841.487854	-2.982200	3.375600	-10.066000	26.297656	0.000174	20.791017
1842.490854	-3.006700	3.376200	-10.150000	26.315242	0.000174	20.793519
1843.487854	-2.972300	3.378400	-10.041000	26.313925	0.000172	20.803574
1844.488854	-3.007900	3.376000	-10.153000	26.319009	0.000172	20.804891
1845.491854	-3.008000	3.374800	-10.150000	26.387149	0.000171	20.801776
1846.489853	-2.972700	3.376700	-10.037000	26.384400	0.000169	20.796641
1847.488853	-3.011700	3.374100	-10.161000	26.316015	0.000172	20.791450
1848.491854	-2.993400	3.375100	-10.101000	26.304977	0.000172	20.818764
1849.489854	-2.975900	3.375100	-10.043000	26.357769	0.000169	20.804490
1850.489854	-2.997000	3.374100	-10.111000	26.396934	0.000168	20.800705
1851.493855	-3.014200	3.373200	-10.167000	26.362145	0.000169	20.802724
1852.489854	-2.990200	3.372600	-10.084000	26.353132	0.000168	20.795562
1853.489855	-2.989900	3.372200	-10.082000	26.383172	0.000168	20.808210
1854.493855	-3.005600	3.373100	-10.137000	26.349683	0.000167	20.788777
1855.490854	-2.997100	3.372200	-10.106000	26.322938	0.000169	20.796037
1856.490855	-3.010000	3.371100	-10.147000	26.273674	0.000168	20.798211
1857.493854	-3.016500	3.371400	-10.169000	26.291571	0.000167	20.796282
1858.490854	-3.005200	3.372200	-10.134000	26.308808	0.000167	20.793690
1859.490855	-3.001300	3.372200	-10.120000	26.292661	0.000166	20.818240
1860.493735	-2.994200	3.370000	-10.089000	26.269762	0.000166	20.787642
1861.492006	-3.020700	3.370100	-10.179000	26.263066	0.000166	20.778068
1862.491862	-3.012500	3.369700	-10.150000	26.299299	0.000164	20.803100
1863.495441	-2.983200	3.370800	-10.055000	26.398318	0.000164	20.795457
1864.492488	-2.977300	3.370500	-10.034000	26.413219	0.000166	20.785303
1865.493489	-2.976500	3.368600	-10.026000	26.389256	0.000164	20.770702
1866.496427	-3.000900	3.368300	-10.107000	26.396797	0.000166	20.792506
1867.493478	-3.007300	3.369500	-10.132000	26.408770	0.000166	20.801220
1868.493626	-3.004400	3.368500	-10.119000	26.440336	0.000162	20.786954
1869.497384	-2.975500	3.368100	-10.020000	26.479287	0.000164	20.782008
1870.494442	-2.990100	3.368300	-10.070000	26.422507	0.000163	20.764767
1871.495859	-3.003800	3.368000	-10.116000	26.396504	0.000164	20.782254
1872.497787	-3.008600	3.367200	-10.130000	26.344730	0.000163	20.785696
1873.495788	-2.996600	3.367000	-10.089000	26.355029	0.000161	20.774235
1874.496211	-2.990600	3.366600	-10.068000	26.289945	0.000162	20.802709
1875.498489	-2.993800	3.367400	-10.080000	26.285503	0.000158	20.810099
1876.496858	-2.984700	3.366200	-10.046000	26.320441	0.000159	20.796373
1877.497586	-2.995900	3.366100	-10.083000	26.360893	0.000160	20.799569
1878.501673	-3.015300	3.365000	-10.146000	26.416880	0.000161	20.760059
1879.497881	-3.001900	3.364600	-10.100000	26.435481	0.000159	20.816688
1880.498706	-3.004500	3.364400	-10.107000	26.484437	0.000160	20.786236
1881.502925	-3.010100	3.363400	-10.122000	26.480142	0.000162	20.802782
1882.498924	-3.031700	3.363600	-10.197000	26.441768	0.000157	20.790290
1883.499291	-2.989600	3.364400	-10.058000	26.391461	0.000158	20.775763
1884.502317	-2.987800	3.363500	-10.049000	26.394089	0.000160	20.785990
1885.499566	-3.013700	3.361600	-10.130000	26.433790	0.000156	20.778003
1886.500579	-3.005000	3.362300	-10.103000	26.467511	0.000158	20.773965
1887.501920	-3.010200	3.361100	-10.116000	26.489137	0.000156	20.773417
1888.498981	-3.016700	3.361000	-10.138000	26.488487	0.000156	20.784143
1889.499018	-3.003700	3.361600	-10.096000	26.470236	0.000156	20.767695
1890.503062	-3.001500	3.361100	-10.087000	26.480013	0.000155	20.773254
1891.501082	-3.000700	3.362100	-10.088000	26.492781	0.000156	20.787511
1892.502083	-3.000700	3.362000	-10.088000	26.478011	0.000154	20.760337
1893.505134	-2.979100	3.361500	-10.014000	26.451635	0.000156	20.771284
1894.501178	-3.012300	3.359200	-10.118000	26.466259	0.000154	20.758007
1895.502185	-2.988400	3.360500	-10.042000	26.546248	0.000154	20.772502
1896.505254	-2.999200	3.358900	-10.073000	26.515702	0.000153	20.781152
1897.502156	-2.997900	3.360000	-10.072000	26.504461	0.000151	20.766535
1898.506463	-2.986300	3.358700	-10.030000	26.417312	0.000156	20.773770
1899.505466	-3.005300	3.359200	-10.095000	26.432310	0.000154	20.766559
1900.503461	-3.021300	3.357400	-10.142000	26.438932	0.000152	20.776533
1901.503278	-3.005000	3.357900	-10.090000	26.460730	0.000154	20.763355
1902.508071	-2.999300	3.357300	-10.069000	26.474158	0.000150	20.772111
1903.506922	-3.000700	3.357000	-10.073000	26.510285	0.000150	20.765751
1904.505921	-2.993700	3.356500	-10.047000	26.494020	0.000150	20.753668
1905.508537	-2.987500	3.357100	-10.028000	26.511368	0.000151	20.775848
1906.520535	-2.982300	3.357400	-10.012000	26.473581	0.000151	20.771057
1907.505268	-2.995200	3.356300	-10.052000	26.455337	0.000150	20.764574
1908.507634	-2.989200	3.355600	-10.029000	26.421014	0.000151	20.773224
1909.505682	-2.974500	3.356800	-9.982500	26.443536	0.000148	20.756505
1910.506685	-3.010100	3.354900	-10.098000	26.421381	0.000149	20.775489
1911.507921	-2.992100	3.355300	-10.039000	26.443179	0.000149	20.785544
1912.505919	-3.017200	3.353900	-10.118000	26.426741	0.000149	20.779454
1913.508142	-3.012000	3.354100	-10.101000	26.454875	0.000149	20.763635
1914.510794	-3.019900	3.353300	-10.125000	26.424099	0.000149	20.786755
1915.507414	-3.016700	3.352500	-10.112000	26.436665	0.000145	20.777574
1916.507465	-3.013800	3.353400	-10.106000	26.449101	0.000148	20.770634
1917.511543	-2.998600	3.351700	-10.050000	26.462782	0.000146	20.764944
1918.507883	-2.993200	3.351900	-10.032000	26.439439	0.000145	20.741006
1919.509026	-3.004700	3.350300	-10.066000	26.398494	0.000147	20.745372
1920.512017	-2.979800	3.351600	-9.985800	26.382909	0.000147	20.770486
1921.510653	-3.016500	3.351300	-10.109000	26.402879	0.000147	20.739348
1922.509990	-2.989200	3.350600	-10.014000	26.461709	0.000145	20.761968
1923.513401	-2.999900	3.350400	-10.050000	26.512997	0.000146	20.774166
1924.510613	-2.994000	3.349000	-10.025000	26.527872	0.000146	20.773471
1925.510611	-2.990600	3.349200	-10.014000	26.523228	0.000143	20.762165
1926.514615	-3.017900	3.350300	-10.109000	26.568983	0.000145	20.755526
1927.511613	-2.986000	3.349100	-9.999700	26.610784	0.000144	20.772891
1928.511387	-3.001200	3.350400	-10.054000	26.592023	0.000143	20.742650
1929.513413	-3.015800	3.348400	-10.097000	26.602693	0.000143	20.763808
1930.511830	-2.992200	3.349500	-10.022000	26.642393	0.000145	20.752035
1931.512934	-2.993400	3.350200	-10.028000	26.647444	0.000144	20.750475
1932.513929	-3.004400	3.348700	-10.060000	26.648095	0.000143	20.761560
1933.512941	-3.030200	3.347900	-10.143000	26.563047	0.000142	20.748610
1934.512329	-3.018200	3.348300	-10.105000	26.572700	0.000140	20.771117
1935.513379	-3.014300	3.347500	-10.089000	26.492283	0.000141	20.751922
1936.512562	-3.017200	3.346600	-10.097000	26.493356	0.000139	20.743517
1937.512565	-2.991900	3.346600	-10.012000	26.495837	0.000142	20.735105
1938.514563	-3.021100	3.345500	-10.106000	26.526425	0.000139	20.756843
1939.512486	-3.036900	3.344100	-10.155000	26.568333	0.000141	20.752976
1940.511854	-2.999200	3.347000	-10.038000	26.594943	0.000138	20.751276
1941.517057	-3.007500	3.345500	-10.061000	26.619868	0.000137	20.758315
1942.514519	-3.033600	3.344200	-10.144000	26.611777	0.000137	20.750180
1943.516761	-2.993000	3.345100	-10.011000	26.612199	0.000139	20.757244
1944.520181	-2.989300	3.343500	-9.994100	26.652217	0.000139	20.754799
1945.515042	-3.013000	3.344200	-10.076000	26.598025	0.000138	20.752951
1946.518030	-3.014500	3.344100	-10.080000	26.589551	0.000138	20.738743
1947.520027	-2.994800	3.344900	-10.017000	26.614379	0.000138	20.755167
1948.517027	-2.978100	3.342900	-9.954600	26.609540	0.000136	20.740819
1949.517247	-3.002500	3.342100	-10.033000	26.561477	0.000135	20.757939
1950.524278	-2.996400	3.343200	-10.016000	26.500627	0.000133	20.746084
1951.518437	-3.002600	3.341600	-10.033000	26.515844	0.000134	20.741940
1952.520823	-3.023800	3.341300	-10.102000	26.581012	0.000134	20.747229
1953.522838	-2.994700	3.341100	-10.004000	26.562973	0.000134	20.758020
1954.518724	-3.006700	3.341900	-10.047000	26.532305	0.000134	20.737623
1955.518283	-2.996700	3.340900	-10.011000	26.483833	0.000131	20.744851
1956.522180	-2.998000	3.341900	-10.018000	26.465264	0.000134	20.746576
1957.518396	-3.005000	3.339000	-10.033000	26.493145	0.000133	20.751366
1958.518993	-3.000000	3.339000	-10.016000	26.532469	0.000133	20.727830
1959.522000	-2.992700	3.339900	-9.994600	26.599083	0.000132	20.750696
1960.517995	-3.012200	3.339200	-10.057000	26.596619	0.000133	20.756280
1961.520998	-2.989200	3.339300	-9.979700	26.651186	0.000133	20.740959
1962.521044	-3.014000	3.338700	-10.062000	26.633954	0.000130	20.736913
1963.518130	-3.005500	3.337300	-10.029000	26.555533	0.000130	20.723987
1964.520984	-2.984600	3.338900	-9.963800	26.570652	0.000130	20.724960
1965.520203	-2.993800	3.337900	-9.992000	26.577304	0.000130	20.729277
1966.518319	-3.002400	3.337400	-10.019000	26.613892	0.000129	20.717218
1967.522048	-3.011100	3.336500	-10.045000	26.677989	0.000131	20.735188
1968.521083	-2.998200	3.336600	-10.003000	26.661457	0.000132	20.742750
1969.519238	-3.018700	3.337200	-10.073000	26.668231	0.000130	20.739129
1970.523242	-3.001200	3.334600	-10.006000	26.691781	0.000131	20.748580
1971.524343	-2.970700	3.336700	-9.910900	26.680884	0.000129	20.732409
1972.520591	-3.009700	3.336300	-10.040000	26.666808	0.000128	20.739595
1973.524458	-3.001100	3.335300	-10.009000	26.634980	0.000126	20.718977
1974.524161	-2.991400	3.335200	-9.976400	26.613780	0.000124	20.722321
1975.521421	-2.981400	3.335600	-9.943600	26.599255	0.000125	20.728583
1976.524009	-3.002700	3.334900	-10.013000	26.604632	0.000127	20.735411
1977.523392	-2.994200	3.334900	-9.984700	26.639917	0.000124	20.730578
1978.521391	-3.014100	3.333200	-10.045000	26.642040	0.000124	20.753103
1979.524738	-2.997400	3.332100	-9.986500	26.688416	0.000125	20.746145
1980.526282	-3.026100	3.331700	-10.081000	26.662272	0.000125	20.725551
1981.522136	-2.990700	3.332200	-9.964900	26.692645	0.000123	20.721472
1982.524137	-2.989900	3.332700	-9.963600	26.717446	0.000123	20.739769
1983.525141	-3.024000	3.330900	-10.071000	26.709030	0.000121	20.738420
1984.522137	-2.994300	3.332000	-9.975800	26.678325	0.000119	20.715136
1985.526163	-3.013600	3.330300	-10.035000	26.621841	0.000119	20.729003
1986.525416	-2.971500	3.330800	-9.896400	26.617156	0.000119	20.731406
1987.522418	-2.968300	3.331700	-9.889100	26.608480	0.000120	20.719838
1988.525462	-2.987100	3.329600	-9.945000	26.663323	0.000120	20.726607
1989.526463	-2.994300	3.330600	-9.971300	26.638797	0.000119	20.701949
1990.524368	-2.993300	3.329800	-9.965400	26.708551	0.000121	20.731774
1991.524973	-3.010000	3.328600	-10.018000	26.752087	0.000119	20.700625
1992.524941	-3.006300	3.328300	-10.005000	26.793092	0.000117	20.706765
1993.525494	-2.988400	3.329200	-9.948200	26.756209	0.000117	20.724212
1994.525550	-2.984300	3.327700	-9.930000	26.746305	0.000117	20.747446
1995.524952	-2.992500	3.328700	-9.960300	26.764723	0.000118	20.730401
1996.526197	-2.996200	3.327800	-9.969800	26.731986	0.000116	20.720246
1997.527730	-3.000600	3.326900	-9.981800	26.689645	0.000115	20.702807
1998.524935	-2.999000	3.327000	-9.976900	26.693963	0.000114	20.718055
1999.527176	-3.027800	3.327200	-10.072000	26.655361	0.000115	20.734725
2000.525294	-3.005500	3.326200	-9.995800	26.630989	0.000117	20.706903
2001.526549	-3.008000	3.324900	-9.999400	26.612765	0.000115	20.713714
2002.526514	-3.013700	3.325400	-10.021000	26.624085	0.000115	20.712291
2003.525569	-3.005800	3.324700	-9.992100	26.682797	0.000115	20.711097
2004.524970	-3.012300	3.325000	-10.014000	26.675430	0.000114	20.712699
2005.526018	-2.997300	3.325000	-9.965000	26.666297	0.000114	20.703518
2006.525855	-3.013600	3.323800	-10.015000	26.710956	0.000114	20.693886
2007.524815	-3.013900	3.323500	-10.015000	26.716990	0.000113	20.701375
2008.526437	-2.982900	3.324400	-9.915800	26.733301	0.000111	20.689798
2009.525354	-3.000000	3.322700	-9.967200	26.786674	0.000113	20.699363
2010.527561	-2.999500	3.323600	-9.968500	26.789772	0.000111	20.703901
2011.528770	-3.003600	3.322700	-9.979500	26.756296	0.000111	20.713867
2012.527861	-3.010000	3.321700	-9.997800	26.720981	0.000112	20.721036
2013.527100	-3.015000	3.322000	-10.015000	26.702228	0.000110	20.699811
2014.527071	-3.017000	3.321900	-10.022000	26.683510	0.000113	20.714658
2015.528644	-3.011600	3.322200	-10.004000	26.732315	0.000113	20.703032
2016.527629	-2.970700	3.321100	-9.864700	26.775361	0.000110	20.688937
2017.527681	-2.985800	3.320800	-9.914400	26.765164	0.000111	20.685797
2018.527327	-2.977700	3.320500	-9.886800	26.767913	0.000109	20.691406
2019.528315	-2.999700	3.321000	-9.961400	26.750073	0.000110	20.699074
2020.530184	-2.997000	3.319600	-9.947100	26.750569	0.000109	20.704315
2021.530267	-3.018000	3.318200	-10.013000	26.728232	0.000110	20.696556
2022.529967	-3.014200	3.318800	-10.003000	26.703984	0.000107	20.696834
2023.534955	-3.005900	3.319200	-9.976300	26.711383	0.000110	20.692893
2024.529954	-2.999600	3.318000	-9.952000	26.727247	0.000109	20.696040
2025.533472	-3.000800	3.318000	-9.955900	26.721344	0.000110	20.694846
2026.532580	-3.005500	3.318300	-9.973000	26.676741	0.000107	20.693628
2027.531678	-3.016600	3.316300	-10.003000	26.736956	0.000107	20.682092
2028.534602	-2.988200	3.317100	-9.910500	26.789304	0.000106	20.712440
2029.536658	-2.979000	3.317700	-9.882600	26.830779	0.000104	20.699138
2030.531919	-3.010100	3.316000	-9.980600	26.800549	0.000106	20.686760
2031.531920	-3.025900	3.315900	-10.033000	26.817062	0.000106	20.694355
2032.536139	-3.007100	3.314800	-9.967100	26.847089	0.000104	20.688036
2033.532356	-2.982800	3.315200	-9.887800	26.802621	0.000104	20.694535
2034.533358	-2.985600	3.314900	-9.895500	26.818892	0.000106	20.683392
2035.538521	-3.020100	3.315300	-10.012000	26.826120	0.000103	20.709627
2036.535513	-3.017900	3.313500	-9.999400	26.845283	0.000104	20.688591
2037.534253	-3.016700	3.313900	-9.995600	26.882707	0.000102	20.687340
2038.539251	-3.016300	3.313800	-9.994300	26.904399	0.000102	20.684021
2039.535248	-2.988100	3.314100	-9.902700	26.891276	0.000101	20.679834
2040.536873	-3.008500	3.313400	-9.967000	26.794946	0.000102	20.696301
2041.537705	-2.967200	3.312800	-9.828200	26.825721	0.000102	20.697846
2042.535143	-2.999600	3.311300	-9.931100	26.897748	0.000102	20.666426
2043.537143	-2.990300	3.313300	-9.906800	26.943414	0.000100	20.695753
2044.538189	-3.006700	3.311300	-9.954600	26.966079	0.000101	20.688198
2045.536316	-3.002400	3.312600	-9.945100	26.944812	9.925478E-5	20.708539
2046.539562	-2.985700	3.311800	-9.887400	26.925894	0.000100	20.687144
2047.542895	-2.996300	3.309400	-9.914300	26.969502	9.806669E-5	20.686424
2048.535834	-2.995400	3.311500	-9.918200	26.954064	9.928778E-5	20.708834
2049.540831	-2.993200	3.309600	-9.905900	26.972656	9.875974E-5	20.669680
2050.541833	-3.022000	3.308800	-9.998500	26.977371	9.885875E-5	20.677741
2051.543266	-2.990400	3.308800	-9.893000	26.959778	9.661458E-5	20.704623
2052.542420	-3.000100	3.308700	-9.925300	26.915430	9.635057E-5	20.696063
2053.541378	-3.016000	3.307900	-9.975300	26.911455	9.684560E-5	20.682581
2054.539411	-3.014500	3.308300	-9.972000	26.932178	9.602054E-5	20.697257
2055.542450	-3.011200	3.307100	-9.957400	26.890397	9.496446E-5	20.672786
2056.543732	-3.009600	3.306300	-9.949500	26.890072	9.456844E-5	20.673407
2057.540731	-2.995400	3.307100	-9.905100	26.912657	9.479945E-5	20.715087
2058.543042	-3.004600	3.306400	-9.933300	26.930901	9.272030E-5	20.707353
2059.541140	-3.007800	3.305900	-9.942800	26.915795	9.341335E-5	20.696430
2060.541310	-2.983500	3.307300	-9.866400	26.893730	9.126819E-5	20.678034
2061.542740	-3.014600	3.306200	-9.965600	26.864046	9.295132E-5	20.679955
2062.543665	-3.000400	3.304700	-9.914400	26.917038	9.314933E-5	20.683454
2063.544407	-3.021300	3.304400	-9.982800	26.914185	9.153221E-5	20.687698
2064.542762	-2.986500	3.305900	-9.871700	26.906689	9.179623E-5	20.678263
2065.542759	-3.019800	3.303100	-9.973300	26.946850	9.054214E-5	20.670757
2066.553021	-2.970000	3.304700	-9.814100	26.996618	9.202725E-5	20.664379
2067.544069	-2.999100	3.304800	-9.910200	26.992172	8.991510E-5	20.678401
2068.544653	-2.989500	3.303000	-9.872800	27.049198	9.037713E-5	20.692128
2069.547699	-3.018400	3.302900	-9.968800	27.053124	9.153221E-5	20.691335
2070.546125	-3.010000	3.302500	-9.940100	27.059148	9.179623E-5	20.695496
2071.546153	-3.006000	3.302000	-9.925300	27.012031	8.852899E-5	20.667551
2072.549159	-3.001700	3.302200	-9.911200	27.001439	8.866100E-5	20.681082
2073.549891	-2.997200	3.300800	-9.891600	26.995756	8.753892E-5	20.673944
2074.548355	-2.990300	3.302500	-9.874700	26.974692	9.031112E-5	20.685006
2075.551575	-3.010100	3.301900	-9.938100	26.972758	8.882602E-5	20.671679
2076.548603	-2.991300	3.300200	-9.871400	26.883939	8.572379E-5	20.693794
2077.548663	-3.006300	3.300400	-9.920800	26.896191	8.552577E-5	20.674345
2078.551098	-3.012000	3.299500	-9.937300	26.938605	8.572379E-5	20.698504
2079.550100	-3.005100	3.299900	-9.914900	26.980529	8.453570E-5	20.687082
2080.550369	-3.007000	3.298300	-9.917000	26.976269	8.621883E-5	20.669045
2081.551754	-2.978100	3.298900	-9.823600	27.015127	8.621883E-5	20.719032
2082.550754	-2.985700	3.299200	-9.849000	27.055123	8.460171E-5	20.681016
2083.550757	-2.988600	3.297400	-9.853700	27.060236	8.661485E-5	20.676674
2084.556936	-2.986900	3.298100	-9.849600	27.082004	8.380965E-5	20.677704
2085.551378	-3.002600	3.298400	-9.902800	27.056967	8.460171E-5	20.696149
2086.552433	-3.012800	3.295900	-9.928500	27.073217	8.044340E-5	20.664598
2087.553073	-2.997100	3.297300	-9.881300	27.009738	8.262156E-5	20.704128
2088.552440	-2.986700	3.297100	-9.846500	26.987211	8.245655E-5	20.681947
2089.553709	-2.994200	3.296100	-9.868600	27.015249	8.493173E-5	20.687859
2090.554126	-2.994400	3.295400	-9.867100	27.040263	8.229154E-5	20.710644
2091.553139	-2.996500	3.296200	-9.875100	27.065381	8.093844E-5	20.695601
2092.553888	-2.990400	3.295000	-9.852600	27.130376	8.219253E-5	20.684154
2093.556114	-3.000600	3.296700	-9.891000	27.136822	8.113645E-5	20.697751
2094.554700	-2.983600	3.296200	-9.833400	27.157663	7.833125E-5	20.677458
2095.554214	-3.000900	3.294000	-9.884300	27.116899	7.991536E-5	20.691463
2096.555352	-2.999500	3.294200	-9.880400	27.159077	7.915631E-5	20.695952
2097.555751	-3.026400	3.293800	-9.967200	27.173252	8.067442E-5	20.713055
2098.555747	-3.018000	3.291900	-9.934000	27.149981	7.829825E-5	20.696761
2099.559746	-3.019800	3.291700	-9.939200	27.112339	8.017938E-5	20.697309
2100.556532	-2.991000	3.292900	-9.848600	27.030255	7.872728E-5	20.701053
2101.556712	-3.000100	3.291500	-9.873900	27.040684	7.810023E-5	20.699687
2102.557609	-2.999000	3.292900	-9.874900	27.074085	7.648311E-5	20.680646
2103.556139	-3.008500	3.290000	-9.896900	27.065972	7.711016E-5	20.700464
2104.556432	-2.983800	3.290700	-9.818400	27.075011	7.994837E-5	20.710503
2105.557469	-2.992000	3.291300	-9.845900	27.006761	7.859527E-5	20.693547
2106.557957	-2.998900	3.290900	-9.868300	26.972146	7.546004E-5	20.705680
2107.557008	-2.992500	3.290000	-9.843700	27.036455	7.572406E-5	20.679786
2108.558959	-3.007500	3.289700	-9.893200	27.078287	7.915631E-5	20.696253
2109.557958	-3.023200	3.289300	-9.943200	27.122206	7.572406E-5	20.685420
2110.558178	-3.022300	3.289000	-9.939300	27.121068	7.466798E-5	20.705614
2111.561114	-3.004800	3.287700	-9.878200	27.102518	7.443696E-5	20.684585
2112.559326	-3.001500	3.288700	-9.870400	27.087602	7.291885E-5	20.707992
2113.559329	-2.987300	3.288000	-9.820900	27.075449	7.446997E-5	20.698615
2114.561662	-3.007000	3.287800	-9.885600	27.069515	7.400793E-5	20.693121
2115.561532	-3.012300	3.286400	-9.897600	27.078652	7.235781E-5	20.700887
2116.561531	-3.007600	3.286600	-9.883600	27.075774	7.126873E-5	20.697993
2117.561531	-3.017600	3.286700	-9.917200	27.086496	7.252282E-5	20.696922
2118.561747	-3.005600	3.285600	-9.874800	27.073270	7.179677E-5	20.709700
2119.560938	-3.015400	3.285700	-9.906700	27.111767	7.215980E-5	20.688672
2120.562385	-3.022200	3.284200	-9.924500	27.123049	7.308386E-5	20.706659
2121.562873	-2.993700	3.285900	-9.835700	27.159578	7.182977E-5	20.676065
2122.562917	-3.000600	3.285500	-9.856100	27.129731	7.239081E-5	20.704369
2123.564157	-2.980500	3.284200	-9.787700	27.149888	7.143374E-5	20.701883
2124.563104	-3.005800	3.282000	-9.863500	27.107905	7.182977E-5	20.692375
2125.563155	-2.994100	3.282700	-9.827500	27.121284	7.153275E-5	20.711522
2126.566158	-3.005200	3.282900	-9.864900	27.123715	7.093871E-5	20.701638
2127.563424	-3.008400	3.282800	-9.875100	27.131087	6.928859E-5	20.705259
2128.563463	-2.981400	3.283800	-9.789500	27.201134	6.846353E-5	20.697002
2129.566747	-3.004500	3.281200	-9.856900	27.214212	7.054268E-5	20.705414
2130.564782	-2.991900	3.281400	-9.816700	27.276599	6.912357E-5	20.710320
2131.563809	-3.007500	3.279900	-9.863800	27.204881	6.744045E-5	20.731593
2132.566301	-2.983400	3.281900	-9.790400	27.122389	6.872755E-5	20.695562
2133.564302	-3.012700	3.279900	-9.880100	27.079511	7.093871E-5	20.693216
2134.565326	-2.994400	3.279400	-9.818900	27.145116	6.608735E-5	20.698980
2135.566988	-2.978600	3.281200	-9.772800	27.170849	6.678040E-5	20.711587
2136.567074	-2.999200	3.279400	-9.834500	27.176563	6.460224E-5	20.713540
2137.567688	-3.008300	3.278000	-9.860400	27.140084	6.621936E-5	20.713361
2138.571722	-2.991900	3.278300	-9.807400	27.118869	6.374418E-5	20.704825
2139.568690	-3.003300	3.276900	-9.840200	27.102474	6.793549E-5	20.715363
2140.569219	-3.016200	3.276600	-9.881600	27.103140	6.651638E-5	20.711292
2141.573458	-2.998400	3.278200	-9.828600	27.160168	6.532830E-5	20.705111
2142.571681	-2.996700	3.277500	-9.820600	27.172230	6.499827E-5	20.716769
2143.574681	-3.009800	3.277100	-9.861700	27.161111	6.348016E-5	20.713172
2144.575308	-2.997500	3.276200	-9.820200	27.164313	6.390919E-5	20.683199
2145.571533	-3.025500	3.273600	-9.903500	27.149951	6.351316E-5	20.705740
2146.571554	-2.987900	3.274900	-9.784200	27.129972	6.262210E-5	20.705560
2147.574781	-3.005400	3.275200	-9.842100	27.150698	6.410721E-5	20.704121
2148.570782	-3.011100	3.275200	-9.861100	27.233643	6.463525E-5	20.717374
2149.573989	-3.002000	3.274100	-9.828100	27.262405	6.397520E-5	20.730184
2150.577170	-3.014000	3.273200	-9.864100	27.295451	6.044394E-5	20.723595
2151.572138	-2.991500	3.273600	-9.791600	27.250491	6.235808E-5	20.703025
2152.572413	-2.981900	3.272900	-9.758000	27.234439	6.087297E-5	20.722442
2153.577642	-2.992200	3.272900	-9.792000	27.296897	6.001491E-5	20.694702
2154.573849	-3.001600	3.272700	-9.822700	27.327235	6.222607E-5	20.709099
2155.576323	-2.978900	3.272200	-9.745600	27.337905	5.932186E-5	20.712247
2156.577291	-3.000300	3.271900	-9.815700	27.276205	6.021292E-5	20.724625
2157.572985	-3.001000	3.271700	-9.816900	27.321351	6.021292E-5	20.715983
2158.575340	-3.008000	3.270000	-9.835600	27.304910	6.077396E-5	20.711298
2159.577003	-2.982700	3.272200	-9.759000	27.307494	5.836479E-5	20.720062
2160.574687	-3.017400	3.269200	-9.863300	27.388046	5.793576E-5	20.700571
2161.577691	-2.991100	3.270400	-9.781100	27.417251	6.017992E-5	20.729954
2162.577390	-2.996400	3.270100	-9.797600	27.457532	6.024592E-5	20.719269
2163.574379	-3.003100	3.269400	-9.817100	27.479138	5.740772E-5	20.727256
2164.577426	-2.996900	3.268000	-9.792300	27.454809	5.872781E-5	20.718901
2165.580379	-3.041400	3.266700	-9.934200	27.422914	5.750672E-5	20.738497
2166.575729	-2.996000	3.269900	-9.794000	27.434104	5.565859E-5	20.705182
2167.578070	-2.990300	3.267700	-9.770200	27.362958	5.509755E-5	20.719432
2168.580290	-3.009200	3.266500	-9.828500	27.334011	5.456951E-5	20.706432
2169.577339	-3.026400	3.268000	-9.888900	27.306225	5.539457E-5	20.724476
2170.580922	-3.012700	3.266300	-9.839600	27.279560	5.579060E-5	20.718990
2171.584137	-3.018500	3.265200	-9.854400	27.289085	5.407447E-5	20.740426
2172.580347	-3.027000	3.263300	-9.876700	27.271952	5.443750E-5	20.731253
2173.584564	-3.015800	3.266100	-9.849500	27.293790	5.658266E-5	20.728088
2174.584568	-2.997900	3.264600	-9.786400	27.330759	5.404147E-5	20.727818
2175.582569	-2.972800	3.264200	-9.702800	27.402825	5.427249E-5	20.729192
2176.586565	-3.008400	3.263500	-9.816200	27.456310	5.522956E-5	20.738904
2177.586563	-2.976100	3.263300	-9.710600	27.480639	5.344743E-5	20.739673
2178.582809	-2.998000	3.261900	-9.778300	27.508323	5.093924E-5	20.713944
2179.584804	-3.005700	3.262700	-9.805700	27.495671	5.344743E-5	20.744366
2180.584937	-3.004100	3.263200	-9.802200	27.423319	5.189631E-5	20.747913
2181.581918	-2.997800	3.261500	-9.776900	27.404913	5.242435E-5	20.749311
2182.584127	-2.981200	3.262200	-9.724700	27.368076	5.166530E-5	20.754454
2183.585326	-3.002600	3.261600	-9.792400	27.308296	5.173130E-5	20.750267
2184.583534	-3.017900	3.259300	-9.834600	27.356000	5.097225E-5	20.737563
2185.586505	-2.990500	3.259600	-9.746700	27.392098	4.942113E-5	20.739737
2186.586361	-3.004800	3.260200	-9.795100	27.398550	4.968515E-5	20.740539
2187.583676	-3.000800	3.258200	-9.776000	27.373870	5.179731E-5	20.735151
2188.586709	-3.001500	3.259400	-9.782800	27.315008	4.975116E-5	20.764132
2189.586943	-2.969900	3.259300	-9.678800	27.335723	5.051021E-5	20.734709
2190.584038	-3.000500	3.258000	-9.775200	27.364670	4.945413E-5	20.722102
2191.586089	-3.030900	3.256600	-9.868900	27.419742	4.928912E-5	20.753324
2192.588017	-3.005200	3.256800	-9.786500	27.426040	4.641791E-5	20.753496
2193.585020	-3.002000	3.257400	-9.776600	27.483222	4.753999E-5	20.729468
2194.586066	-2.986800	3.256000	-9.724400	27.480418	4.615389E-5	20.745141
2195.587694	-2.983600	3.254600	-9.709700	27.547591	4.938813E-5	20.745868
2196.587690	-2.986000	3.256400	-9.722800	27.573063	4.892610E-5	20.753954
2197.586700	-2.987600	3.254700	-9.722700	27.604814	4.717697E-5	20.732321
2198.588922	-2.985500	3.254500	-9.715700	27.614060	4.783702E-5	20.740203
2199.585922	-2.999800	3.254200	-9.760900	27.558478	4.687994E-5	20.748288
2200.588205	-2.987600	3.253700	-9.720100	27.504908	4.618689E-5	20.732795
2201.592239	-3.008100	3.253300	-9.785400	27.459071	4.625290E-5	20.765391
2202.587204	-3.002100	3.253900	-9.767600	27.453587	4.585687E-5	20.728103
2203.591313	-3.024900	3.252300	-9.836000	27.443624	4.724297E-5	20.761703
2204.591625	-2.991600	3.252600	-9.729700	27.422439	4.430576E-5	20.759831
2205.589305	-3.009500	3.251400	-9.784300	27.398898	4.542784E-5	20.745630
2206.591319	-3.006300	3.252300	-9.776400	27.432711	4.602188E-5	20.758310
2207.591506	-2.995900	3.251100	-9.739500	27.500162	4.433876E-5	20.757893
2208.589501	-3.003300	3.250900	-9.762900	27.476330	4.671493E-5	20.764736
2209.592681	-2.997000	3.249600	-9.736900	27.454772	4.595588E-5	20.749211
2210.594680	-3.016900	3.248600	-9.800100	27.396183	4.291965E-5	20.760918
2211.589663	-2.993000	3.249700	-9.725500	27.404642	4.258963E-5	20.752358
2212.592738	-3.005400	3.248300	-9.761500	27.485089	4.334869E-5	20.747943
2213.594923	-3.019900	3.247900	-9.806800	27.542259	4.430576E-5	20.759945
2214.590241	-2.975200	3.249100	-9.665800	27.474403	4.245762E-5	20.753788
2215.593226	-2.985000	3.248600	-9.696500	27.460809	4.140154E-5	20.751017
2216.592286	-2.986100	3.247900	-9.697900	27.473745	4.140154E-5	20.759764
2217.590261	-2.979500	3.247900	-9.676200	27.500559	4.018045E-5	20.754973
2218.591695	-2.987900	3.245800	-9.696500	27.532727	4.123653E-5	20.765053
2219.592132	-3.010300	3.246800	-9.772900	27.563814	4.173157E-5	20.758398
2220.592212	-2.960500	3.246800	-9.610800	27.586929	3.994944E-5	20.759845
2221.591810	-2.981400	3.246500	-9.677800	27.517037	4.008145E-5	20.756379
2222.592778	-2.997000	3.245000	-9.723900	27.465496	4.021346E-5	20.763320
2223.591872	-3.014100	3.244400	-9.778800	27.460149	3.912438E-5	20.771691
2224.593344	-2.987200	3.245200	-9.693900	27.458906	3.889336E-5	20.780397
2225.593118	-2.999500	3.243800	-9.729000	27.442816	3.856333E-5	20.774642
2226.592114	-3.006200	3.242900	-9.747200	27.535293	3.905837E-5	20.772377
2227.592170	-2.997700	3.242200	-9.717300	27.560944	4.064249E-5	20.764994
2228.592355	-3.000900	3.243600	-9.733000	27.551495	3.757326E-5	20.762599
2229.592355	-2.981000	3.242100	-9.664100	27.577511	3.869534E-5	20.741834
2230.592873	-3.004200	3.242700	-9.740000	27.629598	3.754026E-5	20.780969
2231.591870	-2.988100	3.242000	-9.686000	27.684835	3.938840E-5	20.775385
2232.591997	-2.988700	3.241200	-9.685900	27.680270	3.813430E-5	20.763678
2233.593357	-2.986800	3.241800	-9.682200	27.647862	3.975142E-5	20.766629
2234.594362	-2.997200	3.239500	-9.708400	27.620409	3.727624E-5	20.776464
2235.594372	-3.005200	3.239700	-9.734900	27.600129	3.958641E-5	20.781663
2236.595892	-2.990000	3.239800	-9.685600	27.563470	3.707823E-5	20.775597
2237.597959	-3.004700	3.238700	-9.730500	27.567297	3.668220E-5	20.769015
2238.596666	-2.989600	3.239900	-9.685200	27.547878	3.668220E-5	20.772710
2239.598699	-3.000600	3.239000	-9.717700	27.546586	3.562612E-5	20.750547
2240.598666	-2.991100	3.239000	-9.688100	27.486767	3.645118E-5	20.746786
2241.599665	-2.991800	3.236900	-9.683400	27.505967	3.823331E-5	20.778433
2242.598666	-3.012000	3.237000	-9.749000	27.469532	3.648418E-5	20.776389
2243.611664	-2.996800	3.236600	-9.698500	27.475106	3.622016E-5	20.780575
2244.598177	-3.008500	3.233900	-9.728500	27.520333	3.582413E-5	20.770127
2245.598177	-3.009700	3.233800	-9.732400	27.560520	3.549411E-5	20.777844
2246.602177	-3.006400	3.234700	-9.724100	27.570123	3.651718E-5	20.774704
2247.598177	-2.997500	3.234500	-9.694200	27.591922	3.701222E-5	20.780043
2248.598177	-2.987900	3.234600	-9.662900	27.671168	3.744125E-5	20.754519
2249.601176	-2.998100	3.234200	-9.695500	27.702446	3.595614E-5	20.790261
2250.598177	-2.984600	3.232800	-9.647600	27.674442	3.552711E-5	20.769668
2251.598177	-3.008400	3.232500	-9.724500	27.636680	3.457004E-5	20.779086
2252.602196	-3.001100	3.232200	-9.700000	27.685459	3.622016E-5	20.802090
2253.598179	-2.993100	3.231100	-9.669600	27.638297	3.496607E-5	20.777393
2254.598177	-3.003800	3.230200	-9.702100	27.667528	3.262290E-5	20.801592
2255.602178	-2.991600	3.231600	-9.666300	27.712178	3.565912E-5	20.792942
2256.600177	-2.988700	3.231400	-9.656400	27.712584	3.450404E-5	20.808998
2257.600177	-2.972600	3.230900	-9.603400	27.720001	3.239188E-5	20.784693
2258.604179	-2.996100	3.230300	-9.677300	27.698058	3.344796E-5	20.798648
2259.601177	-3.005400	3.229000	-9.703700	27.708441	3.278791E-5	20.786811
2260.601177	-2.961100	3.230000	-9.563500	27.745273	3.542810E-5	20.783573
2261.605690	-2.997300	3.229100	-9.677600	27.777296	3.361297E-5	20.798255
2262.602691	-3.002000	3.227000	-9.686500	27.847447	3.232588E-5	20.792042
2263.605690	-3.008200	3.227000	-9.706700	27.871230	3.433902E-5	20.797961
2264.607690	-2.998000	3.226700	-9.672500	27.873293	3.232588E-5	20.804304
2265.604691	-3.014600	3.225500	-9.722900	27.811974	3.176484E-5	20.797118
2266.607243	-2.997700	3.225900	-9.670000	27.794200	3.077476E-5	20.801990
2267.607380	-3.016100	3.225900	-9.727900	27.743867	3.080777E-5	20.808236
2268.603812	-2.985700	3.227300	-9.633900	27.739724	3.169883E-5	20.796006
2269.603814	-2.987200	3.228000	-9.641900	27.644267	2.773854E-5	20.799996
2270.607074	-3.007900	3.223200	-9.694500	27.685147	3.140181E-5	20.803674
2271.605755	-3.014400	3.222700	-9.713600	27.683953	3.037873E-5	20.793938
2272.609355	-2.982600	3.223100	-9.612600	27.693288	2.803556E-5	20.795270
2273.611301	-3.011200	3.224100	-9.707400	27.717708	2.905864E-5	20.825060
2274.607617	-3.004300	3.222400	-9.680100	27.749578	2.905864E-5	20.796439
2275.607615	-3.014500	3.222200	-9.713000	27.752339	3.047774E-5	20.804908
2276.611619	-3.028200	3.222600	-9.757700	27.742347	2.724350E-5	20.803862
2277.607310	-2.999800	3.221100	-9.661500	27.706237	2.862961E-5	20.818732
2278.611341	-3.005400	3.220500	-9.677900	27.690639	2.668246E-5	20.796872
2279.609898	-3.003500	3.221200	-9.674200	27.683879	2.684747E-5	20.782009
2280.607946	-3.014300	3.219800	-9.705000	27.684472	2.641844E-5	20.818642
2281.613406	-2.977100	3.219300	-9.582300	27.747611	2.638544E-5	20.808685
2282.611849	-2.999300	3.220700	-9.659600	27.804247	2.750752E-5	20.816369
2283.609183	-3.018000	3.218500	-9.712600	27.819380	2.787055E-5	20.805521
2284.608181	-3.011900	3.220600	-9.699400	27.860295	2.829958E-5	20.818723
2285.613290	-3.016800	3.216700	-9.703200	27.802200	2.605542E-5	20.815731
2286.609973	-2.981600	3.217800	-9.593600	27.846860	2.519735E-5	20.814685
2287.610128	-3.006800	3.216900	-9.671300	27.833717	2.542837E-5	20.822320
2288.613484	-3.003300	3.216200	-9.658500	27.776750	2.457031E-5	20.817146
2289.610819	-3.016600	3.214100	-9.695000	27.744167	2.450430E-5	20.816598
2290.610881	-3.007300	3.214600	-9.666100	27.726692	2.565939E-5	20.803281
2291.614286	-3.009600	3.213900	-9.672300	27.806830	2.420728E-5	20.829400
2292.612225	-3.016000	3.213100	-9.689500	27.813231	2.648445E-5	20.791746
2293.612862	-2.975100	3.216300	-9.568500	27.799714	2.367924E-5	20.835514
2294.613579	-2.976500	3.213600	-9.564500	27.824571	2.433929E-5	20.833977
2295.612798	-3.008600	3.212300	-9.663200	27.836244	2.226014E-5	20.831975
2296.613238	-3.000300	3.213400	-9.640300	27.844667	2.407527E-5	20.824806
2297.614288	-3.004900	3.212000	-9.650600	27.906732	2.262316E-5	20.836536
2298.613974	-3.015800	3.211500	-9.684700	27.890146	2.186411E-5	20.809886
2299.615131	-2.977500	3.211400	-9.561500	27.907999	2.199612E-5	20.813156
2300.618167	-2.988300	3.210500	-9.593300	27.901055	2.288718E-5	20.828926
2301.617155	-2.992100	3.209400	-9.602000	27.869466	2.328321E-5	20.842651
2302.615850	-2.985400	3.208800	-9.578200	27.834229	2.156709E-5	20.843697
2303.617853	-2.999800	3.210200	-9.629300	27.863366	2.212813E-5	20.837460
2304.617387	-2.977800	3.209700	-9.557100	27.904848	2.275517E-5	20.816622
2305.618387	-2.990500	3.207900	-9.592200	27.938247	2.212813E-5	20.845496
2306.620585	-3.013600	3.208300	-9.667700	27.927331	2.146808E-5	20.817914
2307.617362	-3.000400	3.207900	-9.624500	27.876728	2.262316E-5	20.815821
2308.617859	-3.006600	3.208000	-9.644900	27.893290	2.268917E-5	20.820162
2309.619246	-2.990900	3.207700	-9.593100	27.877816	2.140207E-5	20.805537
2310.618341	-2.988700	3.207100	-9.584300	27.825173	1.886089E-5	20.826997
2311.618337	-2.977800	3.206500	-9.547400	27.793411	1.895989E-5	20.821111
2312.621703	-3.002200	3.204100	-9.618400	27.848542	1.988396E-5	20.815903
2313.622299	-2.987400	3.206100	-9.577200	27.922872	1.793682E-5	20.806788
2314.620729	-2.985800	3.206400	-9.572700	27.895800	1.991697E-5	20.809412
2315.620918	-2.993400	3.204900	-9.592700	27.861831	2.011498E-5	20.816001
2316.620780	-2.973800	3.204200	-9.527800	27.778610	1.790382E-5	20.799578
2317.619824	-3.004400	3.201600	-9.617400	27.770593	1.942193E-5	20.810949
2318.623150	-3.000700	3.201900	-9.607200	27.787391	1.823384E-5	20.803673
2319.621802	-2.986500	3.202800	-9.564100	27.783769	1.872888E-5	20.798605
2320.620811	-3.012700	3.201600	-9.644700	27.816399	1.882789E-5	20.819590
2321.622780	-3.016800	3.200600	-9.655000	27.902249	1.730977E-5	20.810213
2322.621779	-2.986700	3.200400	-9.557200	27.969443	1.800282E-5	20.798662
2323.620995	-3.004200	3.199000	-9.609200	27.986475	1.886089E-5	20.801580
2324.622884	-2.996400	3.200900	-9.590600	27.890276	1.928992E-5	20.790577
2325.621388	-3.002000	3.199800	-9.604300	27.866233	2.054401E-5	20.798146
2326.621046	-3.016300	3.198200	-9.645900	27.790998	1.651772E-5	20.796871
2327.623005	-2.990600	3.197800	-9.563200	27.812492	1.816784E-5	20.790053
2328.622278	-2.996900	3.196500	-9.578700	27.810437	1.625370E-5	20.807899
2329.621954	-2.981200	3.197700	-9.532300	27.847331	1.958694E-5	20.795245
2330.623038	-2.994800	3.197000	-9.573600	27.853878	1.790382E-5	20.799937
2331.622743	-2.978300	3.197400	-9.521900	27.785945	1.780481E-5	20.796528
2332.622047	-2.987800	3.198100	-9.554000	27.827925	1.635270E-5	20.778085
2333.624297	-3.007100	3.195000	-9.606700	27.936061	1.740878E-5	20.812477
2334.622127	-2.997500	3.193700	-9.572100	27.956886	1.585767E-5	20.799773
2335.622507	-3.038200	3.191400	-9.694500	27.910566	1.569265E-5	20.785867
2336.623109	-3.015800	3.192600	-9.627400	27.925234	1.655072E-5	20.796838
2337.622594	-2.994000	3.192000	-9.555500	27.962198	1.476859E-5	20.787576
2338.622174	-3.008100	3.192000	-9.601100	27.975534	1.367951E-5	20.802896
2339.622582	-3.015100	3.193300	-9.627200	28.011408	1.542864E-5	20.776891
2340.623583	-2.977500	3.191400	-9.501700	28.039419	1.447156E-5	20.784698
2341.625181	-3.023200	3.189100	-9.640600	28.041401	1.463658E-5	20.767252
2342.628425	-2.995800	3.189200	-9.552700	28.033295	1.424055E-5	20.786121
2343.624455	-3.018200	3.187900	-9.620900	28.026928	1.605568E-5	20.790617
2344.629711	-2.977700	3.189300	-9.496200	27.986815	1.542864E-5	20.787224
2345.627791	-3.041800	3.186500	-9.691100	28.015574	1.516462E-5	20.795309
2346.624791	-3.002100	3.186500	-9.565500	28.044454	1.311847E-5	20.776965
2347.628825	-3.022500	3.186900	-9.630600	28.060461	1.367951E-5	20.758464
2348.629044	-3.016500	3.185700	-9.608500	28.047183	1.433956E-5	20.761693
2349.624928	-3.012900	3.183800	-9.591200	28.045104	1.483459E-5	20.780937
2350.624929	-3.030800	3.184000	-9.648900	28.011952	1.275544E-5	20.790715
2351.628539	-3.012300	3.184400	-9.591400	27.978417	1.351449E-5	20.783987
2352.625597	-2.993200	3.184500	-9.531300	27.946725	1.519762E-5	20.775321
2353.626725	-3.022400	3.182500	-9.618200	27.957219	1.490060E-5	20.770710
2354.629723	-2.985200	3.183400	-9.502400	28.013519	1.318447E-5	20.764791
2355.627105	-2.995900	3.183300	-9.535900	28.025027	1.183137E-5	20.762625
2356.628533	-3.014000	3.182300	-9.590500	28.026700	1.579166E-5	20.770473
2357.629743	-3.000900	3.183300	-9.551700	28.014623	1.612169E-5	20.797197
2358.628948	-2.985000	3.180900	-9.494300	28.009344	1.255742E-5	20.793780
2359.629169	-2.992400	3.180000	-9.514600	28.020325	1.216140E-5	20.757417
2360.630643	-2.992700	3.180500	-9.517600	28.024199	1.430655E-5	20.781231
2361.629643	-2.993500	3.178900	-9.515300	28.052185	1.255742E-5	20.763409
2362.630387	-2.991900	3.179100	-9.510000	27.970490	1.153435E-5	20.771266
2363.633387	-3.041900	3.175400	-9.657800	28.037932	1.196338E-5	20.772770
2364.634620	-3.012400	3.176700	-9.568200	28.077076	1.080830E-5	20.776612
2365.635553	-2.981000	3.176300	-9.467500	28.083476	1.216140E-5	20.755078
2366.636638	-2.997500	3.175800	-9.518400	28.051689	9.686213E-6	20.759591
2367.634970	-2.988200	3.173500	-9.481800	28.072488	1.113832E-5	20.768674
2368.635589	-3.008500	3.174500	-9.549200	28.042171	1.186437E-5	20.747165
2369.636123	-3.021300	3.172100	-9.583200	28.048165	1.080830E-5	20.769794
2370.636129	-2.999000	3.172700	-9.513700	28.057903	1.061028E-5	20.768217
2371.636128	-2.970700	3.174700	-9.430300	28.105654	9.422193E-6	20.771241
2372.638129	-2.970600	3.172600	-9.422500	28.149213	1.008224E-5	20.759142
2373.637899	-3.013200	3.170500	-9.552700	28.179576	1.074229E-5	20.767898
2374.638112	-3.009500	3.171100	-9.541600	28.206714	1.028026E-5	20.768666
2375.639112	-3.010800	3.169400	-9.541600	28.141645	8.828150E-6	20.776653
2376.637804	-2.991200	3.169400	-9.479100	28.067193	8.003089E-6	20.761448
2377.639444	-2.983200	3.168200	-9.449900	28.026262	8.168101E-6	20.763393
2378.640709	-3.018600	3.168100	-9.562100	28.015330	8.465123E-6	20.742906
2379.639995	-2.974900	3.167700	-9.422600	28.069654	7.211031E-6	20.767718
2380.640601	-2.987700	3.166700	-9.460500	28.106304	8.366116E-6	20.783276
2381.640640	-2.997000	3.165400	-9.485800	28.193941	6.748997E-6	20.762919
2382.639851	-2.986700	3.165700	-9.454300	28.238845	5.824929E-6	20.737952
2383.641700	-2.993000	3.165400	-9.473000	28.190141	7.673065E-6	20.766680
2384.641698	-2.999400	3.164100	-9.489200	28.140615	7.310038E-6	20.741950
2385.641541	-3.000400	3.163200	-9.489000	28.163871	7.739070E-6	20.762993
2386.641541	-3.002100	3.161300	-9.489100	28.180916	6.781999E-6	20.764506
2387.641542	-3.004000	3.161400	-9.496000	28.181590	5.758924E-6	20.750011
2388.640794	-3.017000	3.160200	-9.533100	28.186073	6.154953E-6	20.742195
2389.642372	-2.973900	3.159300	-9.394300	28.250131	8.003089E-6	20.755954
2390.646373	-3.008700	3.159700	-9.505900	28.276894	7.178028E-6	20.746863
2391.643343	-2.976600	3.159200	-9.403000	28.258876	8.168101E-6	20.756698
2392.643567	-2.999600	3.158600	-9.473800	28.249636	6.914009E-6	20.743127
2393.646711	-2.983800	3.157900	-9.422000	28.262644	6.187956E-6	20.748163
2394.643146	-2.989800	3.156700	-9.436500	28.258008	5.956939E-6	20.753453
2395.642781	-2.998700	3.156200	-9.464000	28.210400	5.428900E-6	20.762895
2396.648114	-2.983700	3.156600	-9.416800	28.232333	3.811781E-6	20.747991
2397.644121	-3.034200	3.152800	-9.565600	28.267881	5.428900E-6	20.738262
2398.644253	-2.980400	3.154300	-9.399300	28.313407	4.867858E-6	20.744746
2399.647618	-3.009100	3.152500	-9.486000	28.362308	7.079021E-6	20.738982
2400.643837	-2.995100	3.153000	-9.443100	28.424042	6.616987E-6	20.721486
2401.646834	-2.978600	3.152500	-9.389000	28.416078	5.626914E-6	20.749504
2402.648566	-3.024600	3.150700	-9.527500	28.410753	3.943790E-6	20.731338
2403.644222	-3.032500	3.148800	-9.547600	28.342603	1.831635E-6	20.755177
2404.645360	-3.012700	3.148900	-9.485600	28.312790	3.415751E-6	20.740331
2405.649468	-3.016700	3.148800	-9.498000	28.297712	2.458681E-6	20.743168
2406.644466	-3.000700	3.146700	-9.441400	28.256968	2.821708E-6	20.753829
2407.648517	-3.030900	3.145800	-9.533900	28.261304	5.296890E-6	20.734011
2408.649663	-3.006400	3.145600	-9.455700	28.255799	2.854710E-6	20.725149
2409.645848	-3.007300	3.145500	-9.459100	28.320040	9.735717E-7	20.737200
2410.647014	-2.997400	3.144200	-9.422900	28.324327	4.570836E-6	20.734878
2411.649224	-3.003400	3.143700	-9.440300	28.311239	2.095654E-6	20.749202
2412.646595	-3.002600	3.142000	-9.433100	28.317881	2.755703E-6	20.753518
2413.649117	-3.005900	3.141400	-9.440900	28.375023	2.590691E-6	20.758424
2414.649753	-2.990300	3.141700	-9.393700	28.390587	1.155085E-7	20.759397
2415.647970	-2.973700	3.141500	-9.340900	28.391528	2.293669E-6	20.757500
2416.651007	-2.984900	3.140200	-9.372200	28.381461	1.666623E-6	20.739776
2417.649991	-2.998100	3.139200	-9.410000	28.366815	1.666623E-6	20.732614
2418.648956	-2.988900	3.138700	-9.379700	28.377597	1.650122E-8	20.731143
2419.648819	-2.998400	3.137800	-9.407700	28.398430	2.986720E-6	20.715609
2420.648867	-2.981000	3.137100	-9.350500	28.447481	-5.775425E-7	20.743193
2421.656869	-2.970000	3.135900	-9.312400	28.477210	-3.465255E-7	20.760803
2422.650352	-2.992600	3.134800	-9.379500	28.481569	-1.204589E-6	20.727734
2423.651821	-2.994200	3.134800	-9.385400	28.510664	-2.805207E-7	20.725739
2424.649358	-3.005200	3.133900	-9.417500	28.373692	7.095522E-7	20.749971
2425.649619	-2.956700	3.133700	-9.264100	28.355019	8.415620E-7	20.753454
2426.651937	-2.995900	3.131100	-9.379500	28.377873	-3.465255E-7	20.743750
2427.650678	-3.022900	3.130200	-9.461500	28.356602	2.260666E-6	20.726124
2428.650667	-3.009100	3.128900	-9.414400	28.366467	-1.402603E-6	20.744118
2429.651666	-2.997400	3.128700	-9.376400	28.364104	4.950364E-8	20.719453
2430.650716	-2.982800	3.128400	-9.330600	28.433470	-1.105581E-6	20.738093
2431.650733	-2.987200	3.128600	-9.344800	28.446110	-3.795279E-7	20.739916
2432.650698	-2.994600	3.128500	-9.368100	28.487894	-1.204589E-6	20.736474
2433.650629	-2.989900	3.125900	-9.345300	28.415123	-7.425547E-7	20.740006
2434.650499	-2.985700	3.126300	-9.333500	28.367442	-2.227664E-6	20.744625
2435.650497	-3.014200	3.123600	-9.414300	28.301783	-1.501611E-6	20.745844
2436.651252	-3.009600	3.122800	-9.397800	28.292559	-3.250739E-6	20.758369
2437.652473	-2.983400	3.122100	-9.313400	28.298974	-1.798632E-6	20.715987
2438.651753	-3.032400	3.119400	-9.458200	28.342566	-3.613766E-6	20.729060
2439.651794	-2.990600	3.120900	-9.332900	28.415505	-3.877786E-6	20.718579
2440.651794	-3.018500	3.119600	-9.415300	28.446525	-1.633620E-6	20.735593
2441.653006	-2.985200	3.119100	-9.310500	28.436410	-3.085727E-6	20.740106
2442.653008	-2.976400	3.118000	-9.279000	28.430614	-1.171586E-6	20.733794
2443.655675	-3.009000	3.116700	-9.377000	28.446201	-2.194662E-6	20.731472
2444.655644	-2.978900	3.116200	-9.281500	28.430240	-3.184735E-6	20.731995
2445.655265	-3.015900	3.115000	-9.393300	28.458321	-3.349747E-6	20.748894
2446.654300	-2.983300	3.113900	-9.288800	28.467138	-2.359674E-6	20.730745
2447.654753	-2.968100	3.113200	-9.239000	28.524548	-4.801854E-6	20.728341
2448.654193	-2.986400	3.111900	-9.292800	28.557708	-4.966866E-6	20.742771
2449.654711	-3.008800	3.111000	-9.359800	28.521422	-2.953718E-6	20.737997
2450.654225	-2.988200	3.110700	-9.293800	28.478706	-4.471829E-6	20.729592
2451.654746	-2.995600	3.109000	-9.312700	28.464361	-3.349747E-6	20.725104
2452.656960	-2.980900	3.109700	-9.268400	28.459101	-4.768851E-6	20.721229
2453.656015	-2.981100	3.107800	-9.263000	28.526009	-5.428900E-6	20.729813
2454.657169	-2.977000	3.107500	-9.250300	28.570022	-6.253961E-6	20.730516
2455.656174	-2.996900	3.106400	-9.308900	28.598984	-4.207810E-6	20.721752
2456.661169	-2.997600	3.106400	-9.310700	28.597945	-5.725922E-6	20.738250
2457.657397	-2.984000	3.103100	-9.259000	28.553609	-5.263888E-6	20.705924
2458.656548	-3.003000	3.102800	-9.317000	28.503953	-4.471829E-6	20.727042
2459.657547	-2.990300	3.102200	-9.275800	28.480135	-5.395897E-6	20.722022
2460.659550	-3.011100	3.100600	-9.334400	28.460035	-5.824929E-6	20.722169
2461.658778	-2.992700	3.100800	-9.279300	28.432035	-6.187956E-6	20.726690
2462.660028	-2.998400	3.099800	-9.293800	28.439837	-7.640063E-6	20.709415
2463.662526	-2.995300	3.098500	-9.280200	28.356199	-6.980014E-6	20.726666
2464.660736	-2.998600	3.098000	-9.289300	28.368612	-7.046019E-6	20.733950
2465.660695	-3.010400	3.096600	-9.321400	28.334659	-8.729143E-6	20.723943
2466.661648	-3.002200	3.094200	-9.288600	28.370488	-8.069094E-6	20.730623
2467.661650	-3.011300	3.093300	-9.313300	28.443774	-9.587206E-6	20.726184
2468.662246	-3.011900	3.092300	-9.311600	28.512826	-6.286963E-6	20.712742
2469.662455	-2.987400	3.092600	-9.237500	28.503133	-9.422194E-6	20.730484
2470.663412	-2.996100	3.089400	-9.255100	28.492377	-9.422194E-6	20.715383
2471.663606	-3.009900	3.090300	-9.301200	28.515326	-7.871080E-6	20.711941
2472.666250	-2.990600	3.090000	-9.240000	28.466383	-8.399119E-6	20.716234
2473.666117	-3.007000	3.088300	-9.285700	28.534062	-7.178029E-6	20.733181
2474.665222	-3.020600	3.086200	-9.321200	28.563893	-8.135099E-6	20.706799
2475.667439	-3.000100	3.086600	-9.259300	28.502086	-8.993162E-6	20.709513
2476.666446	-3.009100	3.083600	-9.278400	28.521650	-8.300111E-6	20.713568
2477.666496	-2.995000	3.083200	-9.232900	28.501031	-1.034626E-5	20.691853
2478.669497	-3.012100	3.083000	-9.285000	28.503782	-7.244034E-6	20.730189
2479.666497	-2.995900	3.080600	-9.228100	28.492588	-8.993162E-6	20.721760
2480.666399	-3.013500	3.079900	-9.280000	28.558600	-1.189738E-5	20.696726
2481.669399	-3.004200	3.079400	-9.250200	28.575744	-7.112024E-6	20.712096
2482.666857	-3.009700	3.078000	-9.262400	28.515975	-8.663138E-6	20.692679
2483.666851	-3.015300	3.076900	-9.276500	28.517063	-9.356189E-6	20.691878
2484.667127	-3.009800	3.075200	-9.254600	28.535750	-1.140234E-5	20.695050
2485.665778	-2.998400	3.074200	-9.216800	28.562010	-8.894155E-6	20.704428
2486.665994	-2.970900	3.075400	-9.136000	28.508434	-9.752218E-6	20.698362
2487.667183	-2.997000	3.072800	-9.208600	28.456722	-1.153435E-5	20.729739
2488.666777	-3.017000	3.070700	-9.262900	28.419946	-9.092170E-6	20.707404
2489.667011	-3.004000	3.070600	-9.223600	28.460789	-8.993162E-6	20.717713
2490.668251	-3.000400	3.068500	-9.205700	28.516763	-8.102097E-6	20.711492
2491.668249	-3.007100	3.066200	-9.218900	28.501696	-1.051127E-5	20.695843
2492.668250	-3.007400	3.066500	-9.221400	28.479640	-1.216140E-5	20.704927
2493.670250	-2.984700	3.065800	-9.150200	28.496590	-9.191177E-6	20.713936
2494.670484	-2.998400	3.065500	-9.191400	28.521959	-1.176537E-5	20.690170
2495.670801	-3.017200	3.064300	-9.244900	28.594422	-1.113832E-5	20.707199
2496.672703	-3.019800	3.063000	-9.248700	28.644593	-1.021425E-5	20.707469
2497.671086	-2.979600	3.061900	-9.121700	28.595656	-1.169936E-5	20.707968
2498.671398	-3.013100	3.059300	-9.216500	28.598481	-9.257182E-6	20.707494
2499.672622	-3.018700	3.057800	-9.229900	28.651111	-9.983235E-6	20.704076
2500.671649	-2.997200	3.058100	-9.164400	28.697813	-1.130333E-5	20.703226
2501.671697	-2.997500	3.057000	-9.162700	28.714435	-8.795148E-6	20.706693
2502.672363	-2.999800	3.056400	-9.167800	28.735318	-1.103931E-5	20.686000
2503.671543	-3.023700	3.053600	-9.231800	28.670202	-1.262343E-5	20.700545
2504.671595	-3.010500	3.053500	-9.191600	28.570850	-1.176537E-5	20.698632
2505.672644	-3.016500	3.051600	-9.204200	28.574633	-1.140234E-5	20.683948
2506.671472	-3.020200	3.049300	-9.209100	28.650332	-1.031326E-5	20.684324
2507.672535	-3.000600	3.049600	-9.149800	28.705508	-1.127033E-5	20.695329
2508.674537	-2.981300	3.048300	-9.087600	28.706035	-1.219440E-5	20.690170
2509.673757	-2.982900	3.047400	-9.089100	28.762223	-1.216140E-5	20.677064
2510.673758	-2.988300	3.046100	-9.100700	28.735733	-1.275544E-5	20.697798
2511.679759	-2.989300	3.045100	-9.102100	28.717528	-1.282144E-5	20.674243
2512.673754	-2.992300	3.042400	-9.102700	28.737932	-1.150135E-5	20.690530
2513.674759	-2.994500	3.042200	-9.109000	28.767612	-1.377852E-5	20.679648
2514.677973	-2.994000	3.041800	-9.106300	28.822409	-1.272244E-5	20.709244
2515.675022	-2.952500	3.041500	-8.979200	28.781197	-1.301946E-5	20.698550
2516.675203	-2.988600	3.038200	-9.077400	28.710508	-1.146834E-5	20.686614
2517.679408	-2.967900	3.036600	-9.011400	28.706912	-1.216140E-5	20.695795
2518.675791	-2.986200	3.035800	-9.064200	28.686394	-1.348149E-5	20.686982
2519.676793	-3.008600	3.034800	-9.129200	28.719298	-1.087430E-5	20.697839
2520.680861	-2.997000	3.032800	-9.088500	28.677142	-1.509861E-5	20.695681
2521.677862	-2.975300	3.032400	-9.021300	28.633759	-1.153435E-5	20.687072
2522.680285	-2.993200	3.030900	-9.071000	28.642249	-1.325048E-5	20.680450
2523.679893	-3.007600	3.029300	-9.110100	28.628897	-1.179837E-5	20.698298
2524.680097	-2.988500	3.028600	-9.049800	28.674788	-1.344849E-5	20.681456
2525.679059	-2.987400	3.028000	-9.044600	28.682508	-1.156735E-5	20.693499
2526.682095	-2.986700	3.026000	-9.036900	28.718690	-1.186437E-5	20.700072
2527.677235	-2.969900	3.024500	-8.981500	28.712246	-1.103931E-5	20.680303
2528.677449	-2.987900	3.022400	-9.030000	28.782035	-1.189738E-5	20.706506
2529.683450	-2.981800	3.021600	-9.008600	28.793283	-1.361350E-5	20.694602
2530.677503	-2.974500	3.020700	-8.984300	28.758840	-1.394353E-5	20.691202
2531.680709	-2.990800	3.019200	-9.029200	28.707392	-1.381152E-5	20.688691
2532.682129	-2.982000	3.017100	-8.995600	28.647776	-1.160035E-5	20.689811
2533.678773	-2.988600	3.015800	-9.012000	28.706394	-1.404253E-5	20.683418
2534.677770	-3.002900	3.013700	-9.049000	28.803192	-1.301946E-5	20.692256
2535.681036	-2.999500	3.013600	-9.038400	28.889221	-1.394353E-5	20.676976
2536.678152	-3.008200	3.010300	-9.055100	28.889919	-1.466958E-5	20.696172
2537.680896	-3.018300	3.010200	-9.083400	28.815430	-1.193038E-5	20.687514
2538.681901	-2.970100	3.010100	-8.938600	28.878355	-1.268943E-5	20.691160
2539.678975	-3.010500	3.008700	-9.056700	28.929697	-1.325048E-5	20.673182
2540.681393	-3.004800	3.006700	-9.033200	28.969580	-1.519762E-5	20.701037
2541.680394	-2.983800	3.006600	-8.970300	28.999804	-1.315147E-5	20.691185
2542.679611	-2.996100	3.004300	-9.000200	28.950194	-1.404253E-5	20.685298
2543.681580	-3.022400	3.001300	-9.070300	28.911528	-1.334948E-5	20.703244
2544.693447	-2.986300	3.002400	-8.965700	28.859780	-1.334948E-5	20.689517
2545.679779	-2.996000	2.998600	-8.982700	28.806600	-1.433956E-5	20.688102
2546.682025	-2.995400	2.998300	-8.980700	28.830557	-1.407554E-5	20.695640
2547.684607	-3.030900	2.995700	-9.079200	28.882087	-1.292045E-5	20.687808
2548.678926	-3.011600	2.994800	-9.018100	28.910148	-1.344849E-5	20.692370
2549.680108	-3.016300	2.995200	-9.032100	28.874491	-1.206239E-5	20.695329
2550.679309	-3.016800	2.991400	-9.023800	28.924722	-1.143534E-5	20.687611
2551.680178	-3.015900	2.990000	-9.016800	28.893886	-1.348149E-5	20.698746
2552.680513	-2.983500	2.990300	-8.920900	28.906772	-1.424055E-5	20.694184
2553.682275	-3.004100	2.988500	-8.976800	28.927432	-1.443856E-5	20.692238
2554.680519	-3.017500	2.985600	-9.007900	28.953520	-1.377852E-5	20.688175
2555.680052	-3.022700	2.984300	-9.020000	28.959484	-1.364651E-5	20.706513
2556.682090	-3.014700	2.983200	-8.992000	29.014237	-1.308546E-5	20.708573
2557.680205	-3.018600	2.982300	-9.001100	28.938491	-1.255743E-5	20.692949
2558.680950	-3.016300	2.981200	-8.991500	28.869427	-1.404253E-5	20.695443
2559.681004	-3.008300	2.979700	-8.962800	28.784086	-1.338249E-5	20.701934
2560.681222	-3.014300	2.977800	-8.975600	28.708819	-1.628670E-5	20.713364
2561.681849	-3.017800	2.977100	-8.983900	28.746404	-1.255743E-5	20.707600
2562.683208	-3.014400	2.974400	-8.965000	28.764097	-1.473559E-5	20.683220
2563.682422	-2.997600	2.973900	-8.913400	28.821872	-1.394353E-5	20.689262
2564.683423	-3.000900	2.973000	-8.921200	28.780904	-1.404253E-5	20.694935
2565.684476	-3.008900	2.970600	-8.937400	28.764015	-1.087430E-5	20.710640
2566.684527	-2.988100	2.969400	-8.872200	28.822553	-1.354750E-5	20.686628
2567.684025	-2.987900	2.968300	-8.868000	28.824192	-1.443856E-5	20.711515
2568.685026	-3.007100	2.967100	-8.921500	28.820678	-1.470258E-5	20.693749
2569.683955	-3.014800	2.964200	-8.935200	28.870253	-1.278844E-5	20.696750
2570.684173	-3.004400	2.963300	-8.901400	28.896221	-1.272244E-5	20.702521
2571.684177	-3.021000	2.960400	-8.942600	28.864962	-1.226040E-5	20.698057
2572.684708	-3.008700	2.959600	-8.902700	28.808423	-1.595668E-5	20.695629
2573.685159	-3.019000	2.957800	-8.928100	28.807790	-1.476859E-5	20.691672
2574.689372	-3.019700	2.955800	-8.924800	28.875495	-1.480159E-5	20.706772
2575.686582	-2.967900	2.956900	-8.775200	28.981836	-1.358050E-5	20.712912
2576.686814	-3.018600	2.953900	-8.915700	28.945801	-1.252442E-5	20.721178
2577.688839	-2.976400	2.952300	-8.786300	28.972383	-1.328348E-5	20.722829
2578.687213	-3.004400	2.951200	-8.865600	28.994673	-1.298646E-5	20.704982
2579.687215	-3.010500	2.947600	-8.871900	29.045798	-1.516462E-5	20.713819
2580.692491	-2.978100	2.948600	-8.780200	29.035915	-1.186437E-5	20.712397
2581.688049	-2.976800	2.947500	-8.773300	29.003451	-1.453757E-5	20.693911
2582.690948	-2.968300	2.945500	-8.742100	28.983134	-1.074229E-5	20.721333
2583.694849	-2.996300	2.942300	-8.815000	28.942490	-1.292045E-5	20.722109
2584.689862	-2.992400	2.942100	-8.802100	28.959652	-1.338249E-5	20.716640
2585.693504	-2.985600	2.940000	-8.777000	28.994924	-1.503261E-5	20.689587
2586.694503	-2.965300	2.939100	-8.713800	28.983515	-1.384452E-5	20.698956
2587.692506	-3.012200	2.935700	-8.841800	29.025626	-1.196338E-5	20.698710
2588.691719	-2.965000	2.935000	-8.700900	29.038447	-1.361350E-5	20.705938
2589.694870	-2.981200	2.932800	-8.742600	29.094502	-1.486760E-5	20.703624
2590.692398	-2.996400	2.932300	-8.785200	29.093854	-1.391052E-5	20.721938
2591.694911	-2.982300	2.928800	-8.733700	29.086527	-1.265643E-5	20.695113
2592.694390	-2.986600	2.928500	-8.745300	29.107232	-1.364651E-5	20.728780
2593.693348	-2.989700	2.927600	-8.751000	29.105577	-1.506561E-5	20.698187
2594.694547	-3.011700	2.924600	-8.806100	29.082795	-1.483459E-5	20.706526
2595.697085	-2.970600	2.924400	-8.686600	29.038779	-1.453757E-5	20.732353
2596.694600	-3.006700	2.921200	-8.780700	29.061513	-1.506561E-5	20.718275
2597.697292	-3.012700	2.920100	-8.796500	29.124131	-1.457057E-5	20.718307
2598.697222	-2.981100	2.917600	-8.696700	29.160485	-1.526362E-5	20.715585
2599.695429	-2.972200	2.917600	-8.671100	29.141793	-1.394353E-5	20.722354
2600.697169	-2.996700	2.914300	-8.732400	29.201649	-1.443856E-5	20.713443
2601.697022	-2.981000	2.914400	-8.686300	29.170253	-1.318447E-5	20.704564
2602.695415	-2.986100	2.911200	-8.692200	29.141023	-1.387752E-5	20.719206
2603.697544	-2.998200	2.909000	-8.719900	29.174609	-1.430655E-5	20.713222
2604.700545	-2.996700	2.907500	-8.711500	29.109706	-1.681474E-5	20.713728
2605.694986	-3.008600	2.907000	-8.744000	29.077634	-1.361350E-5	20.721716
2606.698986	-3.002000	2.903500	-8.715700	29.046478	-1.529663E-5	20.707392
2607.700882	-3.029700	2.901200	-8.789500	29.003329	-1.539563E-5	20.717497
2608.697346	-2.971900	2.901000	-8.620200	29.024636	-1.466958E-5	20.705299
2609.699746	-3.004100	2.898500	-8.706200	29.091735	-1.506561E-5	20.722173
2610.699986	-3.029700	2.896800	-8.775900	29.104148	-1.364651E-5	20.719508
2611.697943	-2.990700	2.897100	-8.663800	29.116139	-1.424055E-5	20.718788
2612.700449	-2.992200	2.894100	-8.659100	29.151236	-1.678174E-5	20.720489
2613.701453	-3.020800	2.891800	-8.735200	29.161912	-1.430655E-5	20.730299
2614.698673	-3.018600	2.889800	-8.722300	29.079516	-1.427355E-5	20.719818
2615.698950	-3.028800	2.887200	-8.744200	29.159932	-1.631970E-5	20.725934
2616.704048	-3.008700	2.886200	-8.681700	29.214611	-1.509861E-5	20.731248
2617.700047	-3.000700	2.883700	-8.651900	29.277293	-1.331648E-5	20.719025
2618.703579	-2.974600	2.883300	-8.575200	29.338779	-1.437256E-5	20.722197
2619.702994	-3.012900	2.880000	-8.676000	29.365376	-1.272244E-5	20.738098
2620.701224	-2.984500	2.879800	-8.594400	29.316683	-1.509861E-5	20.725058
2621.701958	-3.006200	2.876100	-8.644200	29.355180	-1.542864E-5	20.717390
2622.706829	-2.991700	2.875300	-8.600900	29.358579	-1.513161E-5	20.719867
2623.703175	-3.009700	2.873100	-8.645600	29.284074	-1.499961E-5	20.734869
2624.704993	-2.989900	2.872200	-8.586800	29.201298	-1.387752E-5	20.722098
2625.706042	-2.977600	2.870200	-8.545800	29.171305	-1.414154E-5	20.730282
2626.702066	-2.982800	2.866800	-8.550600	29.230964	-1.569266E-5	20.715958
2627.702387	-3.001700	2.865000	-8.598600	29.280967	-1.727677E-5	20.724150
2628.705422	-2.981900	2.862600	-8.535100	29.299535	-1.651772E-5	20.741916
2629.703435	-2.985700	2.861300	-8.542100	29.311621	-1.711176E-5	20.725646
2630.706431	-3.025100	2.857600	-8.643800	29.378799	-1.404253E-5	20.709426
2631.704904	-3.010500	2.857300	-8.601000	29.366251	-1.433956E-5	20.729497
2632.703657	-2.991200	2.856700	-8.544200	29.314355	-1.414154E-5	20.750213
2633.702915	-2.993600	2.854200	-8.543800	29.369204	-1.724377E-5	20.750965
2634.702994	-3.024100	2.850800	-8.620400	29.368149	-1.503261E-5	20.736625
2635.702995	-2.980000	2.848400	-8.487200	29.289930	-1.381152E-5	20.727967
2636.703382	-2.991500	2.846800	-8.515300	29.233527	-1.592367E-5	20.738456
2637.703542	-3.020200	2.843800	-8.588100	29.297319	-1.529663E-5	20.724983
2638.704354	-2.998500	2.842200	-8.521800	29.322725	-1.622070E-5	20.738260
2639.703013	-2.993300	2.841700	-8.505500	29.352964	-1.569266E-5	20.739339
2640.704046	-3.004500	2.837600	-8.524000	29.348113	-1.552764E-5	20.745830
2641.703679	-2.993100	2.836500	-8.489200	29.315830	-1.648471E-5	20.737949
2642.704307	-3.006400	2.834300	-8.520100	29.309470	-1.589067E-5	20.737704
2643.704418	-3.009200	2.831400	-8.519800	29.291097	-1.556065E-5	20.730092
2644.705419	-3.031500	2.827500	-8.570600	29.304295	-1.589067E-5	20.721582
2645.705339	-2.989300	2.826100	-8.447400	29.341908	-1.608869E-5	20.740524
2646.706074	-3.025400	2.823300	-8.540400	29.296183	-1.585767E-5	20.743279
2647.706074	-3.003300	2.822800	-8.476500	29.266347	-1.645171E-5	20.738815
2648.707082	-3.011000	2.820400	-8.491200	29.261845	-1.612169E-5	20.734278
2649.707799	-3.007600	2.817100	-8.471600	29.220376	-1.661672E-5	20.741325
2650.709126	-2.997800	2.815300	-8.438600	29.235586	-1.476859E-5	20.738161
2651.710128	-3.020200	2.812200	-8.491300	29.149107	-1.714476E-5	20.734940
2652.710339	-3.018200	2.810000	-8.479900	29.165454	-1.582467E-5	20.738136
2653.712564	-3.020600	2.806800	-8.477200	29.187382	-1.235941E-5	20.751699
2654.710921	-2.984100	2.804400	-8.368000	29.263256	-1.532963E-5	20.754667
2655.712291	-3.025000	2.802400	-8.475500	29.266355	-1.539563E-5	20.719381
2656.712685	-3.019100	2.798600	-8.448500	29.303345	-1.430655E-5	20.755239
2657.712597	-3.000400	2.798200	-8.395000	29.327047	-1.674873E-5	20.772489
2658.712596	-3.039900	2.792500	-8.486800	29.305113	-1.622070E-5	20.743270
2659.714602	-3.027000	2.791800	-8.450000	29.331459	-1.463658E-5	20.752279
2660.712016	-2.975700	2.789200	-8.298700	29.396982	-1.480159E-5	20.747668
2661.712068	-2.982300	2.787400	-8.311400	29.451202	-1.268943E-5	20.758223
2662.714484	-3.038600	2.781900	-8.452700	29.509418	-1.490060E-5	20.728709
2663.714543	-3.012400	2.780300	-8.374800	29.481389	-1.532963E-5	20.733173
2664.714917	-2.957700	2.779000	-8.218200	29.505833	-1.344849E-5	20.747856
2665.717303	-2.986000	2.774900	-8.285300	29.581741	-1.539563E-5	20.735233
2666.715516	-2.983700	2.772100	-8.270200	29.637679	-1.397653E-5	20.777402
2667.716661	-2.963900	2.770300	-8.209900	29.649859	-1.532963E-5	20.753170
2668.718124	-3.001300	2.766400	-8.301800	29.674096	-1.532963E-5	20.733034
2669.718615	-2.995500	2.762900	-8.275200	29.647896	-1.410854E-5	20.746450
2670.718284	-2.998900	2.759600	-8.274400	29.572950	-1.288745E-5	20.740596
2671.721285	-3.005800	2.757100	-8.286700	29.551938	-1.536263E-5	20.748812
2672.719307	-3.013200	2.753800	-8.297000	29.515005	-1.417454E-5	20.748093
2673.720310	-3.004600	2.750400	-8.263200	29.621850	-1.602268E-5	20.770927
2674.723348	-2.994500	2.748000	-8.228100	29.680169	-1.387752E-5	20.772349
2675.722750	-2.984100	2.744500	-8.189000	29.707869	-1.358050E-5	20.751911
2676.720999	-3.010400	2.740600	-8.249700	29.668339	-1.268943E-5	20.753783
2677.724962	-2.975100	2.738000	-8.145300	29.634678	-1.397653E-5	20.765841
2678.720962	-2.989900	2.734600	-8.175400	29.649445	-1.615469E-5	20.762236
2679.722191	-2.992600	2.730200	-8.169800	29.642349	-1.430655E-5	20.765040
2680.724544	-3.010700	2.727100	-8.210100	29.631678	-1.450457E-5	20.751437
2681.721766	-2.979100	2.723900	-8.113000	29.687743	-1.341549E-5	20.766708
2682.722492	-3.000300	2.720300	-8.160700	29.706855	-1.450457E-5	20.744725
2683.723317	-2.990000	2.716900	-8.123100	29.751905	-1.440556E-5	20.787776
2684.722280	-2.997500	2.712400	-8.128700	29.736037	-1.480159E-5	20.783157
2685.723989	-2.987300	2.708500	-8.089600	29.771179	-1.450457E-5	20.786345
2686.724988	-3.022300	2.702900	-8.167400	29.803975	-1.117132E-5	20.762514
2687.723120	-3.002400	2.701500	-8.109900	29.809894	-1.328348E-5	20.758050
2688.726119	-3.005700	2.697300	-8.106000	29.785465	-1.526362E-5	20.767084
2689.727154	-2.984200	2.693400	-8.036400	29.756649	-1.321747E-5	20.777385
2690.724090	-3.001300	2.687900	-8.066400	29.687889	-1.457057E-5	20.781080
2691.727088	-3.014000	2.683700	-8.087600	29.653281	-1.549464E-5	20.754723
2692.728086	-2.990100	2.681000	-8.015500	29.656273	-1.397653E-5	20.800414
2693.725612	-2.989100	2.677800	-8.003400	29.710756	-1.480159E-5	20.774736
2694.727829	-2.992100	2.672200	-7.994200	29.724151	-1.265643E-5	20.792509
2695.726829	-2.981600	2.668500	-7.955300	29.748581	-1.216140E-5	20.788217
2696.724828	-3.042200	2.662600	-8.098700	29.753235	-1.364651E-5	20.800496
2697.726828	-3.032100	2.658200	-8.058800	29.694919	-1.503261E-5	20.777262
2698.726829	-3.004100	2.655000	-7.974900	29.727864	-1.450457E-5	20.782029
2699.725828	-2.975000	2.650000	-7.882600	29.833114	-1.255743E-5	20.781464
2700.729131	-3.005400	2.644500	-7.946800	29.859715	-1.684774E-5	20.781260
2701.728842	-3.026800	2.638500	-7.985300	29.828639	-1.420755E-5	20.776951
2702.728262	-3.026600	2.634200	-7.972100	29.873206	-1.480159E-5	20.776845
2703.730261	-3.030400	2.628100	-7.963200	29.854680	-1.242542E-5	20.781399
2704.728112	-3.010200	2.624200	-7.898100	29.893328	-1.318447E-5	20.790498
2705.726882	-3.012100	2.619700	-7.890100	29.923372	-1.301946E-5	20.774801
2706.730942	-3.006300	2.614300	-7.858500	29.891552	-1.113832E-5	20.802458
2707.731173	-2.994300	2.609500	-7.812200	29.771284	-1.298646E-5	20.794512
2708.730391	-3.012700	2.603000	-7.840600	29.735227	-1.381152E-5	20.791348
2709.731009	-3.015100	2.598800	-7.834000	29.711396	-1.305246E-5	20.790081
2710.731011	-3.012700	2.591300	-7.805700	29.798048	-1.311847E-5	20.793997
2711.742069	-3.016000	2.586500	-7.799500	29.845770	-1.328348E-5	20.793277
2712.731285	-3.022300	2.579700	-7.795700	29.918038	-1.216140E-5	20.778431
2713.731861	-3.003200	2.577300	-7.738200	29.994378	-1.354750E-5	20.784293
2714.730810	-2.986300	2.570600	-7.675200	30.053618	-1.097331E-5	20.808000
2715.733127	-2.983000	2.564400	-7.648100	30.002939	-1.239241E-5	20.801460
2716.734990	-2.995000	2.557700	-7.658900	29.986880	-1.232641E-5	20.802335
2717.733194	-3.014400	2.551300	-7.689900	29.919173	-1.222740E-5	20.781946
2718.733241	-2.984000	2.546200	-7.597200	29.876910	-1.067629E-5	20.793857
2719.735494	-3.019100	2.538400	-7.662000	29.925934	-1.084130E-5	20.793032
2720.734509	-3.004700	2.533400	-7.611100	29.943558	-1.334948E-5	20.808433
2721.734031	-2.998700	2.526600	-7.575700	29.944547	-1.249142E-5	20.807534
2722.734030	-3.007200	2.520900	-7.580100	30.017505	-1.219440E-5	20.807142
2723.733239	-3.047400	2.513300	-7.658400	30.114078	-1.196338E-5	20.798803
2724.733457	-2.990000	2.508800	-7.501000	30.150949	-1.212839E-5	20.793792
2725.735351	-3.000200	2.504300	-7.512300	30.190777	-1.288745E-5	20.812153
2726.733807	-3.007200	2.495800	-7.504400	30.173813	-1.249142E-5	20.794568
