LabVIEW Measurement	
Writer_Version	2
Reader_Version	2
Separator	Tab
Decimal_Separator	.
Multi_Headings	No
X_Columns	One
Time_Pref	Absolute
Operator	admin
Description	Clolumns are: time, Current, Voltage, Power, Battery Temp, and Chamber Temp
Date	2024/08/16
Time	13:07:17.8513970375061035156
***End_of_Header***	
	
Channels	6						
Samples	1	1	1	1	1	1	
Date	2024/08/30	2024/08/30	2024/08/30	2024/08/30	2024/08/30	2024/08/30	
Time	21:21:11.3021697998046875	21:21:11.3071751594543457031	21:21:11.3116474151611328125	21:21:11.2841744422912597656	21:21:11.2841744422912597656	21:21:11.2841744422912597656	
X_Dimension	Time	Time	Time	Time	Time	Time	
X0	0.0000000000000000E+0	0.0000000000000000E+0	0.0000000000000000E+0	0.0000000000000000E+0	0.0000000000000000E+0	0.0000000000000000E+0	
Delta_X	1.000000	1.000000	1.000000	1.000000	1.000000	1.000000	
***End_of_Header***							
X_Value	Untitled	Untitled 1	Untitled 2	Untitled 3	Untitled 4	Untitled 5	Comment
0.000000	0.018213	4.090100	0.074499	20.755416	0.000459	20.700885
1.003225	-3.002200	3.928200	-11.793000	20.751655	0.000458	20.690011
2.008529	-2.986200	3.922900	-11.714000	20.744935	0.000459	20.685188
3.004326	-2.969100	3.918800	-11.634000	20.739874	0.000456	20.681075
3.999723	-3.003600	3.913900	-11.755000	20.757836	0.000457	20.689554
5.008834	-3.001500	3.911400	-11.739000	20.777898	0.000458	20.699659
6.001020	-2.991500	3.909700	-11.695000	20.746930	0.000454	20.695718
7.005702	-2.997200	3.907500	-11.710000	20.744812	0.000455	20.702610
8.004114	-2.992400	3.905600	-11.686000	20.775732	0.000453	20.680421
9.011045	-3.010700	3.903600	-11.752000	20.787259	0.000452	20.686259
10.006244	-3.011300	3.901700	-11.748000	20.760910	0.000452	20.694998
11.003264	-3.006900	3.899500	-11.723000	20.787062	0.000454	20.676578
12.003646	-3.007800	3.898500	-11.724000	20.794698	0.000451	20.676153
13.011045	-3.007400	3.896900	-11.717000	20.810247	0.000450	20.687436
14.004342	-3.007700	3.897400	-11.721000	20.819926	0.000450	20.686684
15.010000	-3.007700	3.894300	-11.712000	20.813467	0.000451	20.679750
16.018023	-3.002600	3.894400	-11.693000	20.825419	0.000449	20.691704
17.005083	-3.012800	3.893600	-11.730000	20.829237	0.000447	20.677976
18.012238	-3.001200	3.893700	-11.685000	20.846077	0.000446	20.699087
19.012089	-3.005700	3.892300	-11.698000	20.852069	0.000447	20.692750
20.004775	-2.999100	3.891000	-11.668000	20.850679	0.000448	20.683298
21.007798	-3.022600	3.890100	-11.757000	20.844188	0.000446	20.689136
22.005133	-2.988000	3.891000	-11.625000	20.868843	0.000447	20.671591
23.013116	-3.001800	3.889200	-11.674000	20.870862	0.000446	20.703011
24.009655	-2.997400	3.887900	-11.652000	20.890129	0.000446	20.689087
25.006623	-2.988200	3.888900	-11.619000	20.883411	0.000445	20.690428
26.008224	-2.980200	3.888100	-11.586000	20.895313	0.000445	20.690952
27.017189	-3.003500	3.887600	-11.676000	20.909968	0.000446	20.687117
28.009040	-2.987500	3.886100	-11.608000	20.902758	0.000442	20.654298
29.004653	-2.995000	3.885800	-11.637000	20.911415	0.000444	20.664854
30.008322	-3.002300	3.884700	-11.661000	20.929178	0.000442	20.663652
31.009425	-3.020400	3.885300	-11.734000	20.926709	0.000444	20.668296
32.008418	-3.005200	3.885500	-11.676000	20.945771	0.000442	20.671714
33.016761	-3.027900	3.884100	-11.760000	20.957002	0.000441	20.673463
34.011456	-2.999800	3.883600	-11.650000	20.970309	0.000443	20.680134
35.006857	-3.022400	3.882300	-11.733000	20.957575	0.000441	20.687787
36.009696	-3.017500	3.882600	-11.716000	20.965462	0.000441	20.688564
37.009823	-3.005600	3.882200	-11.667000	20.986852	0.000442	20.677714
38.010511	-3.002700	3.882800	-11.658000	20.997127	0.000441	20.650529
39.018400	-3.002800	3.881500	-11.654000	20.996032	0.000442	20.683102
40.008404	-2.993600	3.881700	-11.619000	21.014046	0.000440	20.671721
41.012278	-3.018600	3.878200	-11.706000	21.027622	0.000440	20.662065
42.010522	-3.000100	3.879900	-11.639000	21.016449	0.000440	20.675547
43.011198	-3.015000	3.879900	-11.697000	21.017765	0.000440	20.678760
44.008002	-2.987600	3.880200	-11.592000	21.049542	0.000440	20.643684
45.012873	-3.018700	3.879000	-11.708000	21.030695	0.000440	20.660871
46.011589	-2.992500	3.879700	-11.609000	21.053776	0.000440	20.663569
47.008223	-2.975400	3.879300	-11.542000	21.060519	0.000439	20.654664
48.022440	-3.012300	3.876800	-11.676000	21.073588	0.000440	20.683387
49.009916	-3.015800	3.877400	-11.693000	21.087188	0.000439	20.666643
50.022013	-2.981000	3.878100	-11.560000	21.122438	0.000439	20.662547
51.013352	-2.996300	3.876300	-11.614000	21.084302	0.000438	20.675611
52.009728	-2.974500	3.878500	-11.535000	21.095580	0.000438	20.653225
53.013347	-2.985400	3.877500	-11.575000	21.102389	0.000437	20.692756
54.015984	-2.977400	3.876900	-11.542000	21.123727	0.000439	20.671898
55.010282	-2.995600	3.876900	-11.613000	21.143481	0.000439	20.675063
56.009437	-3.002800	3.877300	-11.642000	21.133657	0.000441	20.650534
57.023068	-2.997400	3.876700	-11.618000	21.138348	0.000438	20.662815
58.012887	-3.017900	3.875500	-11.696000	21.192809	0.000441	20.665611
59.011904	-3.016500	3.873400	-11.683000	21.160332	0.000439	20.655407
60.018213	-3.012000	3.876500	-11.675000	21.176104	0.000439	20.638940
61.010633	-3.006500	3.875000	-11.649000	21.178148	0.000440	20.674178
62.017766	-3.010700	3.874600	-11.665000	21.198733	0.000438	20.663476
63.016974	-3.016600	3.874900	-11.688000	21.197810	0.000439	20.662078
64.025225	-3.000000	3.874300	-11.622000	21.224156	0.000439	20.644810
65.016232	-2.999800	3.873800	-11.619000	21.200703	0.000439	20.665920
66.019058	-3.004400	3.874800	-11.639000	21.210207	0.000439	20.650770
67.027201	-2.992600	3.874100	-11.593000	21.237975	0.000439	20.659584
68.014899	-2.999700	3.874000	-11.620000	21.250478	0.000439	20.681102
69.016881	-3.013500	3.872300	-11.669000	21.246605	0.000438	20.661579
70.029257	-2.989300	3.874200	-11.580000	21.265188	0.000440	20.678274
71.015923	-2.996600	3.873500	-11.606000	21.277919	0.000440	20.656869
72.016674	-3.007700	3.873300	-11.648000	21.272600	0.000442	20.650124
73.022289	-3.001400	3.872000	-11.620000	21.286074	0.000438	20.661235
74.020812	-2.990000	3.873500	-11.581000	21.291713	0.000438	20.653124
75.022985	-3.043700	3.871700	-11.783000	21.309902	0.000441	20.665633
76.019685	-3.010500	3.872100	-11.656000	21.308750	0.000438	20.673965
77.017513	-2.986200	3.872000	-11.562000	21.343421	0.000440	20.680203
78.025506	-3.027600	3.871000	-11.718000	21.332177	0.000439	20.665159
79.018377	-3.021300	3.869900	-11.691000	21.329179	0.000439	20.671169
80.020941	-2.990700	3.871500	-11.577000	21.314388	0.000440	20.657793
81.023905	-3.010500	3.870700	-11.651000	21.359714	0.000440	20.668528
82.034431	-2.986400	3.871400	-11.561000	21.372289	0.000439	20.670678
83.027800	-3.006700	3.871400	-11.640000	21.357222	0.000440	20.654653
84.022348	-3.014900	3.871100	-11.670000	21.376758	0.000437	20.666139
85.028340	-3.015800	3.871100	-11.674000	21.379226	0.000442	20.665289
86.034078	-3.015500	3.870300	-11.670000	21.388157	0.000439	20.659999
87.021760	-2.997400	3.869800	-11.599000	21.405765	0.000440	20.665289
88.020670	-2.997300	3.869800	-11.598000	21.408517	0.000441	20.670415
89.026052	-2.976900	3.870500	-11.520000	21.422064	0.000441	20.653621
90.025605	-3.005400	3.869700	-11.628000	21.406654	0.000441	20.651953
91.025408	-3.010900	3.868200	-11.646000	21.411083	0.000441	20.686734
92.020099	-2.991800	3.869500	-11.576000	21.423658	0.000442	20.658061
93.023576	-2.984400	3.870000	-11.548000	21.446437	0.000439	20.657144
94.020477	-3.002500	3.869000	-11.616000	21.449329	0.000441	20.663358
95.025742	-3.011000	3.868500	-11.647000	21.483799	0.000442	20.657545
96.034492	-2.995700	3.867900	-11.586000	21.467344	0.000441	20.666685
97.021033	-2.989600	3.868300	-11.564000	21.496643	0.000440	20.665656
98.023049	-2.998700	3.867400	-11.597000	21.487794	0.000439	20.658223
99.027328	-3.028900	3.867500	-11.713000	21.497461	0.000442	20.663629
100.032200	-3.005800	3.868100	-11.626000	21.504674	0.000442	20.674167
101.035091	-3.004200	3.867900	-11.619000	21.538473	0.000440	20.653931
102.024814	-3.001300	3.868900	-11.611000	21.503260	0.000443	20.672752
103.023571	-3.019200	3.867300	-11.675000	21.518244	0.000441	20.676366
104.035482	-3.016100	3.867000	-11.663000	21.540498	0.000443	20.666865
105.026686	-3.005300	3.867400	-11.622000	21.556781	0.000443	20.663717
106.035118	-3.006300	3.866900	-11.623000	21.549526	0.000442	20.656931
107.027216	-3.035900	3.867500	-11.740000	21.585611	0.000443	20.666489
108.032171	-3.007400	3.867600	-11.631000	21.571217	0.000444	20.670577
109.028430	-2.998300	3.866900	-11.593000	21.601893	0.000442	20.663341
110.034273	-2.994500	3.866700	-11.578000	21.578676	0.000444	20.669032
111.026898	-2.989900	3.865600	-11.556000	21.605382	0.000444	20.677265
112.034572	-2.993600	3.867000	-11.575000	21.597383	0.000445	20.679693
113.030534	-2.999100	3.865300	-11.591000	21.609818	0.000444	20.658943
114.029478	-3.008700	3.865800	-11.629000	21.620478	0.000445	20.669137
115.032794	-2.985400	3.866500	-11.542000	21.622390	0.000446	20.679113
116.038662	-2.994700	3.865900	-11.576000	21.616852	0.000447	20.674518
117.028204	-2.975900	3.866900	-11.506000	21.634881	0.000446	20.669326
118.034382	-3.003500	3.865400	-11.609000	21.651530	0.000445	20.668918
119.032817	-3.007800	3.864600	-11.623000	21.659993	0.000448	20.674543
120.028502	-3.018100	3.864400	-11.662000	21.658473	0.000447	20.681558
121.033980	-3.021300	3.864000	-11.673000	21.668914	0.000445	20.690110
122.032280	-3.018100	3.864100	-11.661000	21.677010	0.000448	20.680668
123.032532	-3.005900	3.865400	-11.617000	21.693674	0.000447	20.680275
124.032856	-2.999500	3.864800	-11.591000	21.706964	0.000448	20.684093
125.041473	-2.988800	3.864600	-11.550000	21.709880	0.000447	20.670889
126.031643	-3.006700	3.864600	-11.618000	21.714537	0.000448	20.695466
127.035134	-2.991800	3.864700	-11.562000	21.740391	0.000449	20.664439
128.040525	-3.003600	3.863400	-11.603000	21.733979	0.000448	20.688370
129.032282	-2.995400	3.864200	-11.574000	21.719243	0.000448	20.685476
130.032491	-3.016600	3.863100	-11.653000	21.737165	0.000449	20.684446
131.046419	-2.989600	3.864200	-11.552000	21.731635	0.000450	20.680808
132.035131	-2.998800	3.862300	-11.581000	21.766391	0.000448	20.689515
133.039681	-2.994800	3.863100	-11.568000	21.786640	0.000449	20.689392
134.037756	-2.985000	3.863900	-11.533000	21.770083	0.000449	20.706488
135.036811	-3.009900	3.861900	-11.623000	21.786664	0.000450	20.671872
136.035606	-3.000400	3.861600	-11.586000	21.790341	0.000449	20.686459
137.037506	-2.985700	3.861400	-11.528000	21.822489	0.000452	20.697773
138.046665	-2.988500	3.862300	-11.542000	21.813439	0.000450	20.685869
139.037655	-2.994200	3.861000	-11.560000	21.823608	0.000450	20.689884
140.038870	-3.002000	3.863300	-11.597000	21.826426	0.000453	20.706456
141.038101	-3.012500	3.860400	-11.628000	21.840631	0.000451	20.688903
142.042174	-3.017300	3.861000	-11.648000	21.843620	0.000451	20.686205
143.040197	-3.004500	3.860800	-11.599000	21.860362	0.000453	20.691584
144.042657	-2.997800	3.861400	-11.575000	21.865622	0.000450	20.684046
145.043099	-3.019900	3.859200	-11.653000	21.867068	0.000451	20.694503
146.039778	-2.993900	3.860300	-11.556000	21.865026	0.000453	20.699572
147.044837	-3.011000	3.860900	-11.625000	21.873830	0.000452	20.713127
148.052172	-2.995700	3.861500	-11.567000	21.891929	0.000454	20.692360
149.039557	-3.003600	3.860600	-11.595000	21.892550	0.000454	20.695353
150.040009	-2.995500	3.859900	-11.562000	21.894420	0.000454	20.704338
151.042878	-3.002400	3.860100	-11.589000	21.906393	0.000456	20.691665
152.042001	-2.999500	3.859200	-11.574000	21.911285	0.000453	20.700830
153.042497	-2.982800	3.860700	-11.515000	21.889421	0.000455	20.689850
154.044886	-3.012900	3.859300	-11.627000	21.920285	0.000455	20.692768
155.041342	-3.004200	3.859600	-11.595000	21.939885	0.000455	20.699587
156.042212	-3.008100	3.858500	-11.606000	21.964411	0.000454	20.717500
157.044867	-3.016100	3.858600	-11.637000	21.970846	0.000455	20.712562
158.041533	-2.986700	3.858600	-11.524000	21.977927	0.000454	20.697837
159.042030	-2.976900	3.858900	-11.486000	21.981193	0.000455	20.675975
160.044452	-2.976500	3.858700	-11.485000	22.005210	0.000458	20.693855
161.047102	-2.989400	3.857500	-11.531000	21.968689	0.000456	20.695228
162.052593	-3.016700	3.858200	-11.638000	21.989555	0.000457	20.701891
163.047854	-2.990700	3.857700	-11.536000	22.007480	0.000458	20.703240
164.046187	-2.992400	3.857400	-11.541000	21.996871	0.000457	20.689300
165.054424	-3.003900	3.856600	-11.585000	22.013621	0.000457	20.699904
166.043107	-2.985200	3.857600	-11.514000	22.032370	0.000458	20.693069
167.042576	-2.995000	3.856900	-11.551000	22.051586	0.000459	20.706616
168.055175	-3.010100	3.856800	-11.608000	22.043730	0.000457	20.705864
169.044495	-2.994800	3.856800	-11.549000	22.050263	0.000459	20.685850
170.044019	-3.008600	3.856000	-11.599000	22.065125	0.000459	20.704049
171.055866	-3.022500	3.855200	-11.651000	22.081400	0.000461	20.702324
172.054056	-3.030900	3.855600	-11.684000	22.100296	0.000461	20.705120
173.050670	-3.019100	3.855000	-11.638000	22.096809	0.000461	20.693567
174.047267	-3.009100	3.855300	-11.600000	22.104632	0.000460	20.706142
175.049237	-2.986100	3.856300	-11.513000	22.096033	0.000461	20.710336
176.051788	-2.986900	3.856500	-11.518000	22.101717	0.000460	20.704646
177.054160	-2.992400	3.855400	-11.536000	22.109417	0.000462	20.719468
178.046676	-3.013700	3.855500	-11.618000	22.082225	0.000463	20.727333
179.052345	-2.992300	3.855900	-11.537000	22.111761	0.000463	20.713279
180.053819	-2.983500	3.854600	-11.499000	22.102092	0.000463	20.722092
181.052125	-3.002400	3.853800	-11.570000	22.126941	0.000464	20.703346
182.047412	-3.016200	3.854900	-11.625000	22.143411	0.000463	20.729320
183.048871	-3.009200	3.854400	-11.598000	22.147355	0.000464	20.691540
184.057609	-2.996300	3.853700	-11.546000	22.157251	0.000464	20.717572
185.048907	-2.994400	3.853700	-11.538000	22.178759	0.000464	20.708759
186.049352	-2.994600	3.853600	-11.538000	22.172055	0.000464	20.720065
187.048446	-2.999900	3.853100	-11.558000	22.199042	0.000466	20.700616
188.053000	-3.005600	3.853600	-11.581000	22.206896	0.000466	20.713223
189.051290	-2.982900	3.854100	-11.495000	22.166855	0.000466	20.717230
190.063914	-2.995700	3.852200	-11.539000	22.185357	0.000465	20.726746
191.048390	-2.991300	3.854600	-11.529000	22.216949	0.000467	20.719969
192.059601	-3.018600	3.850900	-11.623000	22.238855	0.000468	20.743801
193.053345	-3.020000	3.851700	-11.631000	22.210066	0.000465	20.713077
194.062080	-3.009800	3.851600	-11.592000	22.219236	0.000466	20.720362
195.055482	-2.967100	3.853900	-11.434000	22.243591	0.000468	20.739059
196.054007	-3.014600	3.851700	-11.610000	22.250115	0.000467	20.721409
197.057057	-3.010100	3.852000	-11.593000	22.259179	0.000468	20.743287
198.053229	-3.015000	3.851600	-11.611000	22.253006	0.000469	20.727622
199.065579	-2.999700	3.851500	-11.552000	22.280969	0.000469	20.729544
200.054570	-2.998900	3.851800	-11.550000	22.264886	0.000470	20.742838
201.055629	-3.015000	3.851000	-11.610000	22.276970	0.000469	20.722219
202.066065	-3.001200	3.851500	-11.558000	22.280709	0.000469	20.751569
203.054613	-3.018000	3.849300	-11.616000	22.298009	0.000470	20.739968
204.056775	-2.988700	3.851200	-11.509000	22.305308	0.000471	20.732104
205.058168	-3.000400	3.851200	-11.554000	22.304982	0.000474	20.720871
206.056949	-3.000000	3.850100	-11.550000	22.304990	0.000469	20.745061
207.066732	-2.996700	3.849300	-11.534000	22.317066	0.000471	20.735816
208.066714	-2.972000	3.851000	-11.444000	22.324242	0.000471	20.746796
209.058992	-3.003100	3.849000	-11.557000	22.326911	0.000473	20.731450
210.071014	-3.010800	3.849300	-11.588000	22.338693	0.000474	20.739454
211.059572	-2.963300	3.850000	-11.408000	22.364785	0.000474	20.738081
212.063592	-2.991900	3.848900	-11.514000	22.349535	0.000473	20.726128
213.074163	-2.986700	3.849200	-11.495000	22.363389	0.000475	20.737631
214.061080	-2.990300	3.849900	-11.512000	22.375651	0.000474	20.753704
215.062602	-3.016800	3.848000	-11.607000	22.374427	0.000473	20.735408
216.072820	-2.975600	3.848900	-11.452000	22.380681	0.000476	20.740722
217.060912	-2.984400	3.849100	-11.486000	22.408568	0.000475	20.746363
218.071640	-3.008900	3.847300	-11.575000	22.440249	0.000476	20.740157
219.070402	-3.006000	3.847100	-11.563000	22.444584	0.000476	20.751611
220.069426	-2.989900	3.848800	-11.507000	22.439972	0.000476	20.746044
221.080666	-2.973000	3.847700	-11.438000	22.440666	0.000474	20.750058
222.061816	-2.982500	3.846500	-11.471000	22.462765	0.000477	20.759387
223.063326	-2.990300	3.846100	-11.500000	22.474184	0.000477	20.765133
224.072444	-2.985200	3.845300	-11.478000	22.490127	0.000477	20.751228
225.072798	-3.023700	3.847300	-11.633000	22.487956	0.000476	20.738147
226.061390	-2.989400	3.845800	-11.496000	22.475874	0.000478	20.745014
227.066308	-2.978800	3.846000	-11.456000	22.483572	0.000477	20.741818
228.063361	-2.992200	3.846100	-11.508000	22.511702	0.000479	20.757188
229.073974	-2.996000	3.844800	-11.518000	22.526060	0.000477	20.745488
230.075619	-2.989100	3.845900	-11.495000	22.543700	0.000479	20.767423
231.066149	-3.020100	3.844400	-11.609000	22.539961	0.000480	20.743289
232.066473	-2.994900	3.845100	-11.515000	22.532933	0.000480	20.776081
233.072105	-2.970000	3.845300	-11.420000	22.523808	0.000481	20.753191
234.066529	-3.006200	3.844800	-11.558000	22.528248	0.000479	20.751947
235.068336	-2.998200	3.844400	-11.525000	22.539529	0.000480	20.761824
236.072073	-3.003000	3.843800	-11.542000	22.532249	0.000480	20.762119
237.071918	-3.012700	3.842800	-11.574000	22.521637	0.000479	20.777095
238.068196	-3.006300	3.843200	-11.553000	22.544337	0.000481	20.758104
239.072363	-3.006600	3.842600	-11.551000	22.557446	0.000481	20.755112
240.074630	-3.021100	3.842400	-11.606000	22.554868	0.000481	20.745891
241.069889	-2.987300	3.844700	-11.485000	22.555447	0.000481	20.758799
242.081659	-3.007300	3.842800	-11.555000	22.562254	0.000482	20.782213
243.073824	-3.005900	3.842800	-11.549000	22.578048	0.000484	20.773376
244.070778	-3.020700	3.842600	-11.606000	22.595638	0.000483	20.766337
245.067057	-2.997600	3.841900	-11.516000	22.612117	0.000484	20.775729
246.070073	-3.002400	3.842000	-11.534000	22.612713	0.000485	20.769214
247.074366	-2.987300	3.843000	-11.479000	22.633861	0.000484	20.771430
248.072829	-2.991200	3.843100	-11.495000	22.634016	0.000482	20.785810
249.079687	-3.008900	3.841400	-11.557000	22.644381	0.000486	20.758259
250.074425	-3.013200	3.840700	-11.572000	22.622156	0.000485	20.770138
251.070632	-3.005500	3.841800	-11.545000	22.645321	0.000486	20.773899
252.071209	-2.990300	3.841800	-11.487000	22.643476	0.000488	20.788647
253.075904	-3.000700	3.840400	-11.522000	22.649630	0.000489	20.769207
254.074587	-3.004600	3.840200	-11.537000	22.650454	0.000486	20.771455
255.072610	-2.973200	3.840000	-11.416000	22.675813	0.000487	20.777415
256.079708	-3.013100	3.840200	-11.569000	22.691810	0.000488	20.793912
257.080126	-3.000000	3.840800	-11.521000	22.708606	0.000488	20.789873
258.088366	-3.014900	3.839700	-11.576000	22.692553	0.000489	20.784225
259.075562	-2.988400	3.839400	-11.473000	22.703114	0.000488	20.770147
260.078030	-2.999000	3.840000	-11.515000	22.717364	0.000489	20.787740
261.074554	-3.005900	3.840700	-11.543000	22.708100	0.000489	20.763288
262.074352	-2.978400	3.839500	-11.435000	22.740656	0.000489	20.799218
263.076762	-3.041500	3.837500	-11.671000	22.742297	0.000489	20.772412
264.079105	-2.986300	3.840300	-11.468000	22.741186	0.000490	20.785050
265.083766	-2.971100	3.839100	-11.405000	22.759492	0.000490	20.796749
266.084377	-2.991200	3.838100	-11.479000	22.759190	0.000490	20.784119
267.080072	-3.003300	3.838100	-11.526000	22.737694	0.000490	20.769224
268.080657	-3.001400	3.837500	-11.517000	22.730169	0.000490	20.772592
269.077957	-2.973800	3.839100	-11.416000	22.790161	0.000492	20.794280
270.077637	-2.986900	3.837600	-11.461000	22.785925	0.000491	20.786718
271.092818	-2.999700	3.837400	-11.509000	22.795563	0.000492	20.800167
272.081737	-2.991200	3.837700	-11.479000	22.797260	0.000493	20.812298
273.089016	-3.000700	3.837000	-11.512000	22.817434	0.000493	20.796472
274.085918	-2.994400	3.837400	-11.490000	22.812897	0.000493	20.793349
275.082928	-2.989400	3.837100	-11.470000	22.852483	0.000495	20.804557
276.082222	-3.020700	3.834700	-11.583000	22.848770	0.000491	20.811269
277.084278	-3.015000	3.835000	-11.562000	22.843922	0.000493	20.806886
278.082057	-3.015400	3.835300	-11.564000	22.832801	0.000495	20.815185
279.083211	-3.014300	3.833900	-11.556000	22.835395	0.000494	20.792654
280.097265	-3.005900	3.834800	-11.526000	22.861182	0.000494	20.792408
281.085908	-2.983600	3.835900	-11.444000	22.844609	0.000495	20.810893
282.088145	-2.982700	3.835300	-11.439000	22.849896	0.000495	20.801965
283.085744	-3.043500	3.834000	-11.668000	22.837387	0.000497	20.800813
284.094251	-3.005300	3.834800	-11.523000	22.868127	0.000496	20.813590
285.083890	-2.986600	3.833400	-11.448000	22.864144	0.000497	20.795376
286.087837	-2.991700	3.833600	-11.467000	22.855926	0.000497	20.804687
287.088542	-3.007200	3.834100	-11.529000	22.865515	0.000499	20.793430
288.082236	-2.992700	3.834600	-11.475000	22.872793	0.000496	20.794558
289.081534	-3.007400	3.832500	-11.525000	22.910077	0.000499	20.797297
290.087005	-3.000100	3.833300	-11.499000	22.924048	0.000500	20.801810
291.086281	-3.016600	3.832500	-11.559000	22.947620	0.000499	20.821159
292.086145	-2.991300	3.832500	-11.463000	22.977084	0.000499	20.800894
293.082990	-3.012000	3.833100	-11.544000	22.953275	0.000499	20.801695
294.086925	-2.991900	3.833800	-11.470000	22.988891	0.000499	20.805611
295.081297	-3.013700	3.831900	-11.546000	22.984965	0.000499	20.814480
296.087451	-2.981500	3.832500	-11.426000	22.984934	0.000501	20.836258
297.083487	-3.005300	3.831500	-11.514000	22.964518	0.000499	20.841882
298.083697	-3.024500	3.830600	-11.584000	22.985088	0.000502	20.813180
299.084731	-3.000700	3.830700	-11.494000	22.969814	0.000502	20.800248
300.079839	-3.008100	3.832300	-11.528000	22.993761	0.000503	20.816180
301.093832	-2.998700	3.831100	-11.487000	22.973583	0.000502	20.832473
302.084904	-3.018200	3.831800	-11.564000	22.994031	0.000501	20.823562
303.087295	-2.987600	3.829500	-11.441000	22.990367	0.000502	20.828426
304.098514	-3.008500	3.829600	-11.520000	23.001627	0.000503	20.850613
305.097076	-2.999300	3.829900	-11.486000	23.000656	0.000502	20.821192
306.084461	-2.991800	3.829600	-11.456000	23.022327	0.000503	20.829628
307.086214	-2.984900	3.830300	-11.432000	23.020900	0.000503	20.828198
308.087435	-3.003000	3.828600	-11.496000	23.022523	0.000503	20.835514
309.094559	-2.996300	3.827600	-11.468000	23.035447	0.000505	20.835187
310.091573	-3.009900	3.828800	-11.522000	23.030438	0.000504	20.827797
311.084843	-2.998700	3.828000	-11.478000	23.026627	0.000505	20.817816
312.086577	-2.986900	3.829400	-11.437000	23.019333	0.000506	20.831370
313.098812	-3.031100	3.827700	-11.601000	23.029312	0.000506	20.833782
314.091564	-2.987700	3.827800	-11.434000	23.030381	0.000504	20.822525
315.100030	-3.012600	3.827600	-11.530000	23.017180	0.000504	20.821626
316.091222	-3.013900	3.825700	-11.530000	23.030560	0.000507	20.813696
317.086766	-2.974900	3.827600	-11.385000	23.064526	0.000506	20.813116
318.090500	-3.010100	3.827700	-11.521000	23.095194	0.000507	20.823931
319.092902	-2.986300	3.826200	-11.425000	23.108762	0.000507	20.812871
320.090788	-2.962700	3.827800	-11.340000	23.115134	0.000506	20.807402
321.097178	-3.008400	3.826200	-11.510000	23.135783	0.000507	20.801066
322.091368	-3.010700	3.826400	-11.519000	23.152319	0.000507	20.795826
323.088467	-2.984800	3.825600	-11.418000	23.150557	0.000508	20.796904
324.086731	-2.995600	3.825800	-11.460000	23.144398	0.000506	20.811121
325.092078	-3.000200	3.824900	-11.475000	23.148958	0.000507	20.804785
326.099858	-3.006400	3.824800	-11.498000	23.169533	0.000508	20.823506
327.100518	-2.985300	3.825800	-11.420000	23.163553	0.000507	20.825574
328.096548	-3.022900	3.823200	-11.555000	23.129810	0.000507	20.801245
329.094532	-2.981500	3.824800	-11.402000	23.148272	0.000510	20.817848
330.092527	-3.016500	3.824800	-11.535000	23.151854	0.000511	20.802471
331.098383	-3.002800	3.822400	-11.477000	23.146649	0.000510	20.821911
332.096161	-2.987600	3.823600	-11.423000	23.164580	0.000509	20.798155
333.090928	-3.018600	3.822500	-11.538000	23.139698	0.000509	20.791239
334.090251	-3.003000	3.823700	-11.482000	23.143116	0.000510	20.816000
335.091702	-3.011600	3.822600	-11.511000	23.150866	0.000512	20.809542
336.102528	-2.990300	3.822700	-11.430000	23.156340	0.000509	20.810286
337.095611	-3.017500	3.822200	-11.533000	23.146852	0.000512	20.793666
338.102987	-3.004400	3.822100	-11.482000	23.209545	0.000511	20.782997
339.095930	-2.994600	3.823100	-11.448000	23.250105	0.000512	20.806574
340.092211	-3.016900	3.822000	-11.529000	23.237559	0.000513	20.776931
341.102895	-2.994200	3.822100	-11.442000	23.240716	0.000512	20.804277
342.110637	-2.998500	3.821400	-11.457000	23.197072	0.000513	20.782825
343.098260	-2.996700	3.821700	-11.452000	23.209325	0.000512	20.792259
344.104896	-2.990800	3.820700	-11.426000	23.213804	0.000514	20.804334
345.093699	-3.008800	3.820000	-11.493000	23.231268	0.000513	20.779162
346.099530	-3.017700	3.819100	-11.524000	23.241579	0.000514	20.798030
347.095822	-2.986900	3.820500	-11.410000	23.243994	0.000512	20.786699
348.099919	-3.002700	3.819700	-11.469000	23.235281	0.000512	20.788399
349.098565	-2.979800	3.819300	-11.380000	23.235510	0.000514	20.776774
350.103576	-2.980000	3.819700	-11.382000	23.228437	0.000515	20.784385
351.105251	-2.993500	3.818500	-11.429000	23.227172	0.000514	20.776005
352.108929	-2.990400	3.819500	-11.420000	23.243430	0.000515	20.769064
353.103799	-3.002900	3.817800	-11.463000	23.250976	0.000514	20.792274
354.101787	-2.975900	3.818500	-11.362000	23.276753	0.000515	20.775907
355.108069	-3.011700	3.818500	-11.500000	23.278613	0.000515	20.768762
356.110491	-2.982200	3.819600	-11.390000	23.284837	0.000517	20.789225
357.101662	-2.998900	3.818600	-11.451000	23.299193	0.000516	20.784171
358.104126	-2.990400	3.818200	-11.417000	23.288483	0.000519	20.780550
359.106412	-2.987100	3.818300	-11.405000	23.259583	0.000516	20.791890
360.104722	-3.002900	3.816600	-11.460000	23.268058	0.000518	20.789478
361.108732	-2.997800	3.817000	-11.442000	23.316266	0.000517	20.783739
362.109862	-2.974200	3.818000	-11.354000	23.294471	0.000519	20.773275
363.103427	-3.022100	3.817500	-11.535000	23.290963	0.000518	20.771656
364.122128	-3.003600	3.816300	-11.462000	23.283214	0.000520	20.777641
365.112784	-3.011800	3.816000	-11.492000	23.314766	0.000518	20.769433
366.103456	-2.995600	3.815700	-11.429000	23.319734	0.000519	20.756394
367.116420	-3.014100	3.816000	-11.501000	23.295753	0.000520	20.768870
368.114105	-3.004700	3.815800	-11.464000	23.324336	0.000520	20.776653
369.104546	-3.020400	3.815700	-11.524000	23.371652	0.000519	20.776661
370.106345	-3.013000	3.814600	-11.492000	23.381057	0.000522	20.777552
371.110719	-2.991000	3.814000	-11.407000	23.397779	0.000520	20.760173
372.112321	-3.018100	3.813900	-11.509000	23.405470	0.000520	20.765037
373.113530	-3.012500	3.814100	-11.489000	23.416473	0.000521	20.774643
374.108294	-3.005300	3.813200	-11.459000	23.410610	0.000521	20.781095
375.105670	-2.990600	3.815100	-11.409000	23.427199	0.000520	20.770221
376.110645	-2.995100	3.812800	-11.419000	23.422290	0.000520	20.765774
377.105230	-2.994000	3.813400	-11.416000	23.424549	0.000523	20.773729
378.110861	-2.970600	3.814100	-11.330000	23.454058	0.000520	20.758261
379.107032	-2.994300	3.812200	-11.414000	23.452214	0.000521	20.765423
380.117589	-3.003500	3.812600	-11.450000	23.443227	0.000522	20.765423
381.110394	-3.003200	3.811300	-11.445000	23.463683	0.000521	20.752736
382.113396	-2.979900	3.812400	-11.359000	23.434680	0.000522	20.767288
383.109384	-2.996200	3.811700	-11.420000	23.412936	0.000523	20.764934
384.108295	-2.997000	3.810300	-11.419000	23.452305	0.000522	20.752237
385.107985	-3.018000	3.810100	-11.499000	23.458006	0.000524	20.769806
386.109202	-3.008600	3.810500	-11.463000	23.480452	0.000520	20.746311
387.108729	-3.004500	3.810200	-11.446000	23.503907	0.000521	20.766504
388.110531	-2.994600	3.811600	-11.413000	23.513865	0.000523	20.760364
389.113301	-3.003800	3.809800	-11.443000	23.533700	0.000523	20.781669
390.119293	-2.999900	3.809600	-11.427000	23.493942	0.000522	20.760308
391.111022	-2.989300	3.809200	-11.386000	23.498974	0.000521	20.772464
392.111735	-3.005900	3.809700	-11.451000	23.485704	0.000524	20.753473
393.116430	-2.983900	3.809400	-11.366000	23.519517	0.000523	20.759391
394.115212	-2.998600	3.808900	-11.420000	23.518270	0.000523	20.755296
395.114968	-2.997700	3.809200	-11.418000	23.541195	0.000527	20.768319
396.110833	-3.015400	3.807500	-11.480000	23.528676	0.000524	20.762882
397.123681	-3.000100	3.807200	-11.421000	23.531759	0.000525	20.781620
398.114303	-3.006900	3.807700	-11.448000	23.560914	0.000525	20.774810
399.123601	-2.984100	3.808500	-11.364000	23.558051	0.000525	20.752026
400.113585	-2.997000	3.807900	-11.412000	23.541048	0.000526	20.773388
401.111673	-2.984200	3.807800	-11.361000	23.529320	0.000524	20.746932
402.117225	-2.985500	3.806500	-11.363000	23.555262	0.000525	20.748281
403.112321	-3.015000	3.806500	-11.476000	23.560041	0.000525	20.744063
404.117267	-2.993900	3.805500	-11.392000	23.545525	0.000525	20.766970
405.115712	-3.031800	3.805400	-11.536000	23.545704	0.000525	20.754821
406.115431	-2.982600	3.806500	-11.352000	23.569680	0.000527	20.755148
407.118932	-2.998000	3.806100	-11.410000	23.585135	0.000527	20.742665
408.113198	-2.987600	3.805400	-11.368000	23.613391	0.000526	20.744439
409.121609	-2.978900	3.805500	-11.335000	23.623845	0.000526	20.747333
410.117228	-3.015800	3.804400	-11.472000	23.634307	0.000526	20.740751
411.114666	-2.987000	3.805100	-11.364000	23.630051	0.000527	20.762089
412.114667	-2.980800	3.804800	-11.340000	23.631550	0.000526	20.770705
413.116123	-2.993800	3.803900	-11.388000	23.619172	0.000527	20.739803
414.120543	-2.986500	3.804100	-11.359000	23.616856	0.000529	20.761190
415.115361	-2.991600	3.802400	-11.374000	23.603939	0.000525	20.764361
416.116313	-3.013900	3.802600	-11.460000	23.623990	0.000526	20.749849
417.117351	-2.985400	3.801800	-11.350000	23.630906	0.000527	20.757730
418.128851	-2.983100	3.802900	-11.344000	23.640275	0.000527	20.747682
419.115820	-3.020500	3.802200	-11.483000	23.653738	0.000529	20.744584
420.125074	-3.000100	3.800500	-11.400000	23.644850	0.000529	20.746105
421.116621	-2.987100	3.803700	-11.361000	23.612068	0.000530	20.751173
422.119221	-3.010000	3.800800	-11.439000	23.637640	0.000527	20.756895
423.120897	-2.978300	3.803600	-11.328000	23.649513	0.000529	20.760264
424.119653	-2.978200	3.800600	-11.318000	23.608495	0.000529	20.738108
425.115792	-2.995500	3.801600	-11.386000	23.608887	0.000529	20.745139
426.129530	-2.985300	3.800600	-11.345000	23.624772	0.000529	20.750633
427.114757	-2.997700	3.801200	-11.394000	23.673666	0.000531	20.754606
428.114637	-2.986300	3.800400	-11.348000	23.618182	0.000530	20.742604
429.116083	-2.998900	3.800400	-11.396000	23.666050	0.000531	20.747444
430.124548	-2.989100	3.800800	-11.360000	23.647587	0.000532	20.746004
431.123209	-3.008700	3.798900	-11.428000	23.656125	0.000530	20.735123
432.119031	-2.998600	3.798600	-11.389000	23.647644	0.000531	20.753173
433.115783	-2.999100	3.798900	-11.391000	23.647791	0.000532	20.748105
434.123496	-2.980400	3.799700	-11.323000	23.650604	0.000530	20.745709
435.114857	-2.981400	3.797800	-11.322000	23.616729	0.000530	20.732138
436.117536	-2.990800	3.798300	-11.359000	23.679829	0.000531	20.722376
437.128459	-3.004500	3.796600	-11.406000	23.715903	0.000532	20.748112
438.120241	-3.002200	3.797000	-11.399000	23.753737	0.000531	20.754277
439.121542	-2.996500	3.796600	-11.375000	23.722132	0.000530	20.740133
440.116458	-2.993100	3.796100	-11.361000	23.767125	0.000530	20.726448
441.129881	-3.000200	3.795800	-11.387000	23.769872	0.000531	20.729202
442.136924	-2.984700	3.796200	-11.329000	23.745501	0.000531	20.730371
443.126804	-2.993900	3.795700	-11.363000	23.727505	0.000531	20.741253
444.119999	-2.980700	3.795400	-11.311000	23.721365	0.000529	20.707593
445.119718	-2.987000	3.795900	-11.337000	23.690070	0.000532	20.727428
446.121825	-2.981300	3.795300	-11.313000	23.733539	0.000532	20.705100
447.132651	-2.988700	3.795600	-11.343000	23.739067	0.000534	20.716807
448.120358	-2.998100	3.794100	-11.375000	23.723281	0.000532	20.746501
449.131024	-2.985100	3.795300	-11.328000	23.752105	0.000532	20.722293
450.121545	-2.983200	3.794000	-11.317000	23.745989	0.000533	20.707625
451.123014	-3.008100	3.792500	-11.407000	23.746535	0.000532	20.747056
452.128427	-2.988400	3.793700	-11.335000	23.758961	0.000533	20.741022
453.129700	-2.975900	3.793600	-11.288000	23.781457	0.000534	20.732283
454.132193	-3.007800	3.791700	-11.404000	23.750873	0.000534	20.724377
455.124391	-2.983700	3.793900	-11.319000	23.783300	0.000532	20.726069
456.126968	-2.994700	3.793700	-11.360000	23.780984	0.000535	20.716161
457.121471	-2.975600	3.792000	-11.283000	23.795301	0.000536	20.718188
458.123693	-3.014900	3.791900	-11.432000	23.795897	0.000533	20.727320
459.126241	-2.996700	3.792600	-11.364000	23.786309	0.000534	20.742838
460.123629	-2.984200	3.791700	-11.315000	23.779867	0.000534	20.725947
461.129946	-2.996300	3.791400	-11.359000	23.822771	0.000534	20.714910
462.134839	-2.975900	3.792200	-11.284000	23.832873	0.000535	20.717927
463.135921	-2.987600	3.790600	-11.323000	23.839297	0.000534	20.730534
464.135258	-3.017500	3.789500	-11.434000	23.821948	0.000532	20.716930
465.127166	-2.992000	3.791100	-11.342000	23.819054	0.000535	20.714502
466.124622	-3.020200	3.790000	-11.446000	23.798026	0.000533	20.734197
467.134600	-2.993500	3.789600	-11.343000	23.818164	0.000533	20.721672
468.131734	-2.999900	3.789800	-11.368000	23.840831	0.000535	20.716423
469.128589	-2.980000	3.788800	-11.290000	23.870125	0.000535	20.725883
470.126504	-2.992200	3.789100	-11.336000	23.874258	0.000534	20.718647
471.134264	-3.001600	3.788700	-11.371000	23.898479	0.000535	20.731556
472.135213	-3.029400	3.786900	-11.471000	23.893302	0.000535	20.722571
473.126108	-3.007100	3.788300	-11.391000	23.908532	0.000538	20.738791
474.129682	-3.003900	3.788500	-11.379000	23.882377	0.000535	20.724418
475.132749	-3.010700	3.788000	-11.404000	23.879719	0.000535	20.715114
476.131080	-2.971400	3.788000	-11.254000	23.849897	0.000537	20.719350
477.133850	-3.017600	3.786900	-11.426000	23.830989	0.000535	20.703235
478.138505	-2.994500	3.787100	-11.340000	23.835612	0.000536	20.718777
479.136177	-3.011600	3.786200	-11.402000	23.861049	0.000535	20.695444
480.133183	-2.984500	3.787500	-11.303000	23.849179	0.000536	20.726217
481.128613	-3.011900	3.785100	-11.400000	23.858244	0.000536	20.732462
482.129239	-3.019700	3.785500	-11.429000	23.892388	0.000536	20.716913
483.130258	-2.994600	3.785100	-11.334000	23.905913	0.000536	20.729052
484.136932	-2.994100	3.785300	-11.333000	23.886518	0.000536	20.711974
485.130603	-2.993200	3.785200	-11.328000	23.889265	0.000537	20.723738
486.132470	-2.993600	3.784600	-11.329000	23.911709	0.000536	20.707837
487.142694	-3.029400	3.782900	-11.459000	23.932221	0.000536	20.707542
488.133492	-3.014100	3.783100	-11.402000	23.943740	0.000538	20.711508
489.135243	-3.011700	3.783700	-11.394000	23.946935	0.000535	20.714237
490.143644	-2.991200	3.783800	-11.318000	23.941205	0.000535	20.707542
491.131598	-2.987800	3.783100	-11.302000	23.961536	0.000536	20.703749
492.135357	-2.993100	3.783100	-11.322000	23.931927	0.000536	20.711989
493.133518	-3.016700	3.783000	-11.412000	23.929342	0.000537	20.711768
494.131540	-2.999400	3.783500	-11.347000	23.937755	0.000537	20.691280
495.136833	-3.007700	3.782400	-11.375000	23.956578	0.000538	20.703044
496.135255	-2.991400	3.781700	-11.312000	23.972377	0.000536	20.690911
497.134114	-2.987000	3.781800	-11.295000	23.987735	0.000537	20.696830
498.132097	-3.001000	3.781600	-11.348000	23.996124	0.000538	20.698604
499.144126	-2.995200	3.780700	-11.323000	24.027084	0.000539	20.690771
500.144841	-2.979700	3.782000	-11.268000	24.030117	0.000536	20.699977
501.138599	-3.001800	3.780100	-11.346000	24.051196	0.000539	20.692668
502.134728	-2.998500	3.780700	-11.336000	24.024605	0.000538	20.686388
503.138580	-2.990400	3.779700	-11.302000	24.039188	0.000540	20.710498
504.141739	-3.005600	3.779400	-11.358000	24.029193	0.000538	20.701897
505.146966	-2.972100	3.779700	-11.233000	24.037973	0.000537	20.698848
506.134187	-3.002800	3.779400	-11.348000	24.019860	0.000540	20.683526
507.138318	-3.012800	3.778600	-11.384000	24.040817	0.000538	20.685578
508.140930	-3.013800	3.778200	-11.385000	24.035560	0.000536	20.679831
509.144622	-3.008900	3.779000	-11.369000	24.025100	0.000537	20.693049
510.134266	-2.987000	3.777500	-11.283000	24.009081	0.000541	20.704487
511.152277	-2.989000	3.779400	-11.296000	23.986754	0.000537	20.674032
512.135113	-3.004100	3.776900	-11.346000	24.018863	0.000537	20.680155
513.140511	-2.983200	3.777800	-11.269000	24.049090	0.000538	20.682969
514.145469	-2.977600	3.776600	-11.244000	24.037148	0.000539	20.670516
515.135249	-3.007200	3.776700	-11.357000	24.031955	0.000537	20.670524
516.146013	-3.005500	3.776600	-11.350000	24.031580	0.000538	20.690539
517.138797	-2.995900	3.776600	-11.313000	24.066542	0.000538	20.674391
518.139715	-2.999200	3.776400	-11.325000	24.023151	0.000537	20.686826
519.139355	-3.004500	3.776700	-11.346000	24.012472	0.000539	20.657622
520.137204	-2.999700	3.776300	-11.326000	24.008077	0.000537	20.692099
521.137013	-2.995600	3.775600	-11.309000	24.027511	0.000539	20.687406
522.143378	-2.996500	3.774500	-11.310000	24.072850	0.000537	20.679770
523.150976	-3.007300	3.774900	-11.350000	24.105104	0.000540	20.681773
524.145718	-2.999800	3.774100	-11.320000	24.091492	0.000539	20.675706
525.143950	-3.003900	3.774100	-11.336000	24.097466	0.000538	20.686441
526.139559	-2.994200	3.774300	-11.301000	24.106245	0.000539	20.684814
527.139438	-3.013600	3.772700	-11.368000	24.099855	0.000539	20.702114
528.148910	-3.003000	3.773300	-11.331000	24.131309	0.000538	20.676286
529.144875	-3.005300	3.773100	-11.339000	24.132931	0.000542	20.674593
530.145110	-3.018100	3.771600	-11.382000	24.099610	0.000537	20.667726
531.146613	-3.008300	3.772300	-11.348000	24.083844	0.000541	20.661871
532.147868	-3.000800	3.771800	-11.317000	24.083168	0.000539	20.678264
533.149021	-3.008300	3.772300	-11.348000	24.063490	0.000540	20.659001
534.144309	-3.000600	3.770700	-11.314000	24.081008	0.000539	20.666613
535.144299	-3.008900	3.771600	-11.348000	24.087725	0.000538	20.659124
536.140357	-3.011400	3.771100	-11.355000	24.102861	0.000539	20.679522
537.140564	-3.012600	3.770000	-11.357000	24.095826	0.000538	20.675311
538.140825	-2.979300	3.771000	-11.234000	24.080582	0.000537	20.663815
539.151101	-2.988600	3.770600	-11.268000	24.112201	0.000537	20.648109
540.140473	-3.016500	3.769400	-11.369000	24.139124	0.000538	20.684599
541.146652	-3.006900	3.770200	-11.335000	24.151170	0.000539	20.658272
542.145808	-3.001200	3.769800	-11.313000	24.145522	0.000537	20.654977
543.153253	-2.999300	3.769100	-11.304000	24.167741	0.000540	20.677739
544.144130	-3.010200	3.769200	-11.345000	24.153615	0.000539	20.660250
545.149883	-3.007000	3.769600	-11.333000	24.176681	0.000538	20.668213
546.148020	-2.987400	3.767900	-11.255000	24.156452	0.000538	20.675425
547.148742	-3.012600	3.768100	-11.351000	24.149588	0.000537	20.682766
548.145654	-3.006700	3.767800	-11.328000	24.142326	0.000537	20.686862
549.154407	-2.993500	3.768800	-11.281000	24.155440	0.000537	20.669194
550.144844	-2.991900	3.767400	-11.271000	24.162115	0.000539	20.660241
551.142535	-2.994300	3.766500	-11.277000	24.180429	0.000536	20.660118
552.143388	-2.965200	3.766900	-11.169000	24.157388	0.000540	20.659766
553.152096	-2.971500	3.766700	-11.192000	24.196078	0.000541	20.650209
554.150864	-2.994500	3.765800	-11.276000	24.228493	0.000539	20.653798
555.149462	-3.004200	3.765600	-11.312000	24.291793	0.000538	20.658499
556.144897	-2.983400	3.765200	-11.233000	24.231466	0.000538	20.665791
557.144422	-2.964200	3.767200	-11.166000	24.196966	0.000541	20.647305
558.154798	-2.976600	3.766700	-11.211000	24.217440	0.000538	20.660256
559.146549	-2.995500	3.765700	-11.279000	24.216144	0.000536	20.670811
560.152336	-2.976000	3.765100	-11.204000	24.183126	0.000539	20.666143
561.150054	-2.976000	3.765100	-11.204000	24.170615	0.000539	20.660705
562.153566	-2.984300	3.764400	-11.233000	24.200691	0.000540	20.672855
563.150345	-3.014500	3.763200	-11.343000	24.240504	0.000538	20.662054
564.148213	-2.980300	3.764400	-11.218000	24.278646	0.000538	20.659536
565.152439	-2.991000	3.762600	-11.253000	24.292785	0.000539	20.647639
566.148557	-2.996500	3.763800	-11.277000	24.332857	0.000538	20.670770
567.155226	-3.005800	3.762500	-11.308000	24.308083	0.000540	20.678160
568.154202	-3.002600	3.763500	-11.300000	24.320348	0.000539	20.655374
569.149486	-3.003700	3.763100	-11.303000	24.303853	0.000539	20.667752
570.158534	-2.987700	3.762100	-11.239000	24.321692	0.000539	20.657671
571.153397	-3.005900	3.762000	-11.307000	24.271539	0.000539	20.651457
572.152246	-2.988000	3.762500	-11.241000	24.253902	0.000539	20.666485
573.151601	-2.977400	3.760600	-11.197000	24.299606	0.000540	20.679615
574.155761	-2.991100	3.760700	-11.247000	24.287772	0.000539	20.667743
575.151804	-2.987500	3.760700	-11.234000	24.293706	0.000539	20.662315
576.163352	-2.993400	3.761100	-11.258000	24.330135	0.000538	20.663770
577.149662	-3.012700	3.760500	-11.328000	24.296249	0.000539	20.662495
578.162034	-2.998300	3.760600	-11.274000	24.286102	0.000539	20.651841
579.154942	-2.997900	3.760700	-11.273000	24.270756	0.000539	20.661104
580.161686	-2.975800	3.758500	-11.184000	24.315156	0.000538	20.662495
581.151608	-3.022500	3.759300	-11.362000	24.274806	0.000537	20.678920
582.151698	-3.011600	3.759200	-11.320000	24.268848	0.000536	20.654923
583.166284	-2.995500	3.759800	-11.261000	24.243844	0.000538	20.671095
584.152984	-3.011300	3.757700	-11.315000	24.250576	0.000540	20.663623
585.153733	-2.992600	3.757300	-11.243000	24.229011	0.000538	20.671864
586.160076	-3.008700	3.758000	-11.305000	24.231693	0.000536	20.671234
587.155974	-2.974800	3.758400	-11.180000	24.258588	0.000538	20.692999
588.151566	-3.009400	3.757400	-11.307000	24.266110	0.000537	20.664979
589.154604	-2.996400	3.756700	-11.256000	24.237772	0.000537	20.687765
590.155853	-3.001500	3.757100	-11.275000	24.285294	0.000538	20.669051
591.165176	-2.983900	3.756600	-11.208000	24.303900	0.000538	20.679655
592.158621	-3.017000	3.756900	-11.334000	24.277601	0.000537	20.679353
593.151313	-3.020600	3.756900	-11.347000	24.263249	0.000536	20.671119
594.158537	-3.001500	3.755500	-11.271000	24.282402	0.000537	20.659510
595.154562	-2.977100	3.755600	-11.179000	24.264072	0.000535	20.689016
596.159203	-2.996600	3.756700	-11.257000	24.239247	0.000535	20.684977
597.157728	-3.013200	3.754300	-11.311000	24.260290	0.000537	20.664832
598.155362	-2.991800	3.755700	-11.235000	24.285921	0.000536	20.659247
599.156453	-3.001700	3.754200	-11.268000	24.313452	0.000538	20.667424
600.170567	-2.990300	3.755200	-11.229000	24.312489	0.000537	20.676891
601.155404	-3.012600	3.752200	-11.303000	24.303060	0.000535	20.680235
602.166415	-2.991100	3.753400	-11.226000	24.316825	0.000535	20.680292
603.159718	-2.988500	3.753100	-11.215000	24.321544	0.000535	20.672697
604.159638	-2.978200	3.755100	-11.183000	24.343042	0.000535	20.690471
605.160644	-3.001100	3.752900	-11.262000	24.345674	0.000537	20.696906
606.168946	-3.039400	3.750600	-11.399000	24.340140	0.000536	20.661953
607.159801	-2.984800	3.753200	-11.202000	24.355860	0.000535	20.692424
608.161889	-2.971200	3.754300	-11.154000	24.337500	0.000536	20.686333
609.162346	-3.005000	3.753300	-11.278000	24.348672	0.000534	20.680471
610.159324	-3.001900	3.751900	-11.262000	24.372427	0.000535	20.683439
611.171291	-3.019100	3.750100	-11.320000	24.346561	0.000535	20.694476
612.162201	-2.986000	3.752400	-11.204000	24.339577	0.000535	20.683201
613.167347	-2.996000	3.750700	-11.236000	24.352853	0.000536	20.684191
614.164653	-2.984300	3.750600	-11.192000	24.396670	0.000534	20.679309
615.162144	-2.998500	3.749700	-11.242000	24.379875	0.000538	20.685221
616.163650	-2.994000	3.749400	-11.225000	24.380470	0.000536	20.698147
617.165690	-3.005200	3.749100	-11.266000	24.376346	0.000536	20.678361
618.161622	-3.007300	3.749700	-11.276000	24.395374	0.000534	20.671845
619.162767	-3.009700	3.749000	-11.282000	24.383265	0.000535	20.697157
620.166586	-3.008900	3.747600	-11.275000	24.400899	0.000535	20.693511
621.173550	-2.998900	3.748900	-11.242000	24.389808	0.000532	20.680961
622.169526	-2.981500	3.748600	-11.176000	24.413888	0.000536	20.687101
623.166707	-3.003600	3.747800	-11.256000	24.406831	0.000535	20.698039
624.161662	-2.992600	3.748000	-11.215000	24.443933	0.000536	20.699226
625.164906	-3.012400	3.747700	-11.288000	24.398169	0.000533	20.687452
626.163482	-3.001000	3.747800	-11.246000	24.391299	0.000536	20.679137
627.166162	-3.001700	3.746500	-11.244000	24.417050	0.000536	20.681737
628.164443	-3.001100	3.747000	-11.243000	24.458885	0.000534	20.691467
629.166596	-2.996500	3.747000	-11.227000	24.461777	0.000536	20.691049
630.166341	-2.994800	3.746500	-11.220000	24.501476	0.000535	20.707172
631.166013	-3.008700	3.745500	-11.268000	24.491233	0.000536	20.696420
632.181472	-3.012500	3.745000	-11.281000	24.476281	0.000535	20.698489
633.166705	-2.995500	3.745700	-11.219000	24.506667	0.000531	20.695784
634.166134	-3.015000	3.745600	-11.292000	24.487119	0.000532	20.696560
635.172559	-2.990900	3.746200	-11.203000	24.499260	0.000534	20.692619
636.168893	-3.000900	3.745200	-11.239000	24.468321	0.000533	20.701882
637.168912	-3.002000	3.744800	-11.241000	24.427773	0.000532	20.690125
638.180404	-2.985600	3.744600	-11.178000	24.427798	0.000534	20.698211
639.173191	-3.005100	3.743700	-11.250000	24.447966	0.000534	20.694263
640.172561	-3.001800	3.744100	-11.238000	24.456750	0.000534	20.695015
641.181396	-2.994500	3.745100	-11.213000	24.466430	0.000533	20.713263
642.184022	-2.967900	3.744500	-11.111000	24.449815	0.000531	20.702282
643.175675	-2.980000	3.745100	-11.159000	24.493785	0.000534	20.708938
644.169911	-3.011900	3.741400	-11.268000	24.481953	0.000533	20.702282
645.173499	-3.004700	3.742600	-11.245000	24.477325	0.000534	20.696216
646.172904	-2.995200	3.741900	-11.205000	24.519606	0.000532	20.701653
647.170598	-2.992900	3.743400	-11.202000	24.523590	0.000531	20.698538
648.172464	-2.994800	3.742500	-11.207000	24.518318	0.000530	20.697990
649.180566	-2.996800	3.742100	-11.212000	24.511596	0.000532	20.710213
650.167324	-3.006200	3.742300	-11.249000	24.522204	0.000532	20.711848
651.169670	-2.986800	3.741400	-11.174000	24.501728	0.000532	20.694622
652.170639	-2.998000	3.740100	-11.212000	24.498095	0.000530	20.722746
653.171298	-2.982200	3.740200	-11.153000	24.507644	0.000533	20.710516
654.180718	-2.987000	3.740200	-11.170000	24.549540	0.000533	20.705135
655.169774	-2.999000	3.740100	-11.216000	24.550086	0.000532	20.710899
656.170095	-2.983700	3.741200	-11.162000	24.552319	0.000531	20.694646
657.177803	-2.982900	3.740900	-11.158000	24.536227	0.000530	20.728763
658.173291	-3.002900	3.739300	-11.228000	24.573715	0.000533	20.734134
659.171669	-3.001400	3.739300	-11.222000	24.592340	0.000532	20.725795
660.173743	-2.988300	3.739100	-11.173000	24.625818	0.000531	20.705332
661.183241	-3.007400	3.737500	-11.239000	24.566220	0.000530	20.705749
662.179981	-3.019300	3.737500	-11.283000	24.537799	0.000530	20.714219
663.185092	-2.999700	3.737200	-11.210000	24.583533	0.000529	20.714113
664.180628	-2.990900	3.739300	-11.183000	24.606933	0.000530	20.711513
665.179322	-3.006100	3.737700	-11.234000	24.629412	0.000530	20.712732
666.176294	-2.986900	3.739000	-11.167000	24.612954	0.000528	20.700484
667.187639	-3.007000	3.737700	-11.238000	24.576388	0.000530	20.696511
668.175933	-2.995400	3.737500	-11.195000	24.576469	0.000529	20.716982
669.186371	-2.999700	3.735800	-11.206000	24.548531	0.000529	20.714080
670.181280	-3.002700	3.736400	-11.218000	24.537368	0.000527	20.706199
671.182610	-2.983000	3.737300	-11.148000	24.547268	0.000530	20.719926
672.183671	-2.981100	3.736500	-11.138000	24.538664	0.000527	20.710818
673.186830	-2.987400	3.735900	-11.159000	24.581415	0.000529	20.734274
674.181529	-2.985900	3.735900	-11.154000	24.549704	0.000528	20.710041
675.190435	-3.002500	3.734800	-11.213000	24.545475	0.000529	20.742310
676.180249	-2.994200	3.735600	-11.184000	24.600366	0.000527	20.710614
677.190933	-3.012300	3.735000	-11.250000	24.607210	0.000529	20.705626
678.185239	-3.002400	3.734800	-11.213000	24.578262	0.000529	20.723523
679.183826	-3.011400	3.734200	-11.244000	24.578311	0.000528	20.726891
680.186160	-3.004600	3.734500	-11.220000	24.584413	0.000528	20.701718
681.178783	-2.992100	3.733700	-11.171000	24.589742	0.000529	20.741207
682.181319	-3.011000	3.734300	-11.243000	24.587818	0.000526	20.728845
683.190055	-3.003100	3.734400	-11.213000	24.628580	0.000527	20.740822
684.179831	-2.997100	3.733700	-11.189000	24.638080	0.000526	20.720481
685.188830	-3.004700	3.732600	-11.215000	24.630046	0.000527	20.741819
686.180028	-2.998500	3.732100	-11.190000	24.630218	0.000527	20.715437
687.180434	-3.007800	3.733900	-11.230000	24.565681	0.000525	20.712322
688.181197	-2.999900	3.733000	-11.198000	24.590352	0.000526	20.716688
689.186904	-3.029900	3.731600	-11.306000	24.567897	0.000526	20.743945
690.179657	-3.010500	3.731300	-11.233000	24.587843	0.000527	20.752578
691.178311	-2.999500	3.731900	-11.193000	24.628196	0.000528	20.739962
692.192893	-3.004500	3.731700	-11.209000	24.593994	0.000529	20.708961
693.190452	-3.003900	3.730500	-11.205000	24.593521	0.000528	20.725557
694.178699	-2.997500	3.730500	-11.181000	24.570121	0.000525	20.728631
695.180197	-2.986600	3.730200	-11.140000	24.593773	0.000526	20.745726
696.189199	-2.994100	3.729400	-11.166000	24.635651	0.000525	20.733218
697.180446	-2.989700	3.730200	-11.151000	24.632946	0.000525	20.735719
698.184542	-2.997700	3.729400	-11.178000	24.630314	0.000524	20.741139
699.189849	-2.990400	3.730500	-11.154000	24.573111	0.000524	20.724993
700.179858	-3.003700	3.728900	-11.200000	24.598685	0.000526	20.733585
701.187951	-2.988600	3.729700	-11.145000	24.628049	0.000524	20.753566
702.181296	-2.990800	3.728600	-11.150000	24.631462	0.000526	20.727592
703.186862	-2.998800	3.728800	-11.181000	24.635992	0.000525	20.745415
704.189939	-3.002000	3.727700	-11.190000	24.600600	0.000524	20.746412
705.183702	-3.009700	3.727600	-11.219000	24.594131	0.000524	20.744188
706.185197	-2.997500	3.727200	-11.172000	24.585315	0.000524	20.742929
707.187748	-3.003500	3.727100	-11.193000	24.592273	0.000524	20.756549
708.198611	-2.990500	3.728300	-11.148000	24.581877	0.000523	20.757023
709.195503	-3.009200	3.727600	-11.215000	24.599638	0.000524	20.747343
710.183387	-3.005400	3.726400	-11.198000	24.664302	0.000523	20.741580
711.195945	-3.000600	3.726200	-11.180000	24.666616	0.000525	20.755282
712.187352	-2.998300	3.726600	-11.173000	24.658461	0.000525	20.743305
713.184280	-2.986400	3.726300	-11.128000	24.647862	0.000525	20.748316
714.185874	-2.996200	3.726100	-11.162000	24.646941	0.000524	20.741228
715.184246	-3.013300	3.724700	-11.223000	24.692776	0.000523	20.738383
716.188808	-3.032200	3.725200	-11.295000	24.700637	0.000523	20.765239
717.184854	-2.989700	3.726000	-11.139000	24.691880	0.000524	20.745071
718.187426	-3.012900	3.725100	-11.223000	24.697126	0.000523	20.739904
719.197424	-3.003300	3.724300	-11.184000	24.702348	0.000524	20.761740
720.192611	-3.017800	3.724900	-11.240000	24.724296	0.000523	20.762428
721.195036	-3.009000	3.724900	-11.208000	24.757777	0.000524	20.756198
722.194417	-2.994900	3.724700	-11.154000	24.694658	0.000525	20.744066
723.188504	-3.012700	3.723900	-11.218000	24.713054	0.000524	20.752569
724.189736	-3.016200	3.723900	-11.231000	24.679082	0.000523	20.743134
725.187597	-3.002700	3.722200	-11.175000	24.667392	0.000524	20.762224
726.200545	-2.982200	3.724300	-11.106000	24.697877	0.000523	20.741606
727.192300	-2.992800	3.723400	-11.143000	24.704590	0.000524	20.763516
728.190834	-3.009900	3.723500	-11.206000	24.722195	0.000521	20.752259
729.197189	-3.008000	3.721500	-11.193000	24.729121	0.000524	20.771537
730.184842	-3.006700	3.721700	-11.189000	24.716583	0.000521	20.759430
731.187980	-2.990400	3.723300	-11.132000	24.684925	0.000521	20.760378
732.189454	-2.993000	3.721700	-11.137000	24.686441	0.000520	20.768063
733.194391	-3.002200	3.721300	-11.171000	24.690906	0.000523	20.773492
734.192649	-3.001200	3.722100	-11.170000	24.693521	0.000520	20.766633
735.189324	-3.001700	3.720700	-11.167000	24.682148	0.000519	20.778455
736.195575	-3.018600	3.720600	-11.230000	24.674490	0.000521	20.774089
737.198779	-2.994300	3.721500	-11.143000	24.657374	0.000518	20.781570
738.189068	-3.014000	3.719300	-11.209000	24.657643	0.000521	20.778521
739.191989	-2.954300	3.720600	-10.991000	24.646254	0.000518	20.781791
740.192053	-3.020100	3.719400	-11.232000	24.650898	0.000518	20.759424
741.191352	-2.982600	3.719200	-11.091000	24.703421	0.000519	20.772774
742.193974	-3.007500	3.717900	-11.181000	24.700635	0.000521	20.766185
743.200433	-2.986000	3.720000	-11.107000	24.705205	0.000519	20.793057
744.202067	-3.001200	3.719100	-11.160000	24.754915	0.000519	20.784621
745.203043	-3.020800	3.717900	-11.230000	24.719234	0.000517	20.774418
746.200732	-3.009200	3.719600	-11.191000	24.735470	0.000518	20.791659
747.201646	-3.009600	3.717500	-11.188000	24.708880	0.000516	20.773511
748.205063	-2.982800	3.718500	-11.090000	24.716611	0.000517	20.790752
749.199678	-2.999800	3.717900	-11.152000	24.708383	0.000518	20.785814
750.199846	-3.007800	3.716900	-11.179000	24.700375	0.000518	20.772562
751.196168	-3.009500	3.716800	-11.185000	24.697491	0.000514	20.785316
752.199549	-2.983000	3.716400	-11.085000	24.685450	0.000517	20.784139
753.202605	-3.004300	3.716800	-11.166000	24.744937	0.000516	20.798788
754.199678	-2.998500	3.716400	-11.143000	24.761873	0.000516	20.792077
755.196528	-2.999400	3.716900	-11.147000	24.773636	0.000517	20.788234
756.200834	-2.995900	3.715700	-11.131000	24.747372	0.000515	20.787482
757.202597	-3.007300	3.715100	-11.172000	24.762289	0.000515	20.783959
758.204287	-3.004200	3.716300	-11.163000	24.741955	0.000515	20.796270
759.199456	-3.011100	3.715300	-11.187000	24.749336	0.000515	20.816479
760.199354	-3.017400	3.713900	-11.206000	24.742248	0.000515	20.804626
761.198149	-3.002000	3.715000	-11.151000	24.742599	0.000514	20.770838
762.198983	-2.987100	3.716400	-11.100000	24.725337	0.000515	20.782913
763.203428	-3.020800	3.714100	-11.219000	24.722918	0.000513	20.807038
764.198648	-2.970100	3.714300	-11.030000	24.702901	0.000513	20.794064
765.209654	-3.009400	3.713400	-11.174000	24.751715	0.000516	20.788047
766.197968	-3.002000	3.713400	-11.146000	24.749850	0.000514	20.818417
767.208344	-2.997900	3.714200	-11.134000	24.750746	0.000513	20.805566
768.205234	-3.001900	3.713000	-11.146000	24.750102	0.000514	20.798756
769.202336	-3.014000	3.713500	-11.192000	24.768538	0.000514	20.805878
770.203181	-2.991100	3.713100	-11.104000	24.792617	0.000513	20.819611
771.204166	-3.013900	3.713200	-11.191000	24.836915	0.000514	20.810963
772.204093	-2.994700	3.712100	-11.116000	24.819582	0.000512	20.808266
773.204584	-2.996800	3.713300	-11.127000	24.792235	0.000513	20.794098
774.205729	-3.011700	3.711700	-11.178000	24.820803	0.000513	20.810440
775.200036	-2.989900	3.711400	-11.095000	24.807868	0.000513	20.813105
776.210834	-2.999500	3.712100	-11.134000	24.835001	0.000513	20.798611
777.211467	-3.011300	3.711800	-11.177000	24.822140	0.000516	20.830273
778.212470	-3.010200	3.710400	-11.168000	24.777346	0.000511	20.830363
779.213240	-3.006600	3.711100	-11.157000	24.759612	0.000511	20.813041
780.208317	-3.000700	3.708500	-11.127000	24.740240	0.000511	20.824895
781.206006	-3.002900	3.709400	-11.138000	24.709030	0.000512	20.799740
782.206954	-3.005100	3.709100	-11.145000	24.725658	0.000511	20.825909
783.217133	-3.005500	3.710100	-11.149000	24.794021	0.000511	20.822443
784.204501	-3.022300	3.708900	-11.209000	24.826988	0.000512	20.812380
785.208072	-2.973200	3.709700	-11.028000	24.811292	0.000510	20.817490
786.207279	-2.991000	3.709600	-11.094000	24.828374	0.000511	20.812348
787.206857	-2.984900	3.708700	-11.069000	24.862358	0.000512	20.829859
788.204158	-3.012600	3.709300	-11.173000	24.860786	0.000513	20.804574
789.215000	-2.990800	3.709000	-11.092000	24.858595	0.000510	20.802850
790.207270	-2.999700	3.708000	-11.122000	24.858189	0.000509	20.807183
791.214826	-2.989900	3.709400	-11.090000	24.817387	0.000507	20.818865
792.206503	-3.016200	3.708500	-11.185000	24.784730	0.000507	20.817386
793.207942	-3.007500	3.706600	-11.147000	24.751429	0.000507	20.808623
794.203993	-3.009400	3.707300	-11.156000	24.770671	0.000506	20.843579
795.210485	-3.010100	3.706500	-11.156000	24.804909	0.000507	20.822938
796.214374	-2.998400	3.706300	-11.112000	24.829942	0.000507	20.810128
797.216391	-3.001400	3.707400	-11.126000	24.823677	0.000506	20.821385
798.213982	-2.998000	3.705700	-11.110000	24.881283	0.000509	20.815189
799.215852	-3.005800	3.706700	-11.140000	24.895831	0.000506	20.813194
800.212031	-2.986600	3.706100	-11.068000	24.916806	0.000508	20.813857
801.216843	-2.987800	3.706000	-11.072000	24.879932	0.000505	20.844652
802.208813	-3.016200	3.703900	-11.171000	24.909418	0.000507	20.822090
803.224201	-3.006500	3.704500	-11.136000	24.887687	0.000505	20.827779
804.218328	-3.005900	3.705100	-11.136000	24.879949	0.000504	20.812427
805.215762	-3.011100	3.704000	-11.152000	24.915584	0.000505	20.789872
806.220020	-3.002100	3.705900	-11.125000	24.901460	0.000506	20.826905
807.215783	-3.009400	3.704000	-11.146000	24.880422	0.000504	20.842772
808.208366	-2.987900	3.704400	-11.067000	24.891417	0.000503	20.811609
809.217333	-3.012300	3.703200	-11.154000	24.893877	0.000504	20.808863
810.208838	-3.028100	3.702200	-11.210000	24.869727	0.000503	20.810229
811.212226	-2.995000	3.702100	-11.087000	24.905729	0.000504	20.811275
812.212412	-3.005300	3.703500	-11.129000	24.925497	0.000503	20.811676
813.220610	-2.988200	3.704700	-11.069000	24.852051	0.000502	20.797230
814.233041	-2.992700	3.702900	-11.080000	24.864782	0.000503	20.821861
815.224385	-3.005200	3.701100	-11.122000	24.906503	0.000503	20.815845
816.222275	-3.008900	3.701800	-11.137000	24.898447	0.000502	20.807760
817.216751	-2.982700	3.702200	-11.042000	24.922386	0.000502	20.796699
818.218966	-3.004000	3.701800	-11.119000	24.925588	0.000503	20.803232
819.217412	-3.018700	3.700900	-11.171000	24.936257	0.000503	20.777905
820.212947	-3.014200	3.701400	-11.157000	24.967842	0.000502	20.804391
821.222925	-2.993700	3.702600	-11.084000	24.940264	0.000501	20.765805
822.219020	-2.958600	3.701700	-10.951000	24.948971	0.000500	20.794459
823.217902	-3.001800	3.702400	-11.113000	24.981794	0.000503	20.791842
824.210539	-2.992200	3.699900	-11.070000	24.992032	0.000502	20.796429
825.217001	-2.979200	3.700100	-11.023000	25.028062	0.000503	20.794189
826.221790	-3.017500	3.699800	-11.163000	25.003768	0.000502	20.781182
827.217020	-2.989900	3.700000	-11.062000	24.999923	0.000502	20.786806
828.221382	-2.992400	3.699300	-11.069000	25.000265	0.000500	20.784779
829.215389	-3.007100	3.699500	-11.124000	24.992781	0.000500	20.788172
830.225805	-3.013600	3.698900	-11.146000	24.940849	0.000499	20.778721
831.215749	-3.013700	3.699200	-11.147000	24.908172	0.000503	20.783381
832.217554	-2.993500	3.698000	-11.068000	24.889511	0.000501	20.783143
833.219884	-2.996100	3.698500	-11.081000	24.889486	0.000499	20.796869
834.218421	-3.008700	3.697800	-11.124000	24.894959	0.000498	20.786715
835.233502	-3.008600	3.698600	-11.127000	24.884656	0.000497	20.789177
836.218798	-3.002800	3.698100	-11.104000	24.908253	0.000498	20.792471
837.218933	-3.002400	3.696600	-11.097000	24.895579	0.000498	20.792553
838.222573	-2.994400	3.697400	-11.070000	24.869595	0.000498	20.769793
839.224608	-3.017200	3.696100	-11.150000	24.883467	0.000497	20.779922
840.219080	-3.002400	3.697200	-11.099000	24.906395	0.000499	20.780175
841.226396	-3.003700	3.696700	-11.103000	24.895065	0.000498	20.765958
842.221385	-3.006900	3.695900	-11.112000	24.879492	0.000498	20.768820
843.228907	-2.996600	3.695100	-11.072000	24.924575	0.000498	20.760963
844.224281	-3.013500	3.694000	-11.131000	24.951730	0.000498	20.773520
845.226468	-2.991000	3.695600	-11.052000	24.977337	0.000496	20.775041
846.225411	-3.000600	3.695300	-11.087000	24.985620	0.000498	20.776242
847.225533	-3.005500	3.694300	-11.102000	25.028557	0.000497	20.766710
848.222066	-3.009400	3.694400	-11.118000	25.003147	0.000495	20.765386
849.225964	-3.009300	3.694500	-11.117000	24.982166	0.000494	20.774198
850.230367	-3.003400	3.694500	-11.094000	24.967595	0.000497	20.755779
851.225621	-2.997000	3.693300	-11.068000	24.997723	0.000495	20.766105
852.222848	-3.009800	3.693500	-11.116000	25.004539	0.000494	20.754929
853.232700	-3.010700	3.692300	-11.115000	25.016748	0.000494	20.762917
854.231109	-3.020400	3.692700	-11.152000	24.971252	0.000492	20.757553
855.224823	-2.998400	3.692900	-11.072000	24.971994	0.000494	20.749763
856.224742	-2.982700	3.693000	-11.014000	24.968614	0.000494	20.743999
857.237838	-3.006100	3.693300	-11.102000	25.005589	0.000493	20.754561
858.233422	-3.003300	3.692700	-11.088000	25.001240	0.000493	20.766791
859.229891	-2.997600	3.692100	-11.066000	24.985896	0.000495	20.766088
860.235803	-3.020500	3.692100	-11.151000	24.987901	0.000493	20.740124
861.224913	-3.002900	3.690800	-11.082000	24.965755	0.000493	20.753932
862.227522	-2.999800	3.692100	-11.075000	24.962343	0.000491	20.765206
863.221656	-3.005500	3.691300	-11.094000	24.945922	0.000492	20.753939
864.225249	-3.009200	3.690300	-11.104000	24.967490	0.000491	20.752355
865.229226	-2.999200	3.690200	-11.065000	25.005915	0.000490	20.744930
866.223189	-3.008300	3.689800	-11.099000	25.005851	0.000493	20.759091
867.234592	-3.010500	3.689500	-11.106000	25.027815	0.000492	20.754586
868.232224	-2.992300	3.691100	-11.044000	25.031961	0.000491	20.755428
869.226361	-3.017300	3.688600	-11.128000	25.008905	0.000490	20.743665
870.232322	-2.977000	3.690500	-10.985000	25.002170	0.000490	20.746387
871.223925	-2.969200	3.690400	-10.957000	25.013360	0.000490	20.749084
872.226553	-2.988700	3.689300	-11.025000	24.980766	0.000489	20.732014
873.232977	-2.990200	3.688600	-11.028000	24.984489	0.000490	20.742864
874.226467	-3.003000	3.688700	-11.076000	25.000917	0.000489	20.736119
875.232945	-3.007000	3.687500	-11.088000	25.006862	0.000486	20.745881
876.233155	-2.986600	3.688000	-11.013000	25.044847	0.000488	20.728532
877.246575	-3.002200	3.686800	-11.067000	24.971905	0.000488	20.757261
878.229945	-3.009500	3.688500	-11.100000	25.018761	0.000486	20.737910
879.233261	-2.999500	3.687700	-11.060000	25.026075	0.000488	20.747622
880.231950	-3.014100	3.685300	-11.106000	25.024087	0.000488	20.771233
881.232651	-2.997300	3.685800	-11.046000	25.047551	0.000489	20.743576
882.239319	-2.976300	3.686800	-10.972000	25.068824	0.000487	20.747386
883.228454	-2.991000	3.687000	-11.027000	25.056372	0.000487	20.736782
884.233039	-2.980900	3.687000	-10.990000	25.056543	0.000484	20.754025
885.236400	-3.002700	3.686300	-11.068000	24.998865	0.000486	20.741647
886.242509	-3.005500	3.685900	-11.078000	25.018950	0.000485	20.737625
887.231442	-3.018200	3.683700	-11.117000	25.027151	0.000485	20.759135
888.243411	-3.020900	3.684000	-11.128000	25.027477	0.000485	20.733856
889.233892	-3.013500	3.684600	-11.103000	25.061014	0.000484	20.755668
890.237660	-3.027100	3.683500	-11.150000	25.072375	0.000484	20.742416
891.236526	-2.999700	3.683000	-11.046000	25.035238	0.000484	20.747811
892.242314	-2.994700	3.685100	-11.034000	25.063425	0.000485	20.732009
893.243373	-2.991800	3.684700	-11.022000	25.030132	0.000483	20.758808
894.237300	-2.987500	3.683800	-11.004000	25.040231	0.000483	20.726743
895.236336	-3.001300	3.683200	-11.052000	25.055640	0.000482	20.732254
896.240945	-2.989200	3.683900	-11.011000	25.074306	0.000483	20.727758
897.241481	-2.994700	3.683300	-11.030000	25.010838	0.000482	20.732802
898.241651	-3.004800	3.683500	-11.068000	25.011514	0.000483	20.736799
899.245587	-3.016900	3.682700	-11.110000	25.027868	0.000484	20.737568
900.254198	-2.993900	3.683400	-11.027000	25.026150	0.000482	20.750543
901.244672	-2.989900	3.682100	-11.008000	25.024628	0.000481	20.730996
902.259873	-2.979400	3.683000	-10.973000	25.084396	0.000483	20.743578
903.244265	-3.001900	3.682100	-11.052000	25.079323	0.000479	20.715250
904.247592	-2.992800	3.681000	-11.016000	25.077336	0.000480	20.757828
905.238712	-2.977000	3.681600	-10.959000	25.052269	0.000479	20.744045
906.241443	-3.025200	3.681000	-11.134000	25.006775	0.000480	20.736310
907.249971	-3.001400	3.681000	-11.048000	24.999991	0.000481	20.728552
908.240649	-3.000500	3.680200	-11.040000	25.053767	0.000482	20.735591
909.251862	-2.992400	3.681200	-11.015000	25.071839	0.000481	20.726704
910.244343	-3.003000	3.680400	-11.051000	25.078647	0.000480	20.726900
911.252077	-3.008900	3.678500	-11.068000	25.071440	0.000481	20.726778
912.254597	-2.994300	3.679500	-11.017000	25.014414	0.000480	20.734495
913.257441	-2.983900	3.679000	-10.977000	24.975028	0.000477	20.730996
914.247607	-3.002500	3.678900	-11.045000	24.973097	0.000478	20.740438
915.259649	-3.005200	3.678400	-11.054000	24.984622	0.000479	20.729721
916.242563	-2.995100	3.678100	-11.016000	25.014439	0.000477	20.724087
917.234709	-2.997300	3.678000	-11.022000	25.052602	0.000478	20.728731
918.232141	-2.998000	3.677000	-11.022000	25.016825	0.000478	20.732173
919.235473	-3.005800	3.677500	-11.053000	25.000341	0.000479	20.711832
920.232635	-3.002400	3.676900	-11.039000	24.984728	0.000478	20.735517
921.239713	-2.969600	3.678700	-10.923000	25.020775	0.000475	20.718594
922.240917	-2.986300	3.677800	-10.983000	25.042235	0.000477	20.725436
923.231627	-3.002400	3.676200	-11.037000	25.059646	0.000475	20.713041
924.253855	-2.994800	3.675800	-11.007000	25.056217	0.000476	20.720980
925.234406	-2.965200	3.677600	-10.903000	25.072098	0.000477	20.728387
926.234437	-2.990700	3.675200	-10.991000	25.100121	0.000474	20.715739
927.232298	-3.004000	3.673600	-11.036000	25.068515	0.000474	20.713410
928.236199	-3.024800	3.675400	-11.116000	25.112272	0.000477	20.712764
929.237012	-2.988300	3.675800	-10.983000	25.062554	0.000473	20.719754
930.234790	-3.009000	3.674900	-11.057000	25.081000	0.000473	20.716459
931.235490	-3.007300	3.675300	-11.051000	25.091318	0.000472	20.726343
932.233419	-2.990800	3.675600	-10.992000	25.124080	0.000472	20.709918
933.234863	-3.002200	3.673200	-11.027000	25.073474	0.000471	20.722181
934.241490	-3.016100	3.673300	-11.078000	25.039864	0.000474	20.709779
935.236109	-3.002800	3.673600	-11.030000	25.038544	0.000471	20.724102
936.239800	-2.979600	3.674300	-10.947000	25.050255	0.000471	20.714046
937.244683	-2.984000	3.672800	-10.959000	25.094477	0.000472	20.728092
938.236782	-2.980100	3.673400	-10.946000	25.121016	0.000471	20.699730
939.247416	-3.009000	3.672700	-11.050000	25.131131	0.000471	20.728378
940.240153	-2.993800	3.672800	-10.995000	25.151139	0.000469	20.715747
941.238553	-2.994500	3.673300	-10.998000	25.146147	0.000470	20.713580
942.239065	-2.998800	3.672300	-11.012000	25.143061	0.000471	20.721862
943.243834	-2.990700	3.673600	-10.985000	25.086805	0.000471	20.698103
944.239080	-3.012400	3.671300	-11.058000	25.110251	0.000468	20.715476
945.242397	-3.024700	3.671500	-11.104000	25.133639	0.000469	20.697229
946.239038	-2.990900	3.672000	-10.982000	25.135064	0.000467	20.734697
947.242724	-3.004500	3.670100	-11.026000	25.105388	0.000468	20.711069
948.243732	-3.017200	3.671000	-11.076000	25.089297	0.000470	20.679266
949.243697	-2.987800	3.670600	-10.967000	25.042639	0.000467	20.698814
950.245046	-2.980200	3.670700	-10.939000	25.042933	0.000466	20.699582
951.241025	-3.006900	3.670200	-11.035000	25.034430	0.000466	20.690099
952.263301	-3.024800	3.670300	-11.101000	25.045400	0.000466	20.683091
953.244645	-2.969000	3.669600	-10.894000	25.063301	0.000465	20.701062
954.239960	-3.008600	3.667800	-11.035000	25.116325	0.000469	20.685062
955.242989	-3.011600	3.669000	-11.048000	25.137433	0.000466	20.699615
956.243984	-2.999700	3.668500	-11.004000	25.113816	0.000465	20.707676
957.246132	-2.999100	3.668100	-11.001000	25.115535	0.000465	20.697072
958.256376	-3.020100	3.666900	-11.074000	25.139640	0.000464	20.695666
959.273446	-2.987000	3.668400	-10.956000	25.136936	0.000465	20.687735
960.272320	-2.991900	3.668400	-10.974000	25.174371	0.000463	20.691651
961.269083	-2.984200	3.667700	-10.944000	25.205966	0.000463	20.691128
962.278289	-3.011600	3.666700	-11.041000	25.228391	0.000466	20.687089
963.267016	-3.000200	3.666500	-11.000000	25.219067	0.000464	20.697644
964.261952	-3.000900	3.667300	-11.004000	25.169249	0.000462	20.697890
965.249505	-2.967000	3.666200	-10.877000	25.169704	0.000462	20.682224
966.248269	-3.010700	3.666100	-11.037000	25.140071	0.000461	20.692779
967.248553	-3.004500	3.666500	-11.015000	25.138556	0.000463	20.706433
968.245026	-2.995700	3.666200	-10.982000	25.092040	0.000462	20.693401
969.247741	-2.996800	3.664800	-10.982000	25.102750	0.000463	20.687081
970.252377	-2.991800	3.665300	-10.965000	25.089598	0.000461	20.681939
971.248240	-2.971600	3.666100	-10.892000	25.144346	0.000461	20.686639
972.277229	-2.993500	3.664000	-10.968000	25.166919	0.000462	20.675160
973.272506	-3.003300	3.664400	-11.004000	25.162490	0.000461	20.689681
974.270633	-2.985300	3.664400	-10.939000	25.169794	0.000462	20.688005
975.273335	-3.001200	3.663000	-10.992000	25.151920	0.000461	20.674801
976.269903	-2.992900	3.662900	-10.961000	25.136488	0.000460	20.682543
977.275659	-2.974600	3.664600	-10.900000	25.119998	0.000459	20.672153
978.267700	-3.002300	3.663000	-10.996000	25.150276	0.000461	20.669831
979.248815	-3.021800	3.662200	-11.065000	25.134738	0.000459	20.693590
980.276345	-2.988500	3.663600	-10.947000	25.143712	0.000458	20.687899
981.281244	-2.981000	3.663100	-10.918000	25.140227	0.000458	20.696730
982.266541	-3.004200	3.661400	-10.999000	25.115113	0.000456	20.680526
983.277137	-2.994700	3.661300	-10.964000	25.092319	0.000458	20.676135
984.275931	-2.987400	3.661800	-10.939000	25.109641	0.000456	20.685939
985.270813	-3.010900	3.661600	-11.024000	25.089233	0.000455	20.681573
986.275389	-2.998300	3.661800	-10.978000	25.053831	0.000458	20.720007
987.285423	-3.000800	3.660900	-10.984000	25.036794	0.000456	20.685833
988.254642	-2.997600	3.660200	-10.971000	25.044352	0.000457	20.675875
989.252187	-2.989700	3.660200	-10.943000	25.082230	0.000455	20.668852
990.255924	-3.021200	3.659200	-11.054000	25.039783	0.000457	20.673658
991.255288	-3.014100	3.659000	-11.028000	25.080023	0.000455	20.666162
992.255931	-3.041400	3.658000	-11.124000	25.151418	0.000456	20.673823
993.261064	-3.005300	3.659500	-10.997000	25.176793	0.000453	20.684125
994.258550	-3.004300	3.657800	-10.987000	25.178405	0.000455	20.661086
995.257370	-2.991300	3.658500	-10.943000	25.167347	0.000452	20.669425
996.264494	-3.022500	3.657600	-11.054000	25.134701	0.000452	20.685491
997.260153	-3.008400	3.657200	-11.001000	25.124806	0.000452	20.676980
998.255200	-2.979600	3.657100	-10.895000	25.135117	0.000454	20.665044
999.277593	-2.996800	3.656900	-10.958000	25.144269	0.000452	20.666646
1000.276928	-3.026800	3.655800	-11.065000	25.157120	0.000452	20.677176
1001.259635	-2.997600	3.656900	-10.961000	25.180801	0.000453	20.657326
1002.263103	-2.991100	3.656300	-10.935000	25.226368	0.000453	20.671781
1003.261021	-2.988900	3.656800	-10.929000	25.229195	0.000452	20.672722
1004.262040	-2.987500	3.654700	-10.918000	25.211101	0.000451	20.668306
1005.257567	-2.994600	3.655600	-10.946000	25.182088	0.000452	20.668102
1006.256844	-3.028100	3.654500	-11.065000	25.141022	0.000451	20.642994
1007.259877	-2.987900	3.655400	-10.921000	25.183057	0.000449	20.678560
1008.263084	-2.999100	3.654200	-10.958000	25.166201	0.000450	20.686768
1009.286642	-3.001300	3.654700	-10.967000	25.151430	0.000448	20.670989
1010.264949	-2.998700	3.654600	-10.958000	25.128685	0.000448	20.672338
1011.266840	-2.991700	3.654000	-10.931000	25.101811	0.000449	20.670491
1012.264666	-3.011400	3.654300	-11.004000	25.132008	0.000449	20.668562
1013.264268	-3.004100	3.653800	-10.975000	25.184809	0.000448	20.681741
1014.263385	-3.002600	3.654100	-10.971000	25.179719	0.000448	20.688011
1015.260129	-3.005900	3.652700	-10.979000	25.188066	0.000448	20.667466
1016.265157	-3.001800	3.652900	-10.964000	25.183930	0.000446	20.666159
1017.261793	-3.019400	3.653100	-11.029000	25.214434	0.000448	20.656478
1018.263389	-3.009900	3.652400	-10.992000	25.211722	0.000448	20.645694
1019.288416	-2.991000	3.652400	-10.923000	25.242347	0.000447	20.682608
1020.260881	-3.013900	3.651500	-11.004000	25.241801	0.000446	20.653134
1021.265117	-2.999500	3.651400	-10.952000	25.199621	0.000448	20.674326
1022.261666	-2.994600	3.652200	-10.936000	25.203148	0.000447	20.656527
1023.260366	-3.006100	3.650700	-10.973000	25.165038	0.000445	20.679911
1024.259635	-3.007300	3.649700	-10.974000	25.125518	0.000445	20.653510
1025.264836	-3.010400	3.649300	-10.983000	25.105998	0.000443	20.673746
1026.266249	-2.998000	3.650000	-10.942000	25.119370	0.000445	20.657770
1027.260945	-3.015200	3.650000	-11.004000	25.154599	0.000443	20.674645
1028.264172	-3.037900	3.649200	-11.085000	25.186316	0.000445	20.670451
1029.260828	-3.011200	3.649300	-10.987000	25.235287	0.000446	20.661768
1030.261845	-3.026200	3.648100	-11.039000	25.252037	0.000442	20.673370
1031.261394	-3.030800	3.648500	-11.057000	25.228147	0.000440	20.665031
1032.265862	-2.999700	3.647600	-10.940000	25.215199	0.000442	20.662463
1033.263988	-2.979000	3.648900	-10.870000	25.177538	0.000442	20.669699
1034.269147	-2.994100	3.647900	-10.921000	25.182066	0.000441	20.663338
1035.267016	-3.015300	3.647800	-10.999000	25.155169	0.000441	20.664311
1036.266681	-2.998300	3.648000	-10.936000	25.236305	0.000440	20.654729
1037.284751	-3.013200	3.647800	-10.991000	25.237925	0.000440	20.658726
1038.267898	-3.006300	3.646200	-10.961000	25.239538	0.000443	20.664613
1039.289147	-2.996800	3.646200	-10.926000	25.265887	0.000441	20.659299
1040.285170	-2.997500	3.645800	-10.927000	25.234742	0.000440	20.664540
1041.283584	-2.995400	3.646600	-10.923000	25.214881	0.000439	20.695812
1042.283736	-3.008400	3.644600	-10.964000	25.208220	0.000439	20.673476
1043.268353	-2.999200	3.645200	-10.931000	25.203473	0.000440	20.663967
1044.282855	-2.991400	3.644600	-10.900000	25.183718	0.000439	20.668316
1045.269679	-3.019000	3.644500	-11.001000	25.203603	0.000438	20.642758
1046.295449	-2.973100	3.644900	-10.835000	25.195868	0.000437	20.668660
1047.269187	-3.028000	3.644200	-11.033000	25.196616	0.000438	20.649969
1048.270295	-3.026300	3.642200	-11.021000	25.183008	0.000438	20.659068
1049.267846	-2.996900	3.643800	-10.919000	25.212234	0.000435	20.671815
1050.271518	-3.011300	3.643600	-10.971000	25.235058	0.000433	20.667228
1051.272309	-3.025300	3.640600	-11.013000	25.246791	0.000436	20.669525
1052.275408	-3.001200	3.644200	-10.936000	25.241767	0.000437	20.685820
1053.280211	-2.996700	3.642100	-10.913000	25.215393	0.000434	20.673564
1054.272269	-2.970500	3.643100	-10.821000	25.219073	0.000435	20.660188
1055.274074	-2.986600	3.641000	-10.873000	25.274207	0.000435	20.663859
1056.270029	-3.022900	3.641500	-11.007000	25.287951	0.000435	20.664383
1057.271126	-3.011400	3.640900	-10.963000	25.326227	0.000435	20.663933
1058.272629	-3.006400	3.640200	-10.943000	25.265160	0.000432	20.663785
1059.270866	-3.010900	3.640900	-10.961000	25.270803	0.000433	20.661390
1060.282062	-2.998900	3.641400	-10.920000	25.283579	0.000433	20.690815
1061.278370	-2.981200	3.639600	-10.850000	25.283327	0.000432	20.666378
1062.274668	-3.014100	3.639200	-10.968000	25.288431	0.000434	20.664864
1063.272235	-3.009000	3.639400	-10.950000	25.237052	0.000433	20.677292
1064.278804	-3.004000	3.639000	-10.930000	25.283579	0.000431	20.672795
1065.280793	-3.005300	3.639900	-10.938000	25.273294	0.000431	20.674324
1066.275135	-3.002500	3.639300	-10.926000	25.263996	0.000432	20.662142
1067.273324	-3.001500	3.639200	-10.922000	25.277212	0.000429	20.664031
1068.277879	-2.995800	3.638700	-10.899000	25.299415	0.000430	20.670678
1069.276497	-2.994500	3.637800	-10.893000	25.245171	0.000431	20.693031
1070.278481	-3.015600	3.636700	-10.966000	25.242191	0.000430	20.684348
1071.279454	-3.005800	3.636100	-10.928000	25.226955	0.000432	20.669525
1072.276417	-3.008900	3.635900	-10.939000	25.236369	0.000428	20.664277
1073.285293	-3.002300	3.636700	-10.918000	25.234578	0.000429	20.693301
1074.278805	-3.009500	3.635700	-10.940000	25.249169	0.000427	20.661481
1075.276727	-3.029000	3.636400	-11.014000	25.278597	0.000428	20.682967
1076.277413	-3.007100	3.635700	-10.932000	25.300687	0.000427	20.674800
1077.278406	-2.999800	3.635700	-10.904000	25.288205	0.000426	20.687399
1078.278792	-3.001800	3.635400	-10.912000	25.238065	0.000428	20.679731
1079.277582	-2.976500	3.634400	-10.817000	25.211030	0.000428	20.683884
1080.278924	-2.985500	3.634600	-10.850000	25.248951	0.000427	20.694456
1081.278011	-3.018600	3.634800	-10.971000	25.275024	0.000424	20.685544
1082.281921	-2.994600	3.634400	-10.883000	25.312429	0.000425	20.682797
1083.285718	-2.979900	3.633700	-10.828000	25.310093	0.000426	20.685667
1084.278877	-3.012000	3.633900	-10.944000	25.276367	0.000424	20.667925
1085.282441	-2.984200	3.632000	-10.837000	25.255360	0.000425	20.706107
1086.286186	-3.009600	3.631800	-10.929000	25.209591	0.000424	20.691448
1087.292929	-3.005700	3.631400	-10.914000	25.261304	0.000425	20.667500
1088.302344	-3.001900	3.632600	-10.904000	25.284983	0.000424	20.675628
1089.299165	-3.008200	3.632600	-10.927000	25.319799	0.000423	20.682136
1090.298267	-3.023900	3.630300	-10.976000	25.354321	0.000423	20.684556
1091.297408	-3.004400	3.632400	-10.912000	25.351691	0.000422	20.697090
1092.302796	-2.978900	3.631300	-10.816000	25.333046	0.000423	20.689274
1093.318870	-2.999800	3.629700	-10.887000	25.302375	0.000423	20.697834
1094.303188	-3.012100	3.630500	-10.934000	25.279455	0.000422	20.692839
1095.302046	-2.989200	3.631300	-10.853000	25.240184	0.000423	20.675220
1096.284117	-3.014500	3.629000	-10.939000	25.284234	0.000422	20.685783
1097.283867	-2.979800	3.630700	-10.818000	25.329562	0.000421	20.683404
1098.303493	-3.009300	3.629600	-10.921000	25.350284	0.000421	20.693306
1099.285437	-3.006100	3.629300	-10.909000	25.341556	0.000419	20.694026
1100.281590	-3.006200	3.627800	-10.905000	25.302766	0.000420	20.696804
1101.288488	-3.001900	3.628500	-10.891000	25.296816	0.000419	20.681345
1102.297372	-3.000500	3.628800	-10.887000	25.293794	0.000417	20.709133
1103.300240	-2.971400	3.628900	-10.783000	25.310616	0.000418	20.715118
1104.303200	-2.997300	3.629400	-10.877000	25.340881	0.000417	20.702357
1105.310365	-3.016000	3.626400	-10.937000	25.367504	0.000418	20.694001
1106.319784	-3.014200	3.626000	-10.929000	25.357066	0.000417	20.693952
1107.308630	-2.999000	3.627600	-10.877000	25.377315	0.000417	20.714760
1108.311055	-3.010300	3.626000	-10.914000	25.294780	0.000416	20.699217
1109.318432	-2.997900	3.626200	-10.870000	25.292565	0.000417	20.715961
1110.311224	-2.987800	3.626000	-10.833000	25.301685	0.000416	20.697615
1111.310303	-3.012000	3.626400	-10.922000	25.281728	0.000416	20.711244
1112.305563	-3.008900	3.627000	-10.912000	25.268001	0.000415	20.716902
1113.289995	-3.022400	3.624200	-10.953000	25.298876	0.000418	20.712814
1114.287497	-2.981400	3.624200	-10.804000	25.296686	0.000413	20.700657
1115.306546	-2.981700	3.624400	-10.806000	25.282340	0.000414	20.718497
1116.286977	-3.006800	3.624300	-10.896000	25.304665	0.000414	20.710566
1117.293170	-3.012500	3.623400	-10.915000	25.322163	0.000415	20.715806
1118.290488	-3.004500	3.623100	-10.885000	25.318409	0.000414	20.709192
1119.287603	-3.006800	3.623100	-10.893000	25.336956	0.000412	20.700787
1120.288520	-3.005500	3.623100	-10.888000	25.390513	0.000413	20.708096
1121.293233	-2.993700	3.623800	-10.847000	25.344309	0.000413	20.694419
1122.286049	-3.006600	3.622100	-10.889000	25.333895	0.000413	20.718104
1123.288805	-3.012000	3.621700	-10.908000	25.309835	0.000411	20.703428
1124.289518	-3.007400	3.621700	-10.891000	25.358451	0.000412	20.696765
1125.295074	-3.011100	3.621500	-10.904000	25.318556	0.000412	20.682311
1126.290214	-3.028100	3.620800	-10.963000	25.318206	0.000411	20.710885
1127.322588	-2.965500	3.622300	-10.741000	25.351759	0.000411	20.695735
1128.288698	-2.982900	3.620800	-10.800000	25.376265	0.000410	20.718447
1129.292519	-2.983500	3.620800	-10.801000	25.324426	0.000410	20.711440
1130.287756	-2.998400	3.619200	-10.851000	25.303224	0.000409	20.721922
1131.292922	-3.004000	3.618900	-10.871000	25.338869	0.000409	20.712192
1132.292128	-3.002200	3.619900	-10.867000	25.344536	0.000410	20.720728
1133.293112	-2.991600	3.619300	-10.826000	25.333846	0.000408	20.713313
1134.308789	-2.992000	3.619800	-10.829000	25.331436	0.000408	20.732231
1135.312949	-3.008900	3.619200	-10.889000	25.333570	0.000408	20.717777
1136.309248	-2.985500	3.617800	-10.800000	25.324345	0.000407	20.723688
1137.307898	-3.003100	3.617700	-10.863000	25.321747	0.000408	20.708750
1138.321936	-2.990800	3.617100	-10.817000	25.354054	0.000406	20.714163
1139.292294	-2.986900	3.617400	-10.804000	25.367521	0.000408	20.709666
1140.297019	-2.996000	3.617200	-10.836000	25.428687	0.000410	20.717981
1141.307114	-3.018500	3.616000	-10.913000	25.451572	0.000407	20.723892
1142.294722	-3.005200	3.615600	-10.865000	25.436333	0.000403	20.729452
1143.306005	-2.987400	3.616200	-10.802000	25.435168	0.000407	20.712634
1144.298475	-3.012500	3.615500	-10.890000	25.395137	0.000404	20.742614
1145.321560	-3.001500	3.615300	-10.850000	25.347093	0.000404	20.713811
1146.313163	-3.005500	3.615400	-10.865000	25.305764	0.000405	20.728265
1147.314024	-2.994100	3.614900	-10.823000	25.324206	0.000404	20.722126
1148.326444	-2.998400	3.616000	-10.841000	25.340864	0.000405	20.739326
1149.328442	-3.014200	3.613300	-10.890000	25.351221	0.000401	20.730285
1150.312564	-3.005600	3.612600	-10.857000	25.347223	0.000401	20.748083
1151.296071	-2.995900	3.614200	-10.826000	25.331062	0.000403	20.729484
1152.317932	-3.004300	3.613800	-10.856000	25.365615	0.000402	20.713443
1153.314629	-3.007200	3.613900	-10.867000	25.423175	0.000401	20.712919
1154.294485	-3.015900	3.613700	-10.897000	25.413032	0.000400	20.734503
1155.293955	-3.011100	3.613300	-10.879000	25.434907	0.000400	20.746987
1156.299960	-3.020200	3.611700	-10.907000	25.467431	0.000402	20.726066
1157.314696	-2.993100	3.612000	-10.810000	25.456652	0.000400	20.717138
1158.298917	-3.014400	3.611300	-10.885000	25.437236	0.000400	20.747903
1159.298882	-2.982200	3.612100	-10.772000	25.429355	0.000399	20.725764
1160.299060	-3.000500	3.610200	-10.832000	25.439044	0.000400	20.744503
1161.301831	-3.004700	3.610800	-10.848000	25.433311	0.000401	20.731634
1162.297660	-3.013800	3.610100	-10.880000	25.379302	0.000399	20.743309
1163.292888	-2.984900	3.610500	-10.776000	25.386532	0.000401	20.731128
1164.300726	-3.010900	3.610100	-10.869000	25.413252	0.000397	20.734250
1165.326172	-2.989200	3.610400	-10.791000	25.414441	0.000397	20.731177
1166.316461	-3.002800	3.609900	-10.839000	25.395878	0.000398	20.737668
1167.316417	-2.986600	3.608600	-10.777000	25.398386	0.000398	20.744928
1168.322345	-3.009200	3.609100	-10.860000	25.329638	0.000395	20.746073
1169.317757	-3.007200	3.608800	-10.851000	25.312962	0.000395	20.745925
1170.319784	-3.005300	3.608100	-10.842000	25.341639	0.000397	20.732044
1171.325597	-3.000300	3.608500	-10.826000	25.316244	0.000393	20.729779
1172.325507	-3.019500	3.607500	-10.892000	25.324443	0.000394	20.752711
1173.318045	-2.964000	3.607300	-10.691000	25.329540	0.000396	20.746923
1174.333093	-2.987800	3.606800	-10.775000	25.345669	0.000394	20.743677
1175.319129	-2.978400	3.607100	-10.742000	25.395024	0.000393	20.742026
1176.319969	-3.015500	3.605700	-10.872000	25.414115	0.000394	20.734643
1177.325391	-3.029700	3.604600	-10.920000	25.424374	0.000395	20.748264
1178.320745	-2.963500	3.606200	-10.686000	25.448602	0.000393	20.734186
1179.332797	-3.011500	3.604700	-10.855000	25.403866	0.000391	20.744267
1180.322666	-2.996500	3.605200	-10.802000	25.372025	0.000393	20.759711
1181.319677	-2.997500	3.604200	-10.802000	25.341233	0.000392	20.755345
1182.328840	-3.002400	3.603600	-10.818000	25.382690	0.000392	20.766627
1183.324981	-3.001600	3.603900	-10.817000	25.338399	0.000391	20.756767
1184.320685	-3.008400	3.603800	-10.841000	25.370584	0.000392	20.759212
1185.325882	-3.005900	3.603300	-10.831000	25.358404	0.000387	20.744137
1186.321942	-3.008800	3.602000	-10.836000	25.351940	0.000389	20.772734
1187.322541	-2.977900	3.603200	-10.729000	25.383530	0.000391	20.757512
1188.320586	-2.975000	3.604000	-10.720000	25.411487	0.000388	20.756187
1189.334874	-2.976500	3.602500	-10.722000	25.400473	0.000387	20.769783
1190.322382	-3.016800	3.601300	-10.864000	25.403264	0.000390	20.773535
1191.322393	-3.009600	3.601900	-10.838000	25.418539	0.000389	20.750940
1192.331805	-3.004000	3.601000	-10.816000	25.396198	0.000389	20.742257
1193.306709	-2.994100	3.600600	-10.779000	25.385272	0.000390	20.757838
1194.320076	-2.987500	3.601200	-10.757000	25.408280	0.000388	20.762450
1195.310267	-3.001700	3.599600	-10.804000	25.433306	0.000386	20.771459
1196.309797	-3.015800	3.599000	-10.853000	25.398885	0.000387	20.769611
1197.304083	-3.011000	3.600900	-10.842000	25.399186	0.000385	20.793622
1198.308609	-3.007100	3.598500	-10.820000	25.434153	0.000386	20.779896
1199.310542	-3.008000	3.599700	-10.827000	25.435073	0.000387	20.785087
1200.343356	-3.009400	3.599200	-10.830000	25.465040	0.000388	20.758755
1201.313861	-2.994300	3.599000	-10.776000	25.485669	0.000386	20.761927
1202.330995	-3.006700	3.599000	-10.821000	25.474662	0.000384	20.765572
1203.324649	-3.014200	3.597300	-10.842000	25.481574	0.000384	20.768720
1204.339668	-3.010200	3.597800	-10.829000	25.498970	0.000382	20.768646
1205.327285	-2.997700	3.597100	-10.782000	25.473897	0.000384	20.776183
1206.330966	-3.004100	3.596400	-10.803000	25.442537	0.000383	20.768875
1207.330213	-3.007800	3.597000	-10.818000	25.473571	0.000385	20.755468
1208.330469	-2.968400	3.596600	-10.675000	25.484960	0.000385	20.765007
1209.331025	-3.003000	3.596800	-10.800000	25.456003	0.000380	20.771965
1210.314458	-2.999000	3.596200	-10.783000	25.441894	0.000381	20.786721
1211.316528	-2.996200	3.595500	-10.771000	25.424741	0.000381	20.759539
1212.341575	-2.982400	3.595200	-10.722000	25.394821	0.000382	20.784497
1213.334720	-3.003200	3.595200	-10.796000	25.429536	0.000381	20.777156
1214.314330	-3.001100	3.594400	-10.786000	25.462198	0.000382	20.787195
1215.337240	-3.011300	3.593500	-10.820000	25.494004	0.000380	20.767926
1216.332238	-3.010300	3.593700	-10.817000	25.453121	0.000379	20.791831
1217.340848	-3.008500	3.594700	-10.814000	25.410281	0.000378	20.783426
1218.336759	-3.007700	3.592700	-10.805000	25.428347	0.000379	20.775488
1219.318016	-3.000200	3.592400	-10.777000	25.412960	0.000378	20.762882
1220.312886	-3.003300	3.592400	-10.789000	25.438092	0.000379	20.789067
1221.319729	-3.007000	3.593200	-10.803000	25.455636	0.000378	20.778709
1222.318814	-2.994700	3.592200	-10.757000	25.469378	0.000378	20.793457
1223.320405	-3.011800	3.590800	-10.813000	25.474645	0.000379	20.785470
1224.314027	-2.984600	3.590600	-10.715000	25.458046	0.000374	20.778284
1225.317435	-2.992100	3.591500	-10.745000	25.436276	0.000376	20.787244
1226.315595	-2.985500	3.590900	-10.720000	25.409939	0.000376	20.778341
1227.334329	-2.988100	3.591000	-10.730000	25.458193	0.000375	20.786018
1228.337212	-2.997400	3.590500	-10.761000	25.474963	0.000375	20.781996
1229.314541	-2.982300	3.590200	-10.707000	25.491675	0.000373	20.786925
1230.317693	-2.976800	3.589000	-10.683000	25.535725	0.000375	20.789435
1231.319417	-2.969700	3.589700	-10.659000	25.516619	0.000374	20.786369
1232.318923	-3.024600	3.587600	-10.850000	25.550775	0.000373	20.783213
1233.314655	-2.985400	3.587500	-10.710000	25.574553	0.000374	20.799980
1234.318094	-2.982600	3.588700	-10.703000	25.544906	0.000374	20.810984
1235.320153	-2.969200	3.589500	-10.657000	25.551590	0.000372	20.797307
1236.316572	-2.962300	3.588600	-10.630000	25.538580	0.000374	20.792777
1237.316376	-2.971300	3.587000	-10.657000	25.530399	0.000372	20.802105
1238.319870	-2.979600	3.587400	-10.688000	25.527493	0.000372	20.814833
1239.334978	-3.003200	3.586400	-10.769000	25.518994	0.000372	20.785436
1240.342057	-3.017300	3.586100	-10.820000	25.471786	0.000371	20.810573
1241.339088	-3.029500	3.585100	-10.860000	25.491211	0.000371	20.797363
1242.334893	-3.001800	3.585400	-10.762000	25.447274	0.000371	20.798287
1243.317551	-2.988600	3.585900	-10.716000	25.449642	0.000369	20.812993
1244.327402	-3.003000	3.585000	-10.765000	25.426659	0.000369	20.797975
1245.320788	-3.016900	3.583400	-10.809000	25.434980	0.000371	20.784520
1246.336130	-2.988100	3.584400	-10.710000	25.467854	0.000368	20.802832
1247.341960	-2.989400	3.584200	-10.713000	25.513507	0.000369	20.815961
1248.335737	-2.997300	3.584000	-10.742000	25.545435	0.000367	20.813411
1249.339362	-3.000700	3.583800	-10.753000	25.569017	0.000367	20.819076
1250.351860	-3.008900	3.582400	-10.778000	25.570189	0.000367	20.806028
1251.335811	-3.004300	3.583400	-10.764000	25.620860	0.000369	20.802864
1252.348138	-2.989800	3.582400	-10.709000	25.627070	0.000365	20.818585
1253.339682	-3.005000	3.583600	-10.768000	25.589008	0.000366	20.814497
1254.341236	-3.000800	3.581500	-10.747000	25.579631	0.000365	20.804132
1255.341168	-3.015300	3.582000	-10.800000	25.529788	0.000366	20.818086
1256.345905	-2.988000	3.582300	-10.703000	25.524465	0.000364	20.814637
1257.338967	-2.978800	3.581200	-10.666000	25.482198	0.000365	20.803012
1258.320805	-2.988500	3.580900	-10.701000	25.469603	0.000366	20.804589
1259.326730	-3.004200	3.579600	-10.752000	25.483411	0.000364	20.833627
1260.324238	-3.002000	3.580300	-10.747000	25.490452	0.000363	20.823154
1261.342357	-3.014200	3.579600	-10.789000	25.491340	0.000364	20.807451
1262.325782	-3.004400	3.578900	-10.752000	25.486122	0.000366	20.810745
1263.326140	-3.004600	3.579100	-10.753000	25.530830	0.000362	20.821029
1264.322784	-3.004900	3.578400	-10.752000	25.520964	0.000363	20.810173
1265.328238	-3.002000	3.578900	-10.743000	25.558889	0.000363	20.832613
1266.331306	-2.998600	3.578800	-10.730000	25.599835	0.000361	20.835801
1267.331177	-2.996300	3.578300	-10.721000	25.565727	0.000363	20.829048
1268.346153	-2.999600	3.578300	-10.732000	25.544131	0.000360	20.826800
1269.345301	-2.987300	3.577000	-10.685000	25.567192	0.000362	20.811554
1270.341429	-3.001100	3.577200	-10.735000	25.571759	0.000360	20.815192
1271.328272	-2.980100	3.577200	-10.659000	25.572931	0.000360	20.816843
1272.329824	-2.992300	3.577200	-10.703000	25.568682	0.000359	20.829645
1273.336804	-2.993900	3.576800	-10.708000	25.562065	0.000361	20.842913
1274.324562	-2.986500	3.576400	-10.680000	25.570969	0.000359	20.826726
1275.327392	-2.986400	3.576300	-10.680000	25.515753	0.000360	20.835285
1276.327042	-2.995400	3.574000	-10.704000	25.473528	0.000360	20.824176
1277.328240	-2.976200	3.575200	-10.640000	25.503428	0.000357	20.839504
1278.324756	-3.005700	3.575100	-10.745000	25.514011	0.000357	20.815993
1279.326441	-2.986800	3.574700	-10.676000	25.542991	0.000356	20.800051
1280.346464	-3.020700	3.573400	-10.793000	25.550423	0.000357	20.829326
1281.347116	-3.017300	3.574100	-10.783000	25.597261	0.000357	20.822786
1282.354503	-3.002800	3.573800	-10.730000	25.633337	0.000354	20.801172
1283.354552	-3.011000	3.573200	-10.758000	25.633019	0.000356	20.812232
1284.360938	-3.012400	3.572700	-10.761000	25.695604	0.000357	20.808235
1285.359725	-3.005000	3.573500	-10.738000	25.713697	0.000356	20.826407
1286.356190	-3.002000	3.571500	-10.721000	25.695083	0.000356	20.820513
1287.353691	-3.004900	3.572000	-10.732000	25.681792	0.000356	20.788672
1288.351671	-2.995400	3.571100	-10.696000	25.691876	0.000356	20.794533
1289.357566	-3.017900	3.571400	-10.777000	25.671129	0.000352	20.795980
1290.352350	-3.000500	3.571000	-10.712000	25.632474	0.000352	20.810736
1291.350588	-3.029400	3.570700	-10.816000	25.636894	0.000353	20.817072
1292.353191	-3.023600	3.569800	-10.792000	25.613834	0.000354	20.799602
1293.350711	-2.976200	3.570900	-10.627000	25.585312	0.000354	20.802250
1294.360030	-2.985300	3.569300	-10.654000	25.547394	0.000351	20.805896
1295.364594	-3.018300	3.570200	-10.774000	25.543666	0.000351	20.803100
1296.361108	-2.985600	3.569000	-10.654000	25.536633	0.000352	20.820219
1297.355491	-2.999400	3.567700	-10.701000	25.560964	0.000351	20.808618
1298.373062	-3.045400	3.567500	-10.864000	25.528330	0.000351	20.794811
1299.357708	-3.017800	3.568100	-10.767000	25.521695	0.000351	20.803795
1300.354991	-2.989200	3.567300	-10.662000	25.538172	0.000348	20.798531
1301.356421	-2.968600	3.568400	-10.592000	25.565010	0.000350	20.798931
1302.359777	-2.995900	3.568200	-10.689000	25.602658	0.000348	20.814455
1303.362360	-2.977700	3.568300	-10.625000	25.614779	0.000348	20.782058
1304.363556	-3.004800	3.566800	-10.717000	25.603357	0.000348	20.776751
1305.339768	-2.989200	3.568400	-10.666000	25.597807	0.000349	20.792988
1306.338232	-3.005900	3.565500	-10.717000	25.638416	0.000350	20.785883
1307.341752	-3.002900	3.566700	-10.710000	25.642958	0.000349	20.795661
1308.341483	-3.009200	3.564400	-10.725000	25.629389	0.000347	20.784404
1309.337989	-2.984200	3.565200	-10.638000	25.636104	0.000347	20.805373
1310.341788	-2.995500	3.563600	-10.674000	25.605994	0.000347	20.771813
1311.342791	-2.989200	3.564400	-10.653000	25.599979	0.000347	20.783316
1312.338012	-3.019500	3.564000	-10.760000	25.591009	0.000345	20.789006
1313.341370	-2.985100	3.564200	-10.638000	25.573834	0.000345	20.779343
1314.344341	-3.001900	3.563200	-10.695000	25.630219	0.000347	20.792824
1315.360347	-3.016400	3.562400	-10.745000	25.619133	0.000347	20.782638
1316.344038	-2.994600	3.562600	-10.668000	25.582633	0.000347	20.783913
1317.344114	-3.009500	3.561600	-10.718000	25.591758	0.000344	20.776481
1318.340813	-3.011800	3.563100	-10.730000	25.615615	0.000345	20.777208
1319.344406	-2.995900	3.562300	-10.671000	25.589519	0.000343	20.773285
1320.345217	-2.990100	3.562200	-10.651000	25.607670	0.000344	20.761642
1321.347150	-2.982300	3.561700	-10.621000	25.627247	0.000345	20.796003
1322.341125	-2.980800	3.561800	-10.616000	25.641214	0.000344	20.793910
1323.342861	-3.001700	3.561400	-10.690000	25.653366	0.000343	20.765337
1324.346585	-2.997000	3.560500	-10.669000	25.671680	0.000344	20.771877
1325.353901	-3.026000	3.559300	-10.770000	25.645316	0.000343	20.792814
1326.343158	-2.988500	3.559400	-10.637000	25.642305	0.000341	20.768452
1327.340392	-3.010200	3.559900	-10.715000	25.645894	0.000341	20.789601
1328.344148	-3.006000	3.558200	-10.695000	25.611088	0.000344	20.777403
1329.340795	-3.014700	3.559500	-10.730000	25.581638	0.000342	20.777698
1330.361288	-3.010100	3.559500	-10.714000	25.589395	0.000340	20.780272
1331.367493	-2.992700	3.559700	-10.653000	25.595532	0.000341	20.770315
1332.341094	-2.996400	3.557200	-10.658000	25.602394	0.000340	20.768671
1333.344435	-3.011400	3.556600	-10.710000	25.565593	0.000341	20.779128
1334.356885	-2.993700	3.556400	-10.645000	25.557395	0.000339	20.768998
1335.370587	-2.983200	3.557800	-10.613000	25.576452	0.000338	20.772963
1336.346803	-3.002000	3.557400	-10.678000	25.590721	0.000337	20.748412
1337.341778	-2.992000	3.555700	-10.637000	25.553105	0.000336	20.757577
1338.344975	-3.005100	3.555900	-10.685000	25.562352	0.000339	20.767812
1339.347844	-2.994600	3.556200	-10.648000	25.520559	0.000338	20.775627
1340.344852	-3.019100	3.555000	-10.732000	25.568913	0.000336	20.775823
1341.346784	-3.013400	3.554700	-10.711000	25.543743	0.000337	20.754813
1342.366007	-3.014800	3.553600	-10.713000	25.521650	0.000337	20.779093
1343.351056	-3.003400	3.553600	-10.672000	25.564118	0.000338	20.773379
1344.366667	-2.984500	3.555200	-10.609000	25.606169	0.000335	20.766773
1345.348602	-2.995300	3.553300	-10.641000	25.580894	0.000334	20.766994
1346.345942	-2.982400	3.553500	-10.597000	25.567602	0.000334	20.781145
1347.349214	-2.997400	3.551700	-10.645000	25.558663	0.000335	20.757943
1348.346717	-2.969300	3.554000	-10.552000	25.533576	0.000333	20.788225
1349.346781	-2.994000	3.552900	-10.637000	25.552444	0.000334	20.757862
1350.370649	-2.997300	3.552000	-10.646000	25.586332	0.000332	20.778145
1351.379861	-3.006400	3.550600	-10.674000	25.593828	0.000333	20.779035
1352.363974	-2.975600	3.552000	-10.569000	25.592502	0.000334	20.757314
1353.369940	-3.014000	3.550000	-10.699000	25.622123	0.000334	20.765726
1354.373021	-3.019400	3.549600	-10.717000	25.609001	0.000333	20.748754
1355.369117	-3.014200	3.550300	-10.700000	25.567504	0.000332	20.748329
1356.368174	-2.999100	3.550400	-10.648000	25.576775	0.000332	20.758115
1357.372745	-2.999000	3.548900	-10.642000	25.550010	0.000331	20.758262
1358.375500	-3.023900	3.548800	-10.731000	25.592477	0.000331	20.737374
1359.366961	-3.005700	3.549800	-10.669000	25.648952	0.000333	20.767067
1360.380756	-3.000800	3.549500	-10.650000	25.612355	0.000332	20.754968
1361.355002	-2.987500	3.548000	-10.598000	25.616108	0.000331	20.763004
1362.353144	-3.010600	3.547000	-10.677000	25.610361	0.000328	20.762923
1363.376166	-2.999300	3.548100	-10.640000	25.640356	0.000330	20.757012
1364.357510	-2.998200	3.548000	-10.637000	25.637362	0.000330	20.730770
1365.352242	-3.008900	3.547800	-10.674000	25.619828	0.000328	20.766266
1366.356336	-3.013200	3.546200	-10.684000	25.633862	0.000330	20.734841
1367.357389	-3.005700	3.546300	-10.658000	25.635774	0.000328	20.749091
1368.353749	-3.015400	3.545200	-10.690000	25.633561	0.000330	20.724581
1369.354384	-3.005500	3.547000	-10.660000	25.593578	0.000326	20.740376
1370.358865	-3.009000	3.545000	-10.666000	25.570640	0.000326	20.763807
1371.352838	-3.027500	3.545500	-10.733000	25.561767	0.000328	20.727868
1372.376133	-3.000800	3.545200	-10.638000	25.552463	0.000328	20.749820
1373.380229	-3.022400	3.544300	-10.710000	25.516881	0.000326	20.733526
1374.378947	-3.019100	3.544600	-10.701000	25.578049	0.000327	20.749911
1375.359863	-3.002300	3.544600	-10.641000	25.614475	0.000325	20.742398
1376.361242	-2.996100	3.544000	-10.618000	25.568582	0.000325	20.740403
1377.357067	-2.998100	3.543500	-10.623000	25.551879	0.000326	20.742120
1378.356218	-2.997900	3.544400	-10.624000	25.535273	0.000326	20.748203
1379.359644	-3.003500	3.541800	-10.637000	25.548021	0.000325	20.734926
1380.362979	-3.006500	3.542900	-10.650000	25.607729	0.000326	20.730880
1381.360476	-3.015500	3.542800	-10.683000	25.654166	0.000325	20.743854
1382.359996	-3.017800	3.541300	-10.686000	25.611652	0.000324	20.740985
1383.357167	-2.992700	3.541800	-10.599000	25.538546	0.000322	20.736317
1384.358077	-3.000100	3.542800	-10.628000	25.532733	0.000323	20.736169
1385.361373	-2.993100	3.541300	-10.598000	25.502085	0.000324	20.751385
1386.358146	-3.016400	3.540400	-10.678000	25.535755	0.000323	20.727349
1387.363173	-3.019000	3.539900	-10.685000	25.578621	0.000322	20.726777
1388.359356	-3.000500	3.539700	-10.621000	25.614470	0.000322	20.748557
1389.384330	-2.982300	3.539700	-10.555000	25.649682	0.000321	20.728919
1390.381173	-2.991300	3.540300	-10.589000	25.675769	0.000322	20.736629
1391.392344	-2.989900	3.540000	-10.584000	25.604986	0.000320	20.749938
1392.384717	-3.006700	3.538000	-10.637000	25.626973	0.000321	20.742621
1393.361737	-2.994900	3.539000	-10.598000	25.626077	0.000321	20.750257
1394.364451	-3.016600	3.537200	-10.670000	25.619289	0.000319	20.760983
1395.363750	-3.009600	3.536600	-10.642000	25.632760	0.000319	20.730415
1396.366228	-2.988600	3.537300	-10.571000	25.651605	0.000318	20.751239
1397.366818	-3.011900	3.536200	-10.650000	25.666670	0.000320	20.733653
1398.363869	-3.008800	3.536400	-10.639000	25.665009	0.000318	20.740046
1399.364648	-3.026500	3.536600	-10.703000	25.674696	0.000319	20.721799
1400.396554	-3.008500	3.536000	-10.637000	25.687393	0.000318	20.739768
1401.376917	-2.994000	3.536000	-10.585000	25.687865	0.000319	20.716059
1402.371406	-2.985600	3.535400	-10.554000	25.639037	0.000316	20.741935
1403.369491	-2.996700	3.535800	-10.594000	25.642789	0.000318	20.735747
1404.363375	-3.005300	3.535000	-10.623000	25.642065	0.000314	20.731226
1405.367465	-3.010700	3.534200	-10.639000	25.632298	0.000316	20.737538
1406.363724	-3.004400	3.534000	-10.617000	25.680630	0.000316	20.732027
1407.365904	-3.006100	3.533800	-10.622000	25.672873	0.000315	20.728029
1408.365984	-2.993700	3.533700	-10.578000	25.628846	0.000314	20.737864
1409.364529	-2.979600	3.533300	-10.527000	25.601285	0.000314	20.745746
1410.369002	-3.008700	3.534000	-10.632000	25.602229	0.000312	20.727253
1411.390019	-2.995600	3.533000	-10.582000	25.590402	0.000313	20.739557
1412.401701	-3.001900	3.531800	-10.601000	25.558598	0.000313	20.728479
1413.388194	-3.009700	3.531800	-10.629000	25.608276	0.000313	20.748026
1414.369299	-2.998700	3.531600	-10.589000	25.583198	0.000314	20.726631
1415.367563	-3.003500	3.532000	-10.608000	25.569880	0.000312	20.733172
1416.386220	-3.002600	3.531200	-10.603000	25.596620	0.000312	20.711661
1417.388042	-3.001300	3.530600	-10.595000	25.636595	0.000312	20.727629
1418.387235	-3.011300	3.528900	-10.626000	25.687410	0.000311	20.718447
1419.377552	-3.013300	3.528900	-10.633000	25.646338	0.000310	20.712283
1420.379992	-2.982600	3.530100	-10.528000	25.618484	0.000309	20.716077
1421.375651	-3.020900	3.528300	-10.658000	25.580869	0.000311	20.722870
1422.390413	-2.997000	3.529900	-10.578000	25.571573	0.000309	20.744830
1423.374012	-3.015100	3.528800	-10.638000	25.560788	0.000308	20.716452
1424.372160	-2.998100	3.529200	-10.580000	25.580796	0.000309	20.726116
1425.380330	-2.997500	3.527200	-10.572000	25.619436	0.000308	20.708023
1426.376644	-3.003900	3.527300	-10.596000	25.625598	0.000309	20.707573
1427.398650	-3.018300	3.526900	-10.645000	25.624881	0.000309	20.711595
1428.393310	-2.995200	3.528000	-10.566000	25.606518	0.000309	20.701686
1429.399398	-3.001100	3.527100	-10.584000	25.622496	0.000308	20.714416
1430.395382	-3.010700	3.526800	-10.617000	25.597401	0.000309	20.720032
1431.402628	-3.033000	3.524400	-10.689000	25.630155	0.000307	20.711676
1432.376267	-3.002600	3.524500	-10.582000	25.644465	0.000306	20.715617
1433.405397	-3.010800	3.524600	-10.611000	25.650326	0.000305	20.725297
1434.381756	-2.991600	3.524500	-10.543000	25.656414	0.000308	20.705807
1435.374239	-2.980800	3.525300	-10.507000	25.631588	0.000308	20.719280
1436.378039	-3.001400	3.523800	-10.575000	25.648087	0.000305	20.704082
1437.376094	-3.001900	3.523200	-10.576000	25.661663	0.000305	20.718666
1438.396448	-3.011900	3.522500	-10.608000	25.682533	0.000304	20.712600
1439.390721	-3.016200	3.522800	-10.624000	25.672929	0.000304	20.702954
1440.394627	-2.991600	3.522200	-10.536000	25.636537	0.000303	20.727570
1441.396686	-3.016000	3.521300	-10.620000	25.631295	0.000304	20.719460
1442.400413	-2.986700	3.522900	-10.521000	25.670259	0.000302	20.699797
1443.392589	-2.996700	3.522600	-10.555000	25.716392	0.000302	20.739498
1444.407496	-3.010000	3.520200	-10.595000	25.705087	0.000305	20.721504
1445.415329	-2.983800	3.522300	-10.509000	25.713658	0.000302	20.705455
1446.396856	-2.987500	3.520500	-10.517000	25.691023	0.000301	20.686986
1447.398919	-3.009300	3.520800	-10.594000	25.665449	0.000302	20.713934
1448.401340	-2.994200	3.520500	-10.540000	25.633526	0.000303	20.711268
1449.409748	-3.011800	3.519300	-10.598000	25.617768	0.000301	20.716305
1450.398946	-2.997700	3.519300	-10.549000	25.576742	0.000301	20.692645
1451.396892	-2.997400	3.519400	-10.548000	25.594813	0.000301	20.697043
1452.410095	-2.997400	3.520300	-10.552000	25.571899	0.000302	20.706748
1453.398768	-2.996800	3.518300	-10.542000	25.615228	0.000299	20.714703
1454.406845	-3.022400	3.516500	-10.627000	25.608276	0.000299	20.705350
1455.389915	-2.992700	3.518800	-10.530000	25.585891	0.000298	20.681917
1456.384550	-2.997500	3.518500	-10.546000	25.555773	0.000300	20.691500
1457.380639	-3.001700	3.517600	-10.558000	25.560959	0.000298	20.709037
1458.385969	-2.983200	3.517300	-10.491000	25.551565	0.000298	20.714303
1459.388401	-3.020500	3.515800	-10.618000	25.559501	0.000299	20.691451
1460.383294	-2.992500	3.517200	-10.524000	25.582302	0.000299	20.687323
1461.382814	-2.996700	3.515700	-10.534000	25.614627	0.000298	20.695131
1462.387568	-2.993400	3.515500	-10.523000	25.634602	0.000298	20.703340
1463.387846	-3.005000	3.515900	-10.565000	25.566015	0.000298	20.705580
1464.387457	-3.016100	3.515400	-10.602000	25.552225	0.000297	20.709276
1465.386449	-3.000200	3.514100	-10.543000	25.592755	0.000296	20.701615
1466.391086	-3.018800	3.514000	-10.607000	25.572373	0.000296	20.713388
1467.385224	-3.001000	3.513000	-10.541000	25.583484	0.000298	20.698467
1468.419853	-3.006300	3.513900	-10.563000	25.605764	0.000295	20.708042
1469.392420	-2.994300	3.514100	-10.521000	25.634115	0.000297	20.714231
1470.401847	-3.006300	3.513500	-10.562000	25.625145	0.000297	20.696212
1471.402256	-3.015600	3.511100	-10.587000	25.646700	0.000295	20.689885
1472.395052	-2.976000	3.513100	-10.454000	25.685989	0.000296	20.691413
1473.385279	-2.995400	3.512800	-10.522000	25.701567	0.000293	20.703268
1474.387092	-3.011100	3.511800	-10.573000	25.735450	0.000294	20.686092
1475.411866	-3.009900	3.510700	-10.566000	25.750126	0.000292	20.692298
1476.420942	-3.011200	3.510200	-10.569000	25.701829	0.000294	20.691202
1477.406769	-2.994000	3.510100	-10.509000	25.631830	0.000294	20.715730
1478.391847	-3.005500	3.510400	-10.549000	25.571798	0.000292	20.687205
1479.410596	-2.996700	3.509300	-10.515000	25.605042	0.000292	20.692143
1480.390850	-3.001000	3.509800	-10.532000	25.644552	0.000292	20.685357
1481.393231	-2.979500	3.511200	-10.460000	25.655354	0.000292	20.691939
1482.389989	-2.986400	3.508400	-10.477000	25.652424	0.000293	20.673821
1483.387629	-2.967300	3.508600	-10.410000	25.687904	0.000291	20.701398
1484.392200	-2.990700	3.508500	-10.491000	25.693365	0.000292	20.680330
1485.393657	-2.999300	3.508500	-10.521000	25.709766	0.000292	20.704391
1486.409483	-2.971300	3.507000	-10.419000	25.748849	0.000292	20.680583
1487.412059	-3.004600	3.507000	-10.535000	25.721333	0.000291	20.701310
1488.412364	-3.018400	3.506000	-10.582000	25.699715	0.000291	20.718479
1489.407185	-3.023600	3.505500	-10.598000	25.697453	0.000288	20.685384
1490.416026	-3.019200	3.505000	-10.581000	25.689704	0.000289	20.692300
1491.406044	-3.017200	3.506600	-10.579000	25.700789	0.000289	20.661706
1492.412393	-2.997600	3.506700	-10.511000	25.668607	0.000289	20.691973
1493.405506	-3.012900	3.505000	-10.560000	25.681321	0.000288	20.699054
1494.417563	-2.994400	3.506000	-10.498000	25.694295	0.000289	20.694067
1495.418244	-2.984700	3.505900	-10.464000	25.660077	0.000288	20.696683
1496.413394	-3.010400	3.504700	-10.550000	25.651286	0.000288	20.683111
1497.396375	-3.017600	3.503800	-10.572000	25.681052	0.000285	20.676971
1498.400484	-3.029100	3.502100	-10.606000	25.697966	0.000286	20.700600
1499.395681	-3.021700	3.502500	-10.583000	25.714944	0.000286	20.667863
1500.394690	-3.015400	3.502200	-10.560000	25.767530	0.000284	20.689865
1501.421656	-2.991400	3.502300	-10.476000	25.776377	0.000287	20.695433
1502.414592	-3.010100	3.501600	-10.540000	25.796381	0.000286	20.670954
1503.399805	-3.026500	3.500700	-10.594000	25.841020	0.000285	20.704418
1504.415772	-2.981400	3.502400	-10.441000	25.775912	0.000284	20.689276
1505.396543	-3.009700	3.501000	-10.536000	25.754988	0.000284	20.678214
1506.397924	-2.978500	3.502700	-10.431000	25.713178	0.000283	20.704973
1507.403999	-3.004500	3.501200	-10.518000	25.682811	0.000282	20.684428
1508.402266	-2.998700	3.500100	-10.495000	25.644222	0.000284	20.698777
1509.421718	-3.025500	3.501000	-10.591000	25.657416	0.000282	20.691165
1510.401377	-3.004100	3.498600	-10.509000	25.666939	0.000283	20.692669
1511.404969	-3.003000	3.500200	-10.510000	25.687833	0.000282	20.689472
1512.400078	-2.978100	3.498800	-10.418000	25.663480	0.000282	20.701998
1513.399272	-2.983700	3.498300	-10.437000	25.642390	0.000283	20.691246
1514.404868	-2.977900	3.498000	-10.416000	25.630311	0.000282	20.711359
1515.400123	-2.991300	3.497000	-10.459000	25.641683	0.000283	20.693381
1516.408026	-2.996800	3.496300	-10.477000	25.643302	0.000280	20.686472
1517.424143	-2.988400	3.497600	-10.452000	25.696875	0.000281	20.680536
1518.407711	-3.036400	3.497200	-10.618000	25.770370	0.000281	20.692244
1519.425563	-3.000900	3.495400	-10.487000	25.766341	0.000279	20.675868
1520.426945	-3.014800	3.496100	-10.539000	25.791978	0.000282	20.693086
1521.424883	-3.004600	3.495600	-10.501000	25.798807	0.000280	20.689988
1522.422410	-2.984100	3.497300	-10.435000	25.782684	0.000281	20.693708
1523.428852	-2.982600	3.495800	-10.425000	25.819104	0.000279	20.705637
1524.408617	-3.001400	3.494500	-10.487000	25.758292	0.000279	20.680585
1525.418198	-2.991800	3.494200	-10.453000	25.725738	0.000277	20.689138
1526.407621	-3.008000	3.493400	-10.508000	25.653608	0.000276	20.675484
1527.412330	-3.009000	3.492200	-10.507000	25.625729	0.000277	20.706757
1528.411345	-3.007200	3.492300	-10.500000	25.622620	0.000278	20.706953
1529.407623	-2.999900	3.492500	-10.476000	25.601228	0.000277	20.677880
1530.412877	-2.994000	3.492600	-10.455000	25.616409	0.000276	20.695025
1531.413296	-3.002400	3.492800	-10.486000	25.646837	0.000275	20.711361
1532.409917	-3.024200	3.491100	-10.557000	25.625942	0.000277	20.689900
1533.410090	-3.044300	3.491200	-10.628000	25.635531	0.000276	20.682460
1534.430558	-2.998500	3.490900	-10.467000	25.630330	0.000277	20.675814
1535.426286	-3.030200	3.490300	-10.575000	25.649263	0.000277	20.716169
1536.437598	-2.996800	3.489600	-10.457000	25.636541	0.000275	20.717617
1537.413741	-2.987100	3.489900	-10.424000	25.661587	0.000275	20.703415
1538.409355	-2.993300	3.490500	-10.447000	25.653008	0.000276	20.698118
1539.410105	-3.010900	3.488400	-10.502000	25.725040	0.000275	20.691757
1540.409908	-2.994500	3.488400	-10.445000	25.770651	0.000277	20.699165
1541.414126	-3.008800	3.488700	-10.495000	25.808529	0.000274	20.724412
1542.412545	-2.999300	3.487800	-10.460000	25.817204	0.000276	20.692821
1543.412386	-2.982300	3.488100	-10.402000	25.755384	0.000275	20.698529
1544.416996	-3.008000	3.487300	-10.489000	25.771084	0.000272	20.710980
1545.435123	-2.991100	3.488600	-10.434000	25.733865	0.000273	20.719589
1546.438935	-3.004800	3.487700	-10.479000	25.752023	0.000274	20.703214
1547.415348	-3.005500	3.486900	-10.479000	25.752121	0.000272	20.725125
1548.412250	-2.982000	3.488100	-10.401000	25.780713	0.000275	20.725395
1549.417524	-2.983000	3.487200	-10.401000	25.753425	0.000270	20.707467
1550.432791	-2.999100	3.485800	-10.453000	25.733435	0.000272	20.704931
1551.440264	-3.012000	3.484000	-10.493000	25.746645	0.000271	20.705398
1552.444520	-2.974900	3.485500	-10.368000	25.788730	0.000270	20.713533
1553.433228	-2.978400	3.485500	-10.380000	25.740883	0.000271	20.710990
1554.436928	-2.990700	3.484200	-10.419000	25.762296	0.000270	20.702627
1555.433316	-2.983900	3.485700	-10.399000	25.722042	0.000271	20.720516
1556.443623	-3.032700	3.483300	-10.563000	25.760100	0.000269	20.719388
1557.441195	-3.016200	3.483500	-10.506000	25.721660	0.000272	20.698320
1558.441413	-3.003500	3.482900	-10.460000	25.743847	0.000269	20.722978
1559.434369	-3.001600	3.482700	-10.453000	25.757187	0.000270	20.710772
1560.441030	-2.989500	3.481800	-10.408000	25.746501	0.000270	20.721376
1561.440047	-2.989300	3.483200	-10.412000	25.715296	0.000268	20.708524
1562.452404	-3.000700	3.482200	-10.448000	25.714401	0.000268	20.715685
1563.438039	-2.984900	3.482600	-10.395000	25.664458	0.000266	20.724793
1564.435816	-3.018000	3.481000	-10.505000	25.648131	0.000266	20.722145
1565.439675	-3.010700	3.480300	-10.477000	25.656506	0.000266	20.710167
1566.446023	-3.020800	3.479600	-10.509000	25.628523	0.000268	20.731850
1567.449170	-2.991400	3.480900	-10.412000	25.623704	0.000267	20.698558
1568.424736	-2.999700	3.479100	-10.436000	25.697269	0.000268	20.718393
1569.425733	-3.007000	3.480600	-10.465000	25.697913	0.000265	20.730420
1570.432290	-2.993800	3.480200	-10.418000	25.693468	0.000265	20.728801
1571.424522	-2.996400	3.479900	-10.425000	25.671599	0.000264	20.733862
1572.458453	-2.983400	3.479100	-10.378000	25.651900	0.000264	20.754381
1573.442576	-2.987400	3.479300	-10.392000	25.658471	0.000264	20.726840
1574.456140	-3.031300	3.476900	-10.538000	25.648221	0.000263	20.717494
1575.449162	-2.982700	3.477500	-10.372000	25.657925	0.000264	20.731982
1576.445283	-2.996700	3.477300	-10.419000	25.683589	0.000264	20.734051
1577.448397	-3.021600	3.476600	-10.504000	25.640003	0.000265	20.742906
1578.446672	-3.004700	3.476500	-10.445000	25.665576	0.000262	20.721649
1579.428263	-3.007300	3.477300	-10.456000	25.708560	0.000261	20.719776
1580.423939	-3.007700	3.475300	-10.452000	25.761797	0.000263	20.720619
1581.427057	-2.996800	3.476800	-10.418000	25.775161	0.000262	20.728828
1582.431734	-3.021800	3.475100	-10.500000	25.746513	0.000261	20.718543
1583.432515	-3.001100	3.476000	-10.430000	25.701220	0.000262	20.735638
1584.431282	-3.005000	3.475600	-10.444000	25.677868	0.000260	20.732098
1585.430699	-2.991300	3.475300	-10.395000	25.716343	0.000264	20.747036
1586.432607	-2.995700	3.474000	-10.406000	25.706234	0.000261	20.734511
1587.433559	-2.993200	3.473900	-10.397000	25.677861	0.000259	20.735884
1588.429192	-3.005900	3.474000	-10.442000	25.658050	0.000260	20.739695
1589.429423	-2.989500	3.473400	-10.382000	25.643611	0.000258	20.730408
1590.430494	-3.010400	3.473000	-10.454000	25.647468	0.000261	20.742343
1591.453207	-2.995400	3.472700	-10.401000	25.669901	0.000259	20.737847
1592.446672	-3.014700	3.471000	-10.463000	25.700139	0.000260	20.735975
1593.450457	-3.012400	3.470900	-10.455000	25.723466	0.000260	20.736646
1594.453259	-3.012800	3.471000	-10.457000	25.750569	0.000259	20.751542
1595.430481	-3.018000	3.471400	-10.476000	25.743121	0.000259	20.755915
1596.457445	-3.002400	3.471000	-10.420000	25.746981	0.000257	20.748886
1597.433701	-3.011800	3.471000	-10.453000	25.743627	0.000258	20.757846
1598.437525	-3.001500	3.470600	-10.416000	25.755730	0.000258	20.740604
1599.439907	-2.994500	3.469800	-10.390000	25.734137	0.000257	20.736933
1600.434453	-2.991100	3.468600	-10.374000	25.721392	0.000255	20.749736
1601.432603	-3.006600	3.470300	-10.433000	25.698089	0.000257	20.747193
1602.436068	-3.007500	3.469600	-10.434000	25.704527	0.000258	20.749866
1603.437188	-3.004500	3.468500	-10.420000	25.690707	0.000257	20.735985
1604.431693	-3.014400	3.468100	-10.452000	25.670481	0.000255	20.733214
1605.433013	-3.001700	3.469000	-10.412000	25.666558	0.000255	20.743972
1606.437728	-2.999000	3.467700	-10.399000	25.665841	0.000253	20.743726
1607.437947	-3.025800	3.466200	-10.487000	25.644597	0.000253	20.720017
1608.453333	-3.009200	3.468000	-10.435000	25.679752	0.000254	20.729722
1609.455734	-2.995100	3.466700	-10.382000	25.737351	0.000254	20.755335
1610.458746	-3.012800	3.466400	-10.442000	25.794835	0.000254	20.744324
1611.436093	-2.977800	3.466800	-10.322000	25.810517	0.000256	20.737791
1612.442528	-3.014200	3.464600	-10.442000	25.790220	0.000254	20.746326
1613.441581	-3.012900	3.464900	-10.438000	25.785077	0.000254	20.758703
1614.467005	-2.993700	3.465600	-10.373000	25.788511	0.000252	20.743660
1615.458208	-3.010000	3.464900	-10.429000	25.766821	0.000252	20.764074
1616.461249	-2.977400	3.464200	-10.313000	25.743268	0.000252	20.755114
1617.443734	-3.015600	3.464400	-10.446000	25.761027	0.000253	20.772479
1618.438454	-3.014000	3.463000	-10.437000	25.796975	0.000251	20.729877
1619.443741	-3.001300	3.462800	-10.392000	25.778028	0.000251	20.752571
1620.442930	-3.015400	3.463200	-10.442000	25.803371	0.000251	20.745311
1621.440156	-3.007200	3.462200	-10.411000	25.812787	0.000250	20.760934
1622.446782	-3.026800	3.462800	-10.480000	25.860362	0.000249	20.744240
1623.444980	-3.021200	3.462100	-10.459000	25.855960	0.000250	20.745982
1624.446097	-2.967400	3.463100	-10.275000	25.817581	0.000249	20.744886
1625.445146	-3.011900	3.461200	-10.424000	25.826402	0.000251	20.758015
1626.444885	-3.011200	3.460800	-10.420000	25.814113	0.000249	20.758472
1627.445384	-2.980400	3.461600	-10.316000	25.844273	0.000249	20.739456
1628.445148	-2.990400	3.460500	-10.347000	25.831585	0.000248	20.772705
1629.461877	-3.008100	3.459900	-10.406000	25.846811	0.000247	20.763818
1630.470957	-3.006700	3.460300	-10.402000	25.867824	0.000248	20.774021
1631.471199	-3.006800	3.458600	-10.399000	25.861964	0.000247	20.750591
1632.444802	-2.998300	3.458900	-10.370000	25.872446	0.000246	20.786251
1633.468233	-3.001900	3.459700	-10.384000	25.892742	0.000248	20.763492
1634.442879	-2.985400	3.459500	-10.327000	25.849220	0.000249	20.754858
1635.442095	-3.026100	3.458000	-10.463000	25.824473	0.000247	20.774095
1636.446478	-3.021800	3.457300	-10.446000	25.785620	0.000248	20.751662
1637.445062	-3.006700	3.457800	-10.395000	25.753325	0.000245	20.767587
1638.471538	-2.996000	3.458300	-10.360000	25.747482	0.000244	20.795383
1639.463000	-3.014600	3.457300	-10.422000	25.753626	0.000246	20.755087
1640.465810	-2.997100	3.458400	-10.364000	25.767763	0.000245	20.778296
1641.446601	-3.015300	3.457000	-10.424000	25.762245	0.000245	20.765167
1642.449974	-3.005100	3.455300	-10.383000	25.728509	0.000246	20.771584
1643.473413	-3.016700	3.456700	-10.427000	25.706469	0.000244	20.773628
1644.464061	-3.016000	3.454200	-10.417000	25.671031	0.000243	20.756526
1645.472178	-3.007000	3.455500	-10.389000	25.694440	0.000244	20.765339
1646.462499	-3.009000	3.454600	-10.394000	25.693258	0.000245	20.765101
1647.448655	-3.016400	3.453800	-10.417000	25.729446	0.000243	20.756404
1648.447409	-3.015100	3.454600	-10.415000	25.699461	0.000245	20.753787
1649.446269	-3.000500	3.454100	-10.363000	25.712354	0.000245	20.767685
1650.476257	-2.989000	3.454100	-10.323000	25.727501	0.000244	20.777210
1651.472677	-3.006000	3.453400	-10.381000	25.740223	0.000244	20.781927
1652.468264	-3.002200	3.452300	-10.364000	25.766699	0.000244	20.770589
1653.476746	-2.980000	3.453200	-10.289000	25.788056	0.000244	20.788249
1654.469040	-2.994100	3.452300	-10.334000	25.757716	0.000244	20.786696
1655.447491	-3.020400	3.452100	-10.426000	25.758506	0.000243	20.775162
1656.449047	-3.000900	3.451000	-10.354000	25.788384	0.000241	20.796165
1657.466670	-2.994100	3.451600	-10.334000	25.835904	0.000244	20.783208
1658.448090	-2.994200	3.452500	-10.337000	25.848820	0.000240	20.770578
1659.468454	-2.979400	3.449800	-10.277000	25.836232	0.000241	20.788279
1660.470818	-3.013900	3.449500	-10.395000	25.857360	0.000240	20.786744
1661.464476	-3.006200	3.450000	-10.370000	25.861958	0.000240	20.776189
1662.452230	-3.008300	3.449400	-10.376000	25.838448	0.000240	20.780548
1663.447887	-3.000200	3.448300	-10.345000	25.778022	0.000240	20.796188
1664.479009	-3.003100	3.448400	-10.355000	25.792476	0.000238	20.794586
1665.475427	-2.997800	3.448700	-10.338000	25.764937	0.000239	20.798217
1666.470237	-2.993800	3.448600	-10.323000	25.742401	0.000239	20.778426
1667.469513	-3.010800	3.448100	-10.380000	25.779336	0.000239	20.817896
1668.475725	-3.015100	3.447600	-10.393000	25.773989	0.000238	20.795456
1669.475412	-2.987800	3.447700	-10.300000	25.758803	0.000239	20.805332
1670.467911	-3.016600	3.447600	-10.399000	25.769709	0.000235	20.815813
1671.476076	-2.968900	3.447800	-10.236000	25.775107	0.000238	20.795157
1672.472756	-3.018100	3.445900	-10.399000	25.822961	0.000237	20.801026
1673.473901	-3.003700	3.446000	-10.350000	25.865777	0.000236	20.802311
1674.474266	-3.004000	3.445300	-10.349000	25.889695	0.000234	20.806424
1675.482634	-2.982600	3.445400	-10.276000	25.902284	0.000236	20.804373
1676.455106	-2.993400	3.445400	-10.313000	25.885489	0.000235	20.787026
1677.476216	-2.989200	3.446500	-10.301000	25.851148	0.000235	20.792357
1678.458632	-2.998600	3.445500	-10.331000	25.882642	0.000236	20.816883
1679.455217	-2.981000	3.445500	-10.270000	25.852183	0.000234	20.795767
1680.455280	-3.013800	3.442500	-10.373000	25.876622	0.000234	20.816998
1681.451729	-2.993900	3.443000	-10.307000	25.894973	0.000233	20.819313
1682.458792	-3.006400	3.444400	-10.354000	25.896015	0.000234	20.818937
1683.479216	-2.989500	3.443900	-10.295000	25.886274	0.000232	20.801565
1684.474333	-2.991000	3.441600	-10.293000	25.919925	0.000232	20.802654
1685.457041	-2.986900	3.443100	-10.283000	25.870041	0.000231	20.814181
1686.457611	-2.996400	3.441900	-10.312000	25.855262	0.000232	20.815456
1687.460986	-3.008000	3.441700	-10.352000	25.828343	0.000231	20.815442
1688.458681	-2.996000	3.441300	-10.309000	25.808046	0.000229	20.825399
1689.457324	-2.965400	3.442800	-10.209000	25.846671	0.000230	20.821525
1690.460639	-3.011000	3.441300	-10.361000	25.858447	0.000230	20.821026
1691.457829	-3.003800	3.440500	-10.334000	25.848748	0.000229	20.819343
1692.456984	-3.006000	3.441000	-10.343000	25.822714	0.000229	20.841080
1693.478277	-3.003600	3.438800	-10.328000	25.803403	0.000229	20.839226
1694.480275	-2.991800	3.440100	-10.292000	25.857814	0.000229	20.852157
1695.485049	-2.995600	3.439100	-10.301000	25.916309	0.000230	20.829841
1696.465993	-3.013900	3.441000	-10.370000	25.861852	0.000228	20.823024
1697.462045	-3.001000	3.439400	-10.321000	25.865750	0.000229	20.817931
1698.462222	-3.007200	3.440800	-10.345000	25.879854	0.000227	20.819297
1699.475494	-3.010000	3.437100	-10.345000	25.902020	0.000228	20.828289
1700.479767	-2.989400	3.438200	-10.277000	25.923228	0.000228	20.840585
1701.460720	-3.008700	3.437400	-10.341000	25.943246	0.000228	20.827505
1702.464793	-3.005100	3.437000	-10.328000	25.954745	0.000228	20.832893
1703.462445	-3.005100	3.437200	-10.328000	25.980947	0.000227	20.828397
1704.464411	-3.003000	3.435700	-10.316000	25.942711	0.000228	20.844511
1705.467440	-2.983100	3.438100	-10.255000	25.900080	0.000226	20.841511
1706.481230	-2.993600	3.435100	-10.283000	25.883846	0.000227	20.838954
1707.466402	-2.987100	3.435900	-10.263000	25.867131	0.000227	20.834016
1708.489221	-3.008800	3.435500	-10.337000	25.880070	0.000226	20.854127
1709.484681	-3.000300	3.435400	-10.306000	25.911833	0.000228	20.860431
1710.481853	-2.981300	3.435200	-10.240000	25.945864	0.000225	20.848627
1711.491891	-3.004200	3.434400	-10.317000	25.900922	0.000226	20.834297
1712.499624	-2.987100	3.434500	-10.259000	25.903844	0.000227	20.865207
1713.483465	-3.009100	3.432100	-10.327000	25.862473	0.000226	20.847829
1714.495096	-3.008000	3.433400	-10.327000	25.807818	0.000226	20.852195
1715.496984	-3.011100	3.432900	-10.336000	25.780188	0.000225	20.842459
1716.483635	-3.007500	3.432900	-10.324000	25.795978	0.000226	20.857845
1717.484248	-2.993400	3.431400	-10.270000	25.772174	0.000224	20.855271
1718.491651	-3.004800	3.432000	-10.312000	25.776863	0.000226	20.845283
1719.501637	-3.033200	3.431100	-10.406000	25.756110	0.000222	20.831550
1720.490461	-3.016000	3.431300	-10.347000	25.774838	0.000225	20.857473
1721.499190	-3.007600	3.429800	-10.313000	25.781383	0.000225	20.860729
1722.482965	-2.997000	3.430600	-10.280000	25.849225	0.000226	20.848745
1723.486920	-2.980800	3.430300	-10.224000	25.899495	0.000225	20.835708
1724.488352	-3.006000	3.430400	-10.311000	25.925342	0.000224	20.856932
1725.470049	-2.992800	3.430800	-10.265000	25.949576	0.000226	20.838606
1726.472484	-3.000100	3.428700	-10.286000	25.943035	0.000225	20.865698
1727.469398	-3.022900	3.429100	-10.364000	25.934159	0.000223	20.838290
1728.469451	-2.997600	3.428500	-10.276000	25.955610	0.000224	20.832814
1729.470029	-2.999900	3.428400	-10.283000	25.998194	0.000223	20.854733
1730.468204	-2.990600	3.428300	-10.252000	25.976111	0.000223	20.844875
1731.471449	-3.008500	3.427900	-10.312000	25.977691	0.000223	20.853100
1732.471545	-3.016600	3.427200	-10.338000	25.948325	0.000222	20.834978
1733.496274	-2.995400	3.426700	-10.263000	25.956831	0.000219	20.871497
1734.489690	-2.987000	3.427500	-10.237000	25.928107	0.000220	20.854021
1735.497415	-2.998800	3.427300	-10.277000	25.941413	0.000219	20.834198
1736.501150	-2.982300	3.427600	-10.221000	25.917937	0.000220	20.850916
1737.479598	-2.979800	3.426000	-10.208000	25.943532	0.000219	20.849603
1738.471835	-2.995400	3.427200	-10.265000	25.967057	0.000218	20.842417
1739.490092	-2.996800	3.426700	-10.268000	25.935404	0.000219	20.840015
1740.476345	-2.994100	3.424100	-10.251000	25.906330	0.000217	20.850161
1741.488896	-3.022900	3.424400	-10.350000	25.912637	0.000217	20.842747
1742.511537	-2.987200	3.425100	-10.231000	25.930670	0.000216	20.831940
1743.504169	-3.016800	3.424300	-10.329000	25.933911	0.000216	20.826662
1744.479264	-3.033700	3.421700	-10.379000	25.937809	0.000214	20.832948
1745.496059	-3.001800	3.424700	-10.279000	25.886835	0.000216	20.843379
1746.496426	-2.992900	3.423700	-10.246000	25.886283	0.000215	20.858945
1747.478468	-3.004100	3.422900	-10.282000	25.946469	0.000215	20.825053
1748.494497	-3.009700	3.421500	-10.296000	25.970158	0.000215	20.833679
1749.506998	-3.019200	3.422000	-10.329000	25.924028	0.000214	20.836173
1750.511369	-2.979900	3.422300	-10.197000	25.916494	0.000216	20.830027
1751.477701	-3.036100	3.420700	-10.385000	25.935170	0.000216	20.836935
1752.491607	-2.998500	3.422200	-10.261000	25.931950	0.000215	20.835597
1753.481162	-2.998600	3.421600	-10.259000	25.919924	0.000217	20.842955
1754.476635	-2.997200	3.420700	-10.252000	25.921896	0.000216	20.828816
1755.480744	-3.001600	3.419600	-10.263000	25.944869	0.000218	20.835299
1756.475872	-2.999200	3.420700	-10.259000	25.956532	0.000218	20.836585
1757.497636	-3.007200	3.419900	-10.282000	25.974201	0.000218	20.813085
1758.477217	-3.026000	3.417700	-10.341000	25.953022	0.000215	20.818361
1759.501746	-2.986700	3.419000	-10.211000	25.887313	0.000216	20.833902
1760.496855	-3.005000	3.418400	-10.271000	25.911046	0.000217	20.820760
1761.495698	-2.979800	3.419200	-10.188000	25.945234	0.000215	20.835666
1762.498144	-3.013100	3.418800	-10.301000	25.988819	0.000216	20.818288
1763.495740	-3.003600	3.417900	-10.265000	25.996301	0.000214	20.846667
1764.497577	-3.002100	3.417800	-10.260000	25.978965	0.000215	20.837311
1765.481104	-3.009400	3.417600	-10.284000	25.971302	0.000214	20.840044
1766.491072	-2.995500	3.416600	-10.233000	26.007800	0.000212	20.828349
1767.481905	-2.993900	3.418000	-10.232000	26.031408	0.000214	20.827412
1768.482499	-2.985500	3.415900	-10.198000	26.023316	0.000213	20.840144
1769.485898	-2.996700	3.416200	-10.236000	26.043018	0.000213	20.808732
1770.478848	-2.980300	3.415000	-10.177000	26.069415	0.000212	20.811546
1771.480275	-2.986700	3.415400	-10.200000	26.048770	0.000212	20.836322
1772.486190	-2.975400	3.416500	-10.165000	26.039080	0.000214	20.818052
1773.480271	-3.001900	3.415500	-10.252000	26.060646	0.000212	20.832607
1774.483025	-2.985900	3.414500	-10.195000	26.075954	0.000211	20.819065
1775.485012	-2.995400	3.414500	-10.227000	26.025225	0.000210	20.840166
1776.496854	-3.002200	3.415200	-10.252000	25.998263	0.000208	20.823509
1777.510818	-2.988900	3.413600	-10.201000	25.993652	0.000208	20.825989
1778.497513	-3.006000	3.412300	-10.256000	25.929110	0.000208	20.813304
1779.502739	-2.982800	3.414300	-10.183000	25.932725	0.000209	20.815988
1780.501797	-3.004600	3.412000	-10.251000	25.973926	0.000208	20.823715
1781.505956	-3.005500	3.412700	-10.256000	25.965817	0.000207	20.835007
1782.503039	-3.011900	3.412800	-10.278000	25.936769	0.000205	20.822420
1783.500730	-3.004900	3.410500	-10.247000	25.984080	0.000205	20.820640
1784.506968	-3.012100	3.411800	-10.275000	25.993611	0.000205	20.836379
1785.505101	-3.003800	3.410500	-10.243000	26.022515	0.000207	20.837443
1786.512261	-3.006400	3.410600	-10.253000	26.052638	0.000205	20.819820
1787.482464	-2.993100	3.411400	-10.209000	26.015570	0.000205	20.825724
1788.512738	-2.987800	3.410600	-10.189000	25.994375	0.000203	20.842836
1789.518874	-2.991100	3.409800	-10.198000	25.982244	0.000204	20.813106
1790.483675	-3.007000	3.409900	-10.252000	26.026373	0.000202	20.821880
1791.483769	-3.015000	3.409700	-10.279000	26.084633	0.000201	20.814983
1792.481906	-2.985600	3.408800	-10.176000	26.101688	0.000204	20.818843
1793.501000	-2.992500	3.409100	-10.201000	26.100591	0.000203	20.831017
1794.504783	-2.997200	3.407600	-10.212000	26.050587	0.000203	20.806853
1795.510004	-3.004400	3.407300	-10.236000	26.051775	0.000201	20.819901
1796.509579	-2.995900	3.407700	-10.208000	26.004723	0.000200	20.813404
1797.507118	-3.003600	3.408200	-10.236000	25.970981	0.000200	20.832610
1798.509349	-2.998600	3.407200	-10.216000	26.002007	0.000201	20.823478
1799.493577	-3.000200	3.407000	-10.220000	25.963577	0.000200	20.827542
1800.488289	-3.008300	3.406200	-10.246000	25.955547	0.000199	20.833699
1801.484577	-2.996700	3.406700	-10.208000	25.973475	0.000199	20.809985
1802.512987	-2.969100	3.407300	-10.115000	25.962270	0.000198	20.822436
1803.504158	-2.983500	3.406000	-10.161000	25.970913	0.000197	20.808359
1804.507148	-2.981500	3.405400	-10.152000	25.959181	0.000198	20.817910
1805.502564	-2.991000	3.404700	-10.183000	25.952034	0.000197	20.821635
1806.504443	-2.979500	3.405300	-10.146000	25.942012	0.000198	20.799713
1807.487097	-3.010300	3.404100	-10.247000	25.994749	0.000197	20.785365
1808.485334	-2.996600	3.405000	-10.203000	26.062179	0.000198	20.814233
1809.484790	-2.969700	3.404700	-10.109000	26.080178	0.000197	20.798179
1810.487776	-2.992900	3.403600	-10.185000	26.112219	0.000196	20.817096
1811.485438	-3.007000	3.402700	-10.231000	26.051919	0.000196	20.812934
1812.484710	-3.003200	3.402000	-10.216000	26.040703	0.000196	20.812095
1813.486926	-2.994400	3.402100	-10.186000	26.063428	0.000195	20.822600
1814.488214	-2.998000	3.402400	-10.200000	26.079945	0.000194	20.817385
1815.485247	-3.004800	3.401900	-10.221000	26.084560	0.000194	20.801159
1816.486587	-3.035500	3.402000	-10.325000	26.097472	0.000194	20.814607
1817.489812	-3.019300	3.400600	-10.266000	26.099660	0.000193	20.795469
1818.486258	-3.022400	3.400900	-10.278000	26.128446	0.000195	20.799262
1819.485438	-3.007300	3.401000	-10.228000	26.121955	0.000194	20.797482
1820.486521	-2.995900	3.400900	-10.188000	26.153945	0.000194	20.805444
1821.489198	-2.999500	3.401100	-10.200000	26.133654	0.000194	20.796909
1822.490211	-3.006900	3.399800	-10.222000	26.096529	0.000191	20.808917
1823.485607	-2.996200	3.400400	-10.187000	26.075402	0.000191	20.809027
1824.489219	-3.004100	3.398900	-10.209000	26.041725	0.000189	20.797950
1825.486661	-3.004200	3.399100	-10.211000	26.086735	0.000191	20.794809
1826.489844	-2.971000	3.399800	-10.099000	26.140615	0.000191	20.820025
1827.490061	-2.992600	3.399800	-10.172000	26.163768	0.000189	20.802512
1828.491830	-2.998800	3.397900	-10.189000	26.160716	0.000190	20.780954
1829.491073	-2.977400	3.397900	-10.116000	26.094125	0.000189	20.802709
1830.487004	-3.015800	3.397100	-10.243000	26.086826	0.000190	20.795850
1831.492301	-2.969800	3.398500	-10.092000	26.108883	0.000188	20.786718
1832.508235	-2.997600	3.396300	-10.180000	26.085055	0.000189	20.797389
1833.505720	-3.025000	3.395000	-10.269000	26.105475	0.000190	20.784716
1834.516627	-2.990000	3.397200	-10.157000	26.098942	0.000190	20.796170
1835.507616	-2.979800	3.396500	-10.119000	26.092807	0.000191	20.780522
1836.506075	-3.002000	3.394900	-10.190000	26.048944	0.000186	20.760632
1837.518631	-3.018900	3.393900	-10.245000	26.066080	0.000190	20.807247
1838.505949	-3.024100	3.394800	-10.265000	26.070303	0.000188	20.799636
1839.508641	-2.986400	3.395300	-10.139000	26.093671	0.000188	20.790874
1840.508033	-2.999200	3.394300	-10.180000	26.112529	0.000186	20.793226
1841.513679	-2.997100	3.394800	-10.174000	26.128028	0.000186	20.792678
1842.511526	-3.020600	3.393000	-10.247000	26.170815	0.000185	20.785412
1843.511337	-2.989800	3.393600	-10.145000	26.152296	0.000184	20.775338
1844.524248	-3.008400	3.392300	-10.204000	26.080642	0.000185	20.783472
1845.509900	-3.003200	3.392300	-10.188000	26.070732	0.000185	20.772093
1846.509629	-2.997900	3.392200	-10.168000	26.099096	0.000187	20.767874
1847.513043	-3.002500	3.391800	-10.183000	26.133617	0.000184	20.778854
1848.508037	-3.015500	3.391200	-10.225000	26.082205	0.000185	20.776982
1849.514486	-3.001700	3.391600	-10.179000	26.057476	0.000184	20.759247
1850.491737	-3.033100	3.390800	-10.283000	26.024448	0.000182	20.796713
1851.491493	-3.017500	3.390300	-10.230000	26.031919	0.000185	20.788572
1852.494457	-3.018300	3.391000	-10.234000	26.034524	0.000181	20.782654
1853.498182	-2.994400	3.389800	-10.150000	26.072755	0.000184	20.787402
1854.509949	-3.000200	3.389400	-10.168000	26.049037	0.000183	20.785856
1855.495027	-3.026400	3.390000	-10.258000	26.046206	0.000182	20.786330
1856.499318	-2.980700	3.389600	-10.103000	26.044275	0.000183	20.781072
1857.498898	-3.017700	3.388600	-10.225000	26.033250	0.000183	20.787064
1858.499496	-3.026700	3.387800	-10.253000	26.066088	0.000181	20.787341
1859.494096	-3.021100	3.389200	-10.238000	26.084052	0.000181	20.769354
1860.496871	-3.015900	3.386800	-10.214000	26.069171	0.000178	20.759618
1861.513692	-3.011900	3.387300	-10.201000	26.098509	0.000179	20.753534
1862.494203	-2.994500	3.387100	-10.142000	26.130671	0.000180	20.762617
1863.496258	-2.990500	3.386400	-10.126000	26.168054	0.000181	20.771731
1864.495675	-2.999500	3.386100	-10.155000	26.173496	0.000180	20.780045
1865.500831	-2.972800	3.387600	-10.070000	26.173643	0.000180	20.771183
1866.500946	-2.994000	3.385700	-10.136000	26.147371	0.000179	20.779872
1867.498717	-2.984700	3.385600	-10.104000	26.127185	0.000181	20.761011
1868.495671	-3.017300	3.384400	-10.210000	26.116387	0.000178	20.755377
1869.497447	-2.999000	3.384500	-10.150000	26.156148	0.000179	20.757396
1870.494380	-3.011200	3.383400	-10.187000	26.159727	0.000176	20.756725
1871.495321	-2.986200	3.385300	-10.108000	26.100748	0.000176	20.774750
1872.497604	-2.994000	3.384100	-10.132000	26.121934	0.000177	20.761898
1873.496471	-2.990900	3.385200	-10.124000	26.102219	0.000178	20.752046
1874.523307	-3.010400	3.384100	-10.186000	26.104131	0.000176	20.759657
1875.496051	-2.962900	3.383900	-10.025000	26.066459	0.000176	20.754048
1876.496847	-2.983100	3.382600	-10.089000	26.060201	0.000175	20.775736
1877.497024	-2.978100	3.384500	-10.079000	26.040185	0.000177	20.748986
1878.499934	-2.997700	3.380900	-10.134000	26.046173	0.000174	20.755002
1879.496437	-2.989200	3.381200	-10.106000	26.084852	0.000175	20.745501
1880.503001	-2.995600	3.382100	-10.130000	26.104573	0.000175	20.751093
1881.497768	-3.006700	3.382300	-10.169000	26.117045	0.000174	20.753667
1882.500686	-2.990900	3.381300	-10.112000	26.085777	0.000174	20.762079
1883.497825	-3.002400	3.381900	-10.152000	26.138930	0.000175	20.763329
1884.516978	-2.996000	3.380300	-10.126000	26.156739	0.000173	20.726220
1885.521246	-3.020500	3.379500	-10.206000	26.141320	0.000172	20.745342
1886.529269	-2.997400	3.380600	-10.132000	26.112965	0.000172	20.747196
1887.531984	-3.038800	3.379100	-10.268000	26.107602	0.000172	20.752240
1888.521374	-2.989700	3.380100	-10.104000	26.115998	0.000174	20.736493
1889.526561	-2.995900	3.379300	-10.124000	26.123297	0.000170	20.755682
1890.522208	-3.000000	3.378400	-10.134000	26.147922	0.000171	20.748656
1891.530394	-2.998000	3.378900	-10.129000	26.131479	0.000172	20.734505
1892.525756	-3.011700	3.377800	-10.172000	26.115914	0.000170	20.736408
1893.521693	-2.994200	3.378400	-10.115000	26.086876	0.000169	20.750855
1894.518507	-2.984000	3.378100	-10.079000	26.074166	0.000170	20.731919
1895.528781	-3.020500	3.376500	-10.197000	26.098093	0.000169	20.732726
1896.537714	-3.021800	3.375200	-10.198000	26.103351	0.000169	20.737061
1897.520830	-3.003200	3.376500	-10.139000	26.135875	0.000169	20.732283
1898.506741	-2.971900	3.376600	-10.033000	26.133093	0.000169	20.747980
1899.507700	-3.002700	3.375200	-10.134000	26.148787	0.000169	20.736723
1900.532044	-2.971100	3.377400	-10.034000	26.162534	0.000167	20.731570
1901.526159	-3.001300	3.375500	-10.130000	26.206784	0.000171	20.749957
1902.520995	-3.017600	3.375100	-10.184000	26.207563	0.000167	20.736989
1903.510725	-3.002300	3.375100	-10.132000	26.205896	0.000165	20.730572
1904.507145	-3.000100	3.375200	-10.125000	26.183106	0.000165	20.733750
1905.504668	-3.005700	3.374000	-10.140000	26.117191	0.000167	20.742433
1906.507598	-3.011400	3.373500	-10.158000	26.113324	0.000164	20.733332
1907.505088	-3.014500	3.372900	-10.166000	26.107490	0.000165	20.729366
1908.505573	-3.030800	3.373000	-10.222000	26.114152	0.000163	20.736535
1909.508733	-3.008800	3.372700	-10.147000	26.149721	0.000163	20.748094
1910.504869	-2.994500	3.372500	-10.097000	26.172144	0.000164	20.739331
1911.510910	-2.983600	3.371800	-10.059000	26.212087	0.000164	20.715930
1912.509546	-3.020500	3.370600	-10.180000	26.192545	0.000164	20.742762
1913.507827	-3.009400	3.371200	-10.145000	26.173126	0.000162	20.737946
1914.508880	-3.024700	3.371200	-10.196000	26.178421	0.000164	20.744215
1915.505820	-2.997900	3.372100	-10.108000	26.213069	0.000165	20.734935
1916.508407	-3.016200	3.370900	-10.167000	26.246576	0.000164	20.715500
1917.508556	-2.995400	3.370100	-10.094000	26.279708	0.000162	20.732676
1918.511233	-3.035800	3.369400	-10.228000	26.249609	0.000162	20.720446
1919.504822	-3.021500	3.368600	-10.177000	26.312889	0.000162	20.722398
1920.511481	-3.014400	3.369700	-10.156000	26.240731	0.000163	20.724801
1921.511764	-3.003600	3.368100	-10.116000	26.226313	0.000162	20.729753
1922.506346	-2.996400	3.369000	-10.094000	26.204755	0.000161	20.705243
1923.519089	-3.005300	3.368400	-10.122000	26.174661	0.000162	20.727160
1924.514112	-2.995700	3.367600	-10.087000	26.158121	0.000160	20.711962
1925.509086	-3.012100	3.366500	-10.140000	26.194210	0.000162	20.695593
1926.513966	-2.992500	3.368000	-10.078000	26.189522	0.000160	20.688512
1927.507456	-3.009400	3.365900	-10.129000	26.151902	0.000161	20.703815
1928.510582	-2.993400	3.367200	-10.079000	26.173234	0.000158	20.722881
1929.515172	-2.973900	3.367100	-10.013000	26.151088	0.000160	20.686400
1930.510056	-3.000000	3.366100	-10.097000	26.215935	0.000158	20.701304
1931.509172	-3.027000	3.364200	-10.183000	26.256586	0.000158	20.712284
1932.517503	-2.980400	3.365500	-10.030000	26.258260	0.000158	20.678401
1933.514409	-3.004900	3.364000	-10.107000	26.193967	0.000159	20.718110
1934.511050	-2.987300	3.364300	-10.049000	26.176809	0.000159	20.716990
1935.513484	-2.976300	3.365600	-10.016000	26.232316	0.000156	20.700695
1936.512297	-2.996400	3.364400	-10.080000	26.217646	0.000158	20.707291
1937.515824	-2.988800	3.363700	-10.053000	26.262299	0.000158	20.711861
1938.517622	-2.977800	3.364200	-10.017000	26.248616	0.000158	20.698584
1939.517341	-3.019200	3.362700	-10.152000	26.270450	0.000157	20.702981
1940.514811	-3.001400	3.363800	-10.095000	26.280316	0.000157	20.704361
1941.518024	-3.012400	3.363100	-10.130000	26.243758	0.000156	20.714565
1942.516201	-3.017500	3.361400	-10.143000	26.278925	0.000156	20.699170
1943.518160	-3.008400	3.362500	-10.115000	26.271829	0.000154	20.696307
1944.523204	-3.011400	3.361900	-10.123000	26.286456	0.000156	20.691565
1945.518345	-3.014100	3.361000	-10.129000	26.330487	0.000154	20.703100
1946.519305	-3.006300	3.361000	-10.103000	26.339856	0.000155	20.694497
1947.526747	-2.991100	3.361400	-10.053000	26.317976	0.000154	20.694792
1948.520091	-3.022800	3.360200	-10.156000	26.374279	0.000156	20.689737
1949.517223	-3.005600	3.360000	-10.098000	26.418876	0.000154	20.694258
1950.526345	-3.008000	3.359500	-10.105000	26.431607	0.000154	20.705157
1951.521547	-2.984400	3.360100	-10.026000	26.444424	0.000154	20.682002
1952.518416	-2.974600	3.360200	-9.993700	26.401998	0.000153	20.694363
1953.522326	-3.008100	3.358300	-10.102000	26.379727	0.000152	20.691894
1954.519940	-3.024500	3.358800	-10.158000	26.347303	0.000151	20.676849
1955.522757	-2.967800	3.359700	-9.969600	26.343553	0.000152	20.686358
1956.530330	-3.024500	3.357000	-10.152000	26.339265	0.000153	20.698644
1957.523463	-3.011000	3.358100	-10.109000	26.348449	0.000150	20.683217
1958.522285	-2.998200	3.357500	-10.066000	26.359380	0.000150	20.688040
1959.526649	-3.024500	3.356300	-10.150000	26.300283	0.000149	20.708781
1960.527910	-3.013500	3.356000	-10.112000	26.282655	0.000152	20.703393
1961.525416	-3.007600	3.356100	-10.093000	26.243402	0.000152	20.687179
1962.530973	-2.999500	3.356800	-10.068000	26.247593	0.000150	20.668155
1963.526422	-3.018000	3.354700	-10.124000	26.259916	0.000149	20.695714
1964.525803	-3.005500	3.355900	-10.085000	26.307943	0.000151	20.680441
1965.533312	-3.004200	3.354400	-10.076000	26.304022	0.000150	20.696891
1966.526335	-2.991900	3.354800	-10.036000	26.312864	0.000150	20.687284
1967.530030	-3.002300	3.355400	-10.073000	26.347483	0.000150	20.687463
1968.533667	-3.006700	3.353300	-10.081000	26.369252	0.000150	20.690849
1969.532153	-3.035300	3.352300	-10.175000	26.404991	0.000150	20.691207
1970.528401	-3.012900	3.354800	-10.108000	26.444391	0.000149	20.677701
1971.531725	-3.024200	3.353200	-10.139000	26.436452	0.000148	20.684895
1972.529704	-2.992200	3.353900	-10.035000	26.343237	0.000148	20.695050
1973.533519	-2.981600	3.353300	-9.997500	26.311351	0.000149	20.673433
1974.533358	-3.014900	3.352200	-10.105000	26.321744	0.000145	20.682457
1975.528725	-3.018600	3.351500	-10.116000	26.345107	0.000147	20.680332
1976.534382	-3.014100	3.351800	-10.102000	26.328440	0.000146	20.694403
1977.534233	-2.992300	3.351600	-10.028000	26.321475	0.000147	20.671280
1978.527851	-3.004500	3.350100	-10.064000	26.315544	0.000143	20.678122
1979.531603	-2.975200	3.350500	-9.967600	26.290985	0.000145	20.689004
1980.530503	-2.979000	3.351500	-9.982600	26.270348	0.000146	20.698611
1981.527876	-3.003200	3.349900	-10.059000	26.296133	0.000144	20.658138
1982.532980	-2.981200	3.351600	-9.990900	26.291261	0.000143	20.695446
1983.531920	-2.998200	3.350100	-10.044000	26.310857	0.000144	20.682895
1984.529369	-2.993400	3.349300	-10.025000	26.355985	0.000142	20.693162
1985.534354	-2.995900	3.348000	-10.030000	26.381852	0.000143	20.676011
1986.537792	-3.020000	3.348700	-10.112000	26.414264	0.000143	20.694838
1987.536134	-2.996800	3.348200	-10.033000	26.428392	0.000143	20.682010
1988.533372	-3.006600	3.347900	-10.065000	26.429986	0.000143	20.696889
1989.531219	-2.984700	3.348900	-9.994100	26.443219	0.000143	20.697862
1990.532465	-2.998800	3.347000	-10.036000	26.382914	0.000142	20.676604
1991.536454	-2.991700	3.347400	-10.013000	26.357861	0.000143	20.695522
1992.531441	-3.004200	3.346200	-10.052000	26.353713	0.000140	20.715537
1993.529274	-3.012600	3.346500	-10.081000	26.399304	0.000141	20.677429
1994.532103	-2.997900	3.346500	-10.031000	26.438393	0.000139	20.683527
1995.530846	-3.005900	3.345000	-10.054000	26.434496	0.000142	20.672971
1996.533859	-2.973100	3.345500	-9.944900	26.389997	0.000140	20.685620
1997.532812	-3.020400	3.343700	-10.098000	26.407030	0.000140	20.690411
1998.533327	-2.997400	3.344500	-10.023000	26.446217	0.000139	20.688546
1999.534884	-3.002300	3.343300	-10.037000	26.424443	0.000138	20.705069
2000.532341	-2.967300	3.344600	-9.922500	26.463629	0.000139	20.680442
2001.537154	-3.016700	3.342800	-10.083000	26.456773	0.000139	20.701054
2002.531724	-3.003100	3.343400	-10.039000	26.459230	0.000140	20.699730
2003.533230	-3.001400	3.342500	-10.031000	26.443295	0.000140	20.693196
2004.538139	-3.001400	3.344100	-10.036000	26.377298	0.000140	20.673803
2005.533835	-2.988900	3.343900	-9.993600	26.321179	0.000139	20.697538
2006.536453	-3.028400	3.341500	-10.118000	26.315542	0.000138	20.701830
2007.538135	-3.001000	3.342900	-10.031000	26.337049	0.000138	20.719653
2008.534687	-3.008200	3.340900	-10.050000	26.362868	0.000139	20.686804
2009.538053	-2.988000	3.342600	-9.986900	26.333366	0.000137	20.691293
2010.538512	-3.017000	3.340100	-10.076000	26.323905	0.000137	20.687475
2011.536429	-3.003200	3.341000	-10.033000	26.314071	0.000137	20.692290
2012.539032	-3.018000	3.340100	-10.079000	26.347390	0.000138	20.699698
2013.542208	-3.000500	3.341500	-10.026000	26.403581	0.000137	20.691686
2014.536150	-3.007800	3.340300	-10.047000	26.449341	0.000137	20.703541
2015.542253	-3.033900	3.339500	-10.131000	26.408714	0.000138	20.727669
2016.540831	-3.021500	3.338700	-10.086000	26.392105	0.000135	20.696274
2017.543426	-3.002500	3.339800	-10.027000	26.358375	0.000136	20.692245
2018.539232	-3.008300	3.338600	-10.043000	26.447269	0.000135	20.693397
2019.540583	-3.019800	3.339100	-10.083000	26.465097	0.000136	20.697567
2020.539377	-2.980700	3.338600	-9.950100	26.470727	0.000135	20.685680
2021.543294	-3.005100	3.338300	-10.031000	26.444212	0.000133	20.704076
2022.542593	-3.011100	3.337300	-10.048000	26.490459	0.000134	20.702671
2023.538278	-2.996700	3.337000	-9.999000	26.467945	0.000134	20.706594
2024.545327	-3.014500	3.336000	-10.055000	26.489044	0.000134	20.710258
2025.542278	-3.018800	3.335700	-10.068000	26.472999	0.000132	20.710251
2026.537920	-2.999900	3.336500	-10.008000	26.471608	0.000131	20.720708
2027.539439	-3.013000	3.335500	-10.049000	26.463809	0.000130	20.714291
2028.543572	-2.996300	3.335900	-9.994500	26.534843	0.000131	20.703187
2029.543356	-2.996400	3.336500	-9.995900	26.545294	0.000130	20.718435
2030.538733	-3.019600	3.334800	-10.069000	26.524336	0.000130	20.735776
2031.543440	-3.004400	3.335300	-10.020000	26.595262	0.000129	20.708920
2032.545270	-3.012900	3.334200	-10.045000	26.618056	0.000129	20.706229
2033.543505	-3.009500	3.334100	-10.033000	26.566042	0.000128	20.727438
2034.543272	-3.014000	3.333500	-10.047000	26.527191	0.000130	20.711618
2035.539906	-2.986800	3.334300	-9.958000	26.546922	0.000130	20.702527
2036.544354	-3.011900	3.332400	-10.036000	26.555315	0.000127	20.708119
2037.542094	-2.999100	3.334000	-9.998100	26.524685	0.000127	20.718109
2038.539755	-2.988300	3.334000	-9.962500	26.493252	0.000129	20.707849
2039.542277	-3.016500	3.332900	-10.053000	26.512316	0.000126	20.705200
2040.545666	-2.997300	3.331700	-9.986000	26.473813	0.000128	20.704905
2041.540375	-3.015600	3.330200	-10.041000	26.484534	0.000127	20.716630
2042.544336	-3.014300	3.329500	-10.035000	26.526069	0.000128	20.729932
2043.544096	-2.971000	3.331500	-9.897300	26.525377	0.000126	20.715485
2044.544592	-2.992700	3.331000	-9.968100	26.533617	0.000126	20.723767
2045.544752	-2.991700	3.329900	-9.960900	26.507078	0.000127	20.725541
2046.546640	-2.977000	3.329900	-9.911200	26.532747	0.000125	20.731428
2047.542413	-2.999100	3.330500	-9.987700	26.512543	0.000120	20.712541
2048.545992	-2.995100	3.328800	-9.969400	26.469365	0.000125	20.737420
2049.550261	-3.000700	3.329000	-9.988500	26.501295	0.000125	20.721625
2050.549647	-2.992000	3.327800	-9.955900	26.518633	0.000123	20.726250
2051.546243	-2.973900	3.329800	-9.901100	26.523215	0.000124	20.719001
2052.549624	-3.000700	3.327900	-9.985000	26.560982	0.000123	20.711445
2053.548757	-2.970100	3.327400	-9.880600	26.572848	0.000122	20.713416
2054.550073	-3.010800	3.326600	-10.015000	26.558728	0.000122	20.725302
2055.549597	-3.025600	3.325900	-10.061000	26.603556	0.000121	20.717259
2056.547380	-2.993900	3.326600	-9.958200	26.642980	0.000121	20.718484
2057.551916	-2.999800	3.326300	-9.977200	26.673142	0.000122	20.723202
2058.547403	-2.984300	3.325100	-9.921900	26.671206	0.000121	20.726946
2059.543127	-2.986700	3.325700	-9.931700	26.668774	0.000118	20.719285
2060.553385	-2.986700	3.324900	-9.929600	26.617014	0.000121	20.729366
2061.550903	-3.008200	3.325000	-10.001000	26.644493	0.000119	20.712893
2062.554339	-2.986800	3.325700	-9.932500	26.685998	0.000118	20.713841
2063.549924	-3.004200	3.324000	-9.984900	26.631066	0.000120	20.734009
2064.549653	-2.996500	3.324400	-9.960700	26.607011	0.000120	20.732587
2065.547375	-3.029700	3.322100	-10.063000	26.587428	0.000119	20.710054
2066.549518	-3.021000	3.321700	-10.034000	26.602074	0.000118	20.730469
2067.553977	-3.002500	3.322800	-9.975500	26.621088	0.000119	20.712123
2068.559214	-3.002900	3.321700	-9.973700	26.672694	0.000119	20.727494
2069.556573	-2.999000	3.322700	-9.963700	26.642963	0.000120	20.740279
2070.554761	-3.007900	3.321900	-9.990700	26.664854	0.000120	20.725302
2071.553410	-2.975100	3.321400	-9.879300	26.685876	0.000121	20.735056
2072.554887	-3.011000	3.321000	-9.998700	26.666961	0.000119	20.721730
2073.554923	-2.990200	3.320300	-9.927000	26.664058	0.000119	20.742994
2074.552575	-2.999900	3.320500	-9.960500	26.685495	0.000117	20.736096
2075.557664	-2.987100	3.321000	-9.918900	26.693513	0.000119	20.730406
2076.561771	-2.983500	3.320000	-9.904600	26.674096	0.000120	20.741232
2077.554355	-3.008100	3.319200	-9.982600	26.674610	0.000119	20.747438
2078.560884	-2.978900	3.320500	-9.889600	26.652491	0.000118	20.744642
2079.562895	-3.009600	3.317400	-9.983400	26.632748	0.000118	20.739968
2080.556513	-3.011600	3.318200	-9.991800	26.656771	0.000117	20.741359
2081.558428	-3.015200	3.318400	-10.005000	26.707224	0.000118	20.747984
2082.559032	-3.020200	3.317900	-10.020000	26.683984	0.000115	20.763027
2083.559133	-3.009500	3.317600	-9.983000	26.697931	0.000116	20.747650
2084.561405	-2.998900	3.316600	-9.945000	26.688289	0.000120	20.749811
2085.559995	-2.990400	3.317000	-9.919000	26.706945	0.000116	20.752446
2086.559052	-2.985800	3.316400	-9.900800	26.718454	0.000120	20.745523
2087.556238	-2.997900	3.315800	-9.939600	26.753347	0.000118	20.762113
2088.561114	-3.004200	3.316700	-9.963600	26.780019	0.000117	20.750048
2089.559937	-2.999700	3.315200	-9.943200	26.825578	0.000118	20.735163
2090.564590	-2.970300	3.316300	-9.849800	26.833686	0.000116	20.764179
2091.561268	-3.011300	3.313900	-9.978000	26.794360	0.000115	20.760674
2092.561609	-3.005600	3.315100	-9.962900	26.769659	0.000114	20.737261
2093.564085	-3.002400	3.314900	-9.951700	26.739990	0.000115	20.767651
2094.565596	-2.983300	3.314100	-9.886200	26.748019	0.000114	20.755808
2095.560012	-2.994800	3.312000	-9.917300	26.748043	0.000114	20.759626
2096.565063	-3.004100	3.313300	-9.952600	26.720934	0.000114	20.763191
2097.563977	-2.988600	3.312000	-9.896600	26.770349	0.000114	20.741274
2098.564250	-2.976300	3.313700	-9.861600	26.784889	0.000114	20.757315
2099.562209	-3.004800	3.312400	-9.952600	26.789794	0.000113	20.755609
2100.576120	-3.004600	3.312200	-9.951000	26.793224	0.000112	20.767118
2101.565214	-3.005300	3.312700	-9.954200	26.771241	0.000114	20.788165
2102.566525	-3.025000	3.310400	-10.013000	26.804529	0.000111	20.757622
2103.573741	-3.029300	3.310700	-10.028000	26.761166	0.000110	20.756698
2104.567825	-2.988100	3.309900	-9.888800	26.711462	0.000112	20.775005
2105.568578	-3.007000	3.309800	-9.951300	26.650963	0.000109	20.785307
2106.567241	-2.990300	3.310000	-9.897000	26.706365	0.000112	20.768933
2107.565317	-3.001900	3.310300	-9.935900	26.701275	0.000112	20.785627
2108.564743	-2.995300	3.310100	-9.914200	26.726834	0.000109	20.761536
2109.572229	-3.001000	3.310100	-9.932900	26.730607	0.000108	20.778132
2110.575437	-3.001500	3.309300	-9.932100	26.771380	0.000108	20.768389
2111.571095	-3.012000	3.307600	-9.961800	26.763712	0.000109	20.776327
2112.571206	-2.998900	3.308700	-9.920900	26.820572	0.000109	20.785607
2113.566483	-3.009000	3.307400	-9.950600	26.848695	0.000107	20.787331
2114.565534	-3.001500	3.307300	-9.925400	26.880706	0.000106	20.793439
2115.571032	-3.003600	3.307600	-9.933300	26.886633	0.000107	20.779011
2116.568544	-2.984100	3.306500	-9.866400	26.893878	0.000107	20.766381
2117.567421	-3.008600	3.305900	-9.944900	26.896927	0.000107	20.785569
2118.572173	-3.010500	3.305300	-9.949900	26.845332	0.000108	20.755974
2119.565061	-2.998000	3.305700	-9.909600	26.867667	0.000105	20.789338
2120.567729	-2.981500	3.304600	-9.851900	26.802443	0.000104	20.782078
2121.585401	-3.010500	3.304600	-9.948300	26.777044	0.000105	20.777403
2122.566129	-3.011900	3.302100	-9.945100	26.857506	0.000105	20.782914
2123.574763	-3.002400	3.304100	-9.919400	26.890393	0.000104	20.769515
2124.575422	-2.997300	3.303800	-9.901500	26.906223	0.000105	20.814356
2125.571141	-2.995200	3.303500	-9.894000	26.899897	0.000104	20.798986
2126.573102	-3.013500	3.302000	-9.949700	26.921092	0.000106	20.778573
2127.575466	-2.995800	3.303000	-9.894300	26.937271	0.000103	20.786307
2128.569550	-2.989000	3.302500	-9.869900	26.929800	0.000102	20.794916
2129.574202	-3.001300	3.302600	-9.911700	26.963107	0.000102	20.791425
2130.574426	-2.999100	3.302400	-9.903800	26.979707	0.000103	20.797213
2131.571228	-3.020500	3.300600	-9.968100	26.941116	0.000102	20.804873
2132.577230	-3.020700	3.301600	-9.971700	26.855914	0.000101	20.784158
2133.576740	-3.013800	3.300200	-9.945100	26.876938	0.000101	20.806246
2134.572330	-2.995700	3.299400	-9.882900	26.868841	9.998083E-5	20.788622
2135.577097	-2.974000	3.300100	-9.812900	26.838986	0.000100	20.794164
2136.578970	-2.978100	3.299000	-9.824000	26.868272	9.899076E-5	20.807490
2137.572500	-2.983500	3.299700	-9.843600	26.915807	0.000100	20.779897
2138.576859	-3.010300	3.298100	-9.927200	26.883987	0.000101	20.791997
2139.581322	-2.991800	3.298800	-9.868900	26.848075	9.998083E-5	20.813734
2140.573901	-2.998400	3.297500	-9.886300	26.847481	0.000102	20.797016
2141.576224	-3.014700	3.298100	-9.941600	26.836383	9.935378E-5	20.816203
2142.578222	-2.975300	3.298900	-9.814500	26.796128	9.823170E-5	20.790427
2143.575008	-3.018100	3.295600	-9.944900	26.820870	9.902376E-5	20.811511
2144.576730	-2.993700	3.297300	-9.870600	26.762816	9.555851E-5	20.806721
2145.578834	-3.021500	3.297000	-9.961900	26.770759	9.839671E-5	20.819923
2146.574346	-2.990400	3.297000	-9.858100	26.745195	9.974981E-5	20.819350
2147.580025	-2.993500	3.296800	-9.867300	26.762662	9.737364E-5	20.807515
2148.578246	-3.006700	3.295000	-9.905700	26.823302	9.819870E-5	20.800680
2149.575398	-3.014600	3.295100	-9.932000	26.900013	9.740664E-5	20.820440
2150.579978	-2.996300	3.295500	-9.873000	26.884532	9.694461E-5	20.802502
2151.579166	-2.983700	3.295200	-9.831000	26.888647	9.915577E-5	20.816123
2152.575381	-3.007600	3.294400	-9.907500	26.912451	9.486546E-5	20.789799
2153.580921	-2.993100	3.293500	-9.857000	26.872816	9.539350E-5	20.808266
2154.579080	-3.000100	3.293500	-9.879300	26.872743	9.410640E-5	20.807244
2155.577531	-3.008400	3.292300	-9.903700	26.964741	9.644957E-5	20.808241
2156.583243	-3.006800	3.292400	-9.898600	26.981318	9.763766E-5	20.796461
2157.580699	-3.016600	3.290600	-9.925500	26.967864	9.291831E-5	20.809011
2158.581458	-2.983800	3.291800	-9.819900	26.919395	9.380938E-5	20.824756
2159.580419	-2.986600	3.291400	-9.829500	26.966034	9.499747E-5	20.812860
2160.580558	-2.985100	3.291300	-9.823900	26.994060	9.489846E-5	20.821129
2161.583777	-3.033400	3.290900	-9.981600	27.018780	9.588853E-5	20.793831
2162.582862	-3.001300	3.290200	-9.873900	27.000545	9.529449E-5	20.821486
2163.580686	-2.998400	3.291500	-9.868500	26.953785	9.437042E-5	20.801492
2164.581700	-2.973700	3.289900	-9.782400	26.894488	9.440342E-5	20.825790
2165.582085	-2.998000	3.289300	-9.860900	26.858105	9.433742E-5	20.820974
2166.585088	-2.989200	3.288800	-9.830100	26.858343	9.338035E-5	20.816947
2167.579730	-2.992300	3.288700	-9.839500	26.902020	9.143321E-5	20.819138
2168.582321	-2.989100	3.289000	-9.830000	26.931248	9.255529E-5	20.819606
2169.585273	-3.035600	3.286700	-9.976300	26.940808	9.169723E-5	20.818313
2170.582769	-2.991800	3.288000	-9.835600	26.978627	9.169723E-5	20.834058
2171.586782	-2.977700	3.286200	-9.784200	26.977524	9.209325E-5	20.840535
2172.585366	-2.990600	3.286700	-9.828500	27.012109	9.087217E-5	20.829322
2173.591141	-3.011600	3.285100	-9.892800	27.025886	9.054214E-5	20.828479
2174.587020	-2.995700	3.286100	-9.842800	26.974333	8.998110E-5	20.820257
2175.585604	-3.022900	3.284900	-9.928400	26.973390	9.034413E-5	20.815516
2176.584123	-2.984100	3.285800	-9.804500	26.980756	8.909004E-5	20.835725
2177.585295	-3.005200	3.285100	-9.871100	27.022664	8.918904E-5	20.834721
2178.584533	-3.021500	3.284400	-9.922100	27.073591	8.846299E-5	20.849900
2179.583970	-2.992700	3.283100	-9.823800	27.128769	8.905703E-5	20.839961
2180.587947	-2.994400	3.283900	-9.831800	27.108668	8.697788E-5	20.849616
2181.589021	-3.017300	3.282100	-9.902500	27.074374	8.727490E-5	20.836938
2182.593784	-3.010700	3.281500	-9.879000	27.114546	8.747292E-5	20.850786
2183.586573	-3.004100	3.282100	-9.859000	27.113376	8.707689E-5	20.842498
2184.585208	-2.980500	3.282000	-9.780400	27.099630	8.839698E-5	20.864708
2185.593185	-3.004500	3.280500	-9.855700	27.082731	8.783594E-5	20.834437
2186.584745	-3.001000	3.280900	-9.845600	27.044420	8.559178E-5	20.807762
2187.589425	-3.004000	3.280900	-9.853900	27.013246	8.588880E-5	20.834258
2188.590337	-2.989500	3.281400	-9.808600	27.028487	8.486573E-5	20.834413
2189.590810	-2.967600	3.281800	-9.738200	27.044217	8.562478E-5	20.840275
2190.586859	-2.999200	3.279100	-9.834100	27.078653	8.539376E-5	20.846456
2191.591547	-2.984100	3.279400	-9.785800	27.059004	8.364464E-5	20.863679
2192.591430	-3.002000	3.277300	-9.837800	27.036692	8.308360E-5	20.852620
2193.588463	-3.008700	3.278500	-9.863500	26.992053	8.456870E-5	20.844714
2194.590562	-2.978000	3.278800	-9.763600	27.042772	8.394166E-5	20.849252
2195.589205	-2.995500	3.279000	-9.821200	27.047120	8.321561E-5	20.838452
2196.596296	-2.998000	3.277700	-9.825900	27.126319	8.377665E-5	20.856462
2197.590491	-3.007900	3.277000	-9.855900	27.117521	8.390866E-5	20.866106
2198.588101	-3.016200	3.276600	-9.881900	27.146150	8.463471E-5	20.831364
2199.589386	-3.009400	3.277800	-9.863400	27.131860	8.324861E-5	20.869147
2200.594548	-2.993000	3.276400	-9.804500	27.158328	8.351263E-5	20.854517
2201.593781	-2.985600	3.275900	-9.779600	27.132178	8.407367E-5	20.837226
2202.589350	-2.991600	3.274700	-9.795600	27.139721	8.215953E-5	20.856666
2203.594149	-2.976600	3.276100	-9.750700	27.200738	8.450270E-5	20.861136
2204.589600	-2.995200	3.274100	-9.806400	27.234452	8.219253E-5	20.858064
2205.592814	-2.986200	3.274000	-9.775100	27.196715	8.050941E-5	20.873211
2206.594166	-2.976900	3.274600	-9.747600	27.172464	8.107045E-5	20.857829
2207.597724	-2.994200	3.274200	-9.802900	27.091823	8.126846E-5	20.866339
2208.594240	-3.003000	3.272700	-9.827500	27.141007	8.262156E-5	20.862700
2209.596049	-2.988900	3.272100	-9.778900	27.180038	7.971735E-5	20.863076
2210.591606	-3.016500	3.271600	-9.867900	27.196880	8.120246E-5	20.846351
2211.592757	-2.996500	3.272600	-9.805100	27.176162	8.110345E-5	20.843057
2212.597389	-2.996400	3.271000	-9.800800	27.155094	8.202752E-5	20.842731
2213.600859	-2.991000	3.271700	-9.784500	27.174992	8.014638E-5	20.867484
2214.596852	-2.982700	3.270100	-9.752700	27.247320	7.912331E-5	20.861998
2215.599931	-2.983800	3.269400	-9.754100	27.264259	8.087243E-5	20.867182
2216.604176	-2.995400	3.269500	-9.792700	27.308464	7.951934E-5	20.866129
2217.595026	-2.988900	3.268800	-9.769100	27.322017	8.017938E-5	20.873598
2218.600542	-3.000300	3.269500	-9.807600	27.323125	7.819924E-5	20.862859
2219.602081	-3.006500	3.268500	-9.826200	27.309137	7.813323E-5	20.862539
2220.595897	-3.017800	3.268300	-9.861800	27.291243	7.780321E-5	20.868721
2221.598939	-3.009800	3.269600	-9.840400	27.312412	7.879328E-5	20.881479
2222.598903	-3.001400	3.268000	-9.807700	27.245005	7.678014E-5	20.862515
2223.602741	-2.980600	3.268100	-9.739600	27.226988	7.658212E-5	20.863832
2224.598615	-3.009600	3.267800	-9.833500	27.220388	7.806723E-5	20.853875
2225.602924	-3.005500	3.265000	-9.812200	27.251225	7.833125E-5	20.859288
2226.596673	-2.965800	3.267700	-9.690700	27.231151	7.694515E-5	20.858062
2227.600517	-2.994800	3.265100	-9.777800	27.209123	7.730817E-5	20.876208
2228.597235	-2.977200	3.265900	-9.722200	27.177637	7.506401E-5	20.844540
2229.596086	-3.024300	3.264200	-9.871100	27.172004	7.605408E-5	20.855944
2230.598181	-2.998700	3.265100	-9.789800	27.184188	7.542704E-5	20.857293
2231.603617	-2.999300	3.264200	-9.789800	27.228727	7.380992E-5	20.848038
2232.596114	-3.009500	3.262600	-9.817600	27.264026	7.394193E-5	20.860310
2233.600796	-2.998300	3.263300	-9.782600	27.279637	7.575706E-5	20.838081
2234.597861	-2.998800	3.262700	-9.783000	27.304295	7.671413E-5	20.856246
2235.597831	-3.021800	3.260900	-9.853600	27.294996	7.420595E-5	20.845945
2236.600130	-2.993200	3.262000	-9.763100	27.284822	7.582307E-5	20.840452
2237.601272	-2.981500	3.261400	-9.723100	27.306585	7.476699E-5	20.835791
2238.607122	-2.986300	3.261300	-9.738200	27.326326	7.351290E-5	20.841899
2239.609974	-2.971600	3.260600	-9.688500	27.313680	7.235781E-5	20.830600
2240.601204	-2.992600	3.260700	-9.756700	27.255529	7.268784E-5	20.852712
2241.600770	-2.999700	3.259400	-9.776200	27.230521	7.318287E-5	20.841782
2242.607272	-2.990500	3.259300	-9.746800	27.256723	7.288585E-5	20.847749
2243.606186	-2.988100	3.258400	-9.735500	27.267534	7.222580E-5	20.832546
2244.601921	-2.988600	3.258600	-9.737600	27.299423	7.262183E-5	20.840914
2245.605204	-3.002100	3.256800	-9.776400	27.316465	7.077370E-5	20.828187
2246.603780	-2.974300	3.259700	-9.694200	27.329070	7.186278E-5	20.828064
2247.605221	-3.006900	3.257600	-9.794600	27.317230	7.077370E-5	20.824215
2248.608059	-3.010000	3.256800	-9.802600	27.354369	7.021265E-5	20.835970
2249.607832	-3.007400	3.255900	-9.790200	27.310987	7.064169E-5	20.823624
2250.603422	-2.995600	3.256500	-9.753300	27.274244	7.100471E-5	20.840718
2251.605921	-2.996500	3.256800	-9.758500	27.303549	7.021265E-5	20.825626
2252.602104	-2.991800	3.256500	-9.741900	27.354131	7.044367E-5	20.830515
2253.605330	-3.026300	3.254300	-9.847700	27.353782	6.879355E-5	20.810249
2254.605858	-2.995300	3.254900	-9.748100	27.382264	7.110372E-5	20.804763
2255.606678	-3.015300	3.254200	-9.811800	27.342249	6.975062E-5	20.821407
2256.606555	-2.990900	3.254100	-9.731600	27.341313	6.839752E-5	20.840854
2257.606449	-3.005700	3.253500	-9.778200	27.338014	7.004764E-5	20.826155
2258.602375	-3.012800	3.253600	-9.801700	27.267333	6.971762E-5	20.832344
2259.605062	-3.037900	3.250300	-9.873300	27.261579	6.843052E-5	20.810909
2260.611699	-3.013800	3.252500	-9.801400	27.273646	6.849653E-5	20.825891
2261.606828	-3.022200	3.251500	-9.825800	27.330908	6.803450E-5	20.821378
2262.607335	-3.013700	3.251700	-9.799000	27.371143	7.011365E-5	20.812067
2263.613822	-2.998500	3.251300	-9.748200	27.375710	7.034466E-5	20.832782
2264.608671	-3.025100	3.249700	-9.829700	27.353232	7.047667E-5	20.826766
2265.610118	-2.965000	3.250700	-9.637300	27.327908	6.819951E-5	20.813145
2266.611840	-3.013800	3.250200	-9.794200	27.351776	6.526229E-5	20.810602
2267.603243	-2.997800	3.248900	-9.738900	27.400795	6.678040E-5	20.820559
2268.607441	-3.001800	3.248300	-9.749900	27.394845	6.631837E-5	20.801772
2269.609900	-3.007600	3.250300	-9.774800	27.376739	6.658239E-5	20.827653
2270.606964	-2.983700	3.247900	-9.689900	27.309881	6.579033E-5	20.820141
2271.609460	-3.026500	3.246400	-9.823500	27.338187	6.602135E-5	20.817795
2272.611546	-2.983200	3.248800	-9.689900	27.335634	6.734144E-5	20.816175
2273.612397	-2.997200	3.246000	-9.727100	27.304671	6.618636E-5	20.813004
2274.614084	-3.019900	3.244900	-9.798300	27.288449	6.562532E-5	20.808066
2275.610805	-3.022400	3.244900	-9.806400	27.302094	6.344716E-5	20.829378
2276.608416	-2.992800	3.246100	-9.713500	27.278103	6.374418E-5	20.797185
2277.612966	-3.001800	3.245000	-9.739400	27.270990	6.516328E-5	20.806151
2278.612609	-2.982500	3.244500	-9.675900	27.255183	6.262210E-5	20.803053
2279.608850	-3.005500	3.244700	-9.750700	27.290935	6.552631E-5	20.797290
2280.613616	-2.996800	3.244300	-9.721900	27.359679	6.239108E-5	20.791052
2281.618864	-2.996000	3.242500	-9.713600	27.373697	6.410721E-5	20.805154
2282.611398	-3.004200	3.241500	-9.737600	27.408135	6.282011E-5	20.808504
2283.618037	-3.016200	3.241800	-9.776700	27.367050	6.351316E-5	20.798466
2284.621240	-2.987600	3.242400	-9.685500	27.363481	6.331515E-5	20.775436
2285.615206	-2.999800	3.242000	-9.724400	27.399064	6.450324E-5	20.816922
2286.618193	-2.980100	3.240800	-9.657000	27.419943	6.334815E-5	20.812322
2287.618524	-3.019100	3.240400	-9.782200	27.447407	6.232508E-5	20.794908
2288.617875	-2.994600	3.241700	-9.705500	27.509935	6.116999E-5	20.798547
2289.618806	-3.023700	3.241600	-9.801200	27.517758	6.087297E-5	20.792666
2290.617583	-2.994500	3.239000	-9.696700	27.472717	6.331515E-5	20.811362
2291.617573	-3.008600	3.238700	-9.743100	27.520616	6.196205E-5	20.778947
2292.619790	-2.993700	3.238600	-9.694800	27.483337	6.232508E-5	20.783165
2293.619015	-2.993500	3.237300	-9.689900	27.478770	5.988290E-5	20.796589
2294.615859	-3.016000	3.237300	-9.762800	27.496435	6.126900E-5	20.794447
2295.619868	-3.023600	3.236600	-9.784700	27.488894	6.100498E-5	20.786386
2296.626298	-2.994800	3.239000	-9.699100	27.489170	5.928885E-5	20.781447
2297.622302	-2.984100	3.236400	-9.657100	27.455690	5.810077E-5	20.786171
2298.619946	-2.989900	3.236600	-9.675900	27.462735	5.833178E-5	20.790888
2299.623454	-3.001500	3.236300	-9.712900	27.487016	5.925585E-5	20.778332
2300.628345	-2.994800	3.235500	-9.689100	27.471543	5.796876E-5	20.785525
2301.623411	-2.979000	3.235200	-9.636900	27.417790	5.681367E-5	20.775543
2302.623822	-2.987200	3.235500	-9.664100	27.416254	5.575760E-5	20.789644
2303.622997	-2.978200	3.235500	-9.635100	27.430442	5.889283E-5	20.765511
2304.621333	-2.998200	3.232500	-9.691200	27.520783	5.625263E-5	20.779114
2305.630350	-3.005900	3.233000	-9.717400	27.591373	5.559258E-5	20.790396
2306.618679	-2.994600	3.234200	-9.685100	27.579990	5.724270E-5	20.758553
2307.630116	-2.999300	3.232800	-9.695300	27.620247	5.701169E-5	20.789103
2308.624057	-2.997400	3.231500	-9.685600	27.616153	5.730871E-5	20.784983
2309.625218	-2.970400	3.231900	-9.599100	27.625455	5.595561E-5	20.777274
2310.623598	-2.968000	3.230500	-9.586900	27.546464	5.757273E-5	20.788832
2311.626060	-2.989200	3.230300	-9.655000	27.465503	5.529556E-5	20.763326
2312.623868	-3.031200	3.228900	-9.785800	27.463746	5.301840E-5	20.764878
2313.625948	-3.020800	3.229300	-9.753800	27.437102	5.536157E-5	20.776954
2314.625755	-3.009400	3.229000	-9.716300	27.401907	5.509755E-5	20.788488
2315.619475	-3.022900	3.229600	-9.761600	27.474439	5.529556E-5	20.778007
2316.624048	-3.006800	3.227700	-9.704300	27.514578	5.384346E-5	20.782829
2317.624376	-3.008000	3.227500	-9.707800	27.565554	5.542757E-5	20.761572
2318.631036	-2.994400	3.228500	-9.667000	27.569600	5.456951E-5	20.783187
2319.624156	-2.976100	3.228300	-9.607000	27.514652	5.374445E-5	20.769152
2320.625492	-3.009300	3.226600	-9.708900	27.503305	5.522956E-5	20.777177
2321.626994	-3.007200	3.226800	-9.702800	27.470731	5.493254E-5	20.754835
2322.624297	-3.020000	3.225300	-9.739700	27.471087	5.338142E-5	20.761832
2323.627968	-3.003100	3.224700	-9.682800	27.524837	5.476752E-5	20.768494
2324.628029	-2.982100	3.225500	-9.617300	27.520051	5.516355E-5	20.773162
2325.626601	-3.011400	3.224800	-9.710200	27.501200	5.272137E-5	20.773162
2326.623558	-3.004300	3.223900	-9.684700	27.498997	5.183031E-5	20.770946
2327.622951	-2.962600	3.223500	-9.549100	27.522445	5.414048E-5	20.766088
2328.623930	-2.993800	3.223000	-9.647200	27.575544	5.196232E-5	20.773994
2329.623985	-2.999600	3.223900	-9.669600	27.516692	5.298539E-5	20.795387
2330.620776	-2.987200	3.221800	-9.623600	27.538824	5.348043E-5	20.762652
2331.628045	-2.993400	3.221000	-9.640300	27.507995	5.338142E-5	20.764826
2332.625442	-2.996400	3.221700	-9.652400	27.544039	5.107125E-5	20.757468
2333.623291	-3.006200	3.221800	-9.684200	27.603936	5.301840E-5	20.771742
2334.624718	-3.017700	3.220400	-9.716600	27.567106	5.334842E-5	20.751279
2335.630200	-2.965200	3.221800	-9.552300	27.521693	5.235835E-5	20.754426
2336.623353	-2.988600	3.221700	-9.628000	27.539982	5.331542E-5	20.754334
2337.625241	-3.005900	3.218200	-9.671700	27.528120	5.483353E-5	20.778910
2338.629711	-3.013700	3.217300	-9.695300	27.582216	5.014718E-5	20.766483
2339.623006	-3.018800	3.218000	-9.713200	27.587578	5.080723E-5	20.778042
2340.627420	-2.989300	3.217400	-9.616500	27.671675	5.282038E-5	20.741753
2341.625837	-3.003400	3.217700	-9.663100	27.609984	5.222634E-5	20.765499
2342.624341	-3.001700	3.216000	-9.652400	27.623643	5.117026E-5	20.755061
2343.631028	-3.008300	3.215300	-9.672000	27.602933	5.183031E-5	20.753663
2344.626669	-3.006900	3.214900	-9.665900	27.583515	5.146728E-5	20.745504
2345.625122	-3.009500	3.214500	-9.673200	27.645870	5.159929E-5	20.750400
2346.622873	-2.997300	3.213900	-9.631900	27.734577	5.110425E-5	20.758583
2347.629555	-2.982100	3.214800	-9.585900	27.706019	5.140128E-5	20.763511
2348.624683	-3.002100	3.213700	-9.646900	27.678952	5.140128E-5	20.753817
2349.628570	-3.011900	3.216900	-9.687400	27.633172	5.186331E-5	20.758485
2350.627606	-2.993400	3.212500	-9.615900	27.586446	5.004818E-5	20.759834
2351.630349	-3.027100	3.212500	-9.723600	27.583895	4.991617E-5	20.751102
2352.631516	-2.996600	3.213100	-9.626500	27.600461	4.945413E-5	20.745960
2353.628477	-2.982400	3.214300	-9.585900	27.618699	4.833205E-5	20.765260
2354.625041	-3.007700	3.213000	-9.662800	27.617132	4.922312E-5	20.744242
2355.628755	-2.999900	3.211000	-9.631600	27.670680	5.113726E-5	20.750234
2356.627752	-3.030700	3.209200	-9.725300	27.702152	5.123626E-5	20.752981
2357.624613	-2.988800	3.209600	-9.591800	27.757506	5.100525E-5	20.735664
2358.625984	-2.993900	3.208700	-9.605100	27.759831	4.948714E-5	20.746065
2359.627807	-2.995600	3.208600	-9.610000	27.699625	4.952014E-5	20.765137
2360.628429	-3.004900	3.209600	-9.643700	27.636386	4.836505E-5	20.734691
2361.632261	-3.019700	3.206000	-9.680300	27.675049	4.826605E-5	20.758899
2362.626825	-2.999300	3.205900	-9.614900	27.698633	4.697895E-5	20.739482
2363.629249	-2.995600	3.207100	-9.606300	27.695953	5.057622E-5	20.745320
2364.627857	-2.984000	3.205500	-9.564200	27.694368	4.671493E-5	20.722861
2365.630255	-2.975400	3.206800	-9.541000	27.674107	4.783702E-5	20.732345
2366.632678	-3.010400	3.204900	-9.647300	27.700916	4.569186E-5	20.735141
2367.627353	-3.014300	3.203700	-9.655200	27.665350	4.750699E-5	20.729697
2368.630477	-3.012700	3.203800	-9.651300	27.639066	4.664893E-5	20.741182
2369.628744	-2.994000	3.204000	-9.592200	27.665625	4.763900E-5	20.727129
2370.636112	-2.991300	3.203900	-9.582600	27.710364	4.483379E-5	20.725682
2371.627110	-2.980400	3.203300	-9.545700	27.688023	4.427275E-5	20.746823
2372.631446	-2.977600	3.202000	-9.532700	27.730063	4.569186E-5	20.737445
2373.631202	-3.007500	3.202200	-9.629100	27.709031	4.516382E-5	20.721495
2374.635109	-2.988200	3.201500	-9.565700	27.715627	4.552685E-5	20.748523
2375.627621	-3.011100	3.200800	-9.637200	27.678348	4.334869E-5	20.740880
2376.631764	-3.030200	3.198900	-9.692200	27.677185	4.480079E-5	20.733546
2377.628729	-2.981800	3.200100	-9.540500	27.613547	4.420675E-5	20.743953
2378.629125	-3.001600	3.198400	-9.599800	27.656857	4.348070E-5	20.752446
2379.646266	-3.004800	3.197800	-9.608300	27.740306	4.516382E-5	20.752021
2380.634997	-3.019500	3.198300	-9.655800	27.767658	4.258963E-5	20.735449
2381.631640	-3.008000	3.197600	-9.618100	27.731916	4.506481E-5	20.743103
2382.637657	-2.996600	3.196200	-9.575900	27.717041	4.443777E-5	20.733823
2383.636837	-3.034900	3.197100	-9.702300	27.671311	4.282065E-5	20.728583
2384.632661	-2.987000	3.196000	-9.545400	27.678274	4.473479E-5	20.741281
2385.630310	-3.011200	3.195800	-9.622400	27.628284	4.245762E-5	20.734600
2386.630124	-3.003300	3.194500	-9.593400	27.635101	4.354670E-5	20.726760
2387.633877	-2.983000	3.194800	-9.528800	27.697195	4.140154E-5	20.732819
2388.630745	-3.014800	3.193800	-9.628000	27.709697	4.229261E-5	20.714105
2389.630705	-3.002700	3.192900	-9.586600	27.709771	4.219360E-5	20.745000
2390.634546	-3.016100	3.193500	-9.631300	27.760829	4.311767E-5	20.704867
2391.639966	-3.000000	3.193000	-9.578200	27.868475	4.070849E-5	20.723114
2392.632085	-3.000600	3.191300	-9.575000	27.849324	4.080750E-5	20.738453
2393.635857	-3.013600	3.189800	-9.611900	27.794581	4.222660E-5	20.728878
2394.634553	-2.983900	3.190500	-9.519300	27.776702	4.143455E-5	20.721316
2395.634309	-2.993900	3.190300	-9.550700	27.761080	4.186358E-5	20.722664
2396.637608	-3.001000	3.188400	-9.567800	27.706644	4.044447E-5	20.715773
2397.638764	-3.010400	3.187700	-9.595600	27.756808	3.955341E-5	20.728323
2398.638838	-2.985400	3.189200	-9.520100	27.736004	3.849733E-5	20.720188
2399.635440	-2.996800	3.187200	-9.550600	27.727271	4.008145E-5	20.718987
2400.637100	-2.996600	3.186100	-9.546600	27.656121	3.882735E-5	20.719936
2401.635354	-3.016200	3.185300	-9.607300	27.693719	3.754026E-5	20.729321
2402.636251	-3.012600	3.185500	-9.595700	27.737808	4.143455E-5	20.708253
2403.637373	-2.975200	3.186200	-9.478400	27.859860	3.955341E-5	20.731039
2404.638569	-2.986100	3.184600	-9.509100	27.880607	3.886036E-5	20.746705
2405.639206	-2.989100	3.184000	-9.516900	27.874262	4.047748E-5	20.731309
2406.637901	-2.992100	3.182100	-9.520700	27.847677	4.001544E-5	20.733003
2407.637208	-3.009900	3.183500	-9.581200	27.826574	3.793629E-5	20.725040
2408.640184	-2.994200	3.184800	-9.534800	27.812238	3.800229E-5	20.721517
2409.639125	-3.010900	3.181000	-9.576600	27.824365	3.998244E-5	20.698633
2410.637978	-2.998600	3.180100	-9.534900	27.723531	3.499907E-5	20.711904
2411.642349	-3.006300	3.181000	-9.561400	27.700125	3.793629E-5	20.698307
2412.638748	-2.992800	3.179900	-9.515900	27.756189	3.882735E-5	20.701619
2413.640487	-2.987800	3.178700	-9.496400	27.747739	3.754026E-5	20.706392
2414.639198	-3.001800	3.177000	-9.536000	27.734141	3.575813E-5	20.699347
2415.640257	-3.000900	3.178000	-9.535200	27.797381	3.961941E-5	20.707987
2416.640517	-3.005100	3.176900	-9.545500	27.857355	3.876135E-5	20.682996
2417.646949	-3.015200	3.176300	-9.576400	27.840842	3.668220E-5	20.716165
2418.639986	-3.000400	3.175600	-9.527000	27.851451	3.763927E-5	20.695547
2419.643146	-3.015300	3.174300	-9.569900	27.844408	3.813430E-5	20.713590
2420.643147	-3.012900	3.173800	-9.561900	27.825692	3.714423E-5	20.719410
2421.654611	-2.998900	3.174300	-9.519200	27.892658	3.410801E-5	20.707149
2422.648835	-3.018500	3.171700	-9.572600	27.870314	3.529610E-5	20.730654
2423.645648	-3.004900	3.172200	-9.530900	27.815816	3.655019E-5	20.713738
2424.642334	-3.001100	3.173200	-9.521500	27.730854	3.714423E-5	20.711213
2425.643441	-3.042100	3.171500	-9.646900	27.835279	3.476806E-5	20.683063
2426.642619	-3.012300	3.169800	-9.546500	27.833995	3.711123E-5	20.698367
2427.651174	-3.002800	3.170600	-9.519300	27.810131	3.546111E-5	20.698059
2428.650859	-3.005600	3.169800	-9.526900	27.841544	3.721024E-5	20.733468
2429.648478	-3.002700	3.168000	-9.510900	27.904073	3.688021E-5	20.687342
2430.642520	-3.016400	3.168200	-9.555800	27.870471	3.618716E-5	20.726072
2431.643731	-3.027800	3.165300	-9.582300	27.870820	3.519709E-5	20.694652
2432.647162	-3.011500	3.166500	-9.535300	27.827104	3.608815E-5	20.691905
2433.643363	-3.005900	3.165100	-9.512500	27.806691	3.681421E-5	20.715461
2434.644025	-3.007600	3.165700	-9.519900	27.863147	3.582413E-5	20.707319
2435.646590	-2.999000	3.164200	-9.487300	27.877954	3.397600E-5	20.687606
2436.644127	-3.025800	3.161400	-9.563800	27.915660	3.457004E-5	20.678615
2437.642826	-2.997600	3.162900	-9.480200	27.982951	3.483406E-5	20.711734
2438.648879	-3.012100	3.162000	-9.523000	28.010988	3.354697E-5	20.701074
2439.644582	-2.971200	3.161600	-9.392900	28.012083	3.282091E-5	20.693641
2440.644406	-2.998700	3.160700	-9.477100	27.954851	3.222687E-5	20.709529
2441.644222	-2.992500	3.159700	-9.454200	27.937819	3.321694E-5	20.683375
2442.644796	-2.999800	3.160200	-9.478600	27.855100	3.331595E-5	20.680726
2443.646004	-2.987700	3.159400	-9.438400	27.893041	3.301893E-5	20.692360
2444.649691	-3.005500	3.158000	-9.490800	27.927975	3.328295E-5	20.696701
2445.650886	-2.990600	3.157000	-9.440200	27.987000	3.150082E-5	20.715810
2446.646125	-2.993400	3.157300	-9.450100	27.965453	3.176484E-5	20.701707
2447.654276	-2.993500	3.155000	-9.443500	27.967930	3.216086E-5	20.702305
2448.650506	-3.028400	3.154400	-9.551700	28.035916	3.031273E-5	20.700088
2449.647309	-2.975600	3.154200	-9.384600	28.045012	3.008171E-5	20.694071
2450.645792	-2.996300	3.153400	-9.447600	27.993619	2.932266E-5	20.695919
2451.649189	-2.986000	3.153000	-9.414000	27.952581	2.872861E-5	20.688276
2452.649995	-3.003000	3.152200	-9.465100	27.883666	3.018072E-5	20.702365
2453.653955	-3.010400	3.150100	-9.481900	27.857167	2.892663E-5	20.670952
2454.650924	-2.991100	3.151100	-9.424000	27.844961	2.763953E-5	20.699920
2455.650572	-2.983700	3.150800	-9.400900	27.940644	3.031273E-5	20.699970
2456.653617	-3.009100	3.148500	-9.473000	28.004709	2.978469E-5	20.691908
2457.649545	-3.001100	3.148300	-9.447400	27.999283	3.014772E-5	20.702094
2458.650764	-2.999700	3.147100	-9.439100	27.971881	2.754053E-5	20.706756
2459.650705	-2.982800	3.147800	-9.388900	27.914507	2.823358E-5	20.677928
2460.647078	-3.011700	3.144800	-9.470100	27.944999	2.978469E-5	20.675428
2461.651206	-2.984900	3.145800	-9.389400	27.970933	2.813457E-5	20.694895
2462.651706	-3.019100	3.143800	-9.490600	28.019678	2.793655E-5	20.700813
2463.652292	-3.009600	3.143900	-9.461500	28.031821	2.717750E-5	20.712563
2464.651417	-3.002200	3.142600	-9.433200	28.069284	2.866261E-5	20.705228
2465.656409	-2.976500	3.142200	-9.351400	28.127830	2.747452E-5	20.687350
2466.651907	-2.997600	3.141100	-9.415000	28.141116	2.866261E-5	20.686026
2467.652006	-2.999600	3.139300	-9.416200	28.099172	2.707849E-5	20.687898
2468.650578	-2.980200	3.140500	-9.358300	28.074159	2.839859E-5	20.695436
2469.652432	-3.010600	3.138300	-9.447700	28.014435	2.714450E-5	20.711183
2470.652365	-3.017400	3.136800	-9.464200	27.991004	2.589040E-5	20.702770
2471.652904	-3.009500	3.136000	-9.436600	27.958972	2.658346E-5	20.705616
2472.652197	-2.995400	3.136800	-9.394900	27.955252	2.658346E-5	20.690491
2473.653305	-3.010300	3.135000	-9.436500	27.940746	2.648445E-5	20.691063
2474.658436	-3.003600	3.135100	-9.416200	27.979643	2.556038E-5	20.696076
2475.655153	-2.986600	3.133300	-9.357100	27.990258	2.532936E-5	20.696329
2476.655061	-3.016300	3.132200	-9.446200	28.070880	2.536237E-5	20.685022
2477.654888	-2.982700	3.132100	-9.341500	28.143366	2.664946E-5	20.702518
2478.652417	-2.985100	3.132300	-9.349100	28.180592	2.575839E-5	20.694949
2479.658006	-2.992100	3.129900	-9.363800	28.111974	2.486733E-5	20.694148
2480.660578	-3.023300	3.127800	-9.454500	28.169086	2.598941E-5	20.686684
2481.659478	-2.997600	3.129100	-9.378800	28.169509	2.602241E-5	20.687583
2482.659240	-3.006100	3.126600	-9.398300	28.162786	2.556038E-5	20.693618
2483.658353	-3.017900	3.126800	-9.434700	28.173796	2.341522E-5	20.691900
2484.656806	-3.003600	3.126000	-9.388300	28.157532	2.308520E-5	20.697812
2485.655151	-3.011100	3.123300	-9.403400	28.132440	2.400927E-5	20.704321
2486.658748	-3.008000	3.123700	-9.395100	28.165930	2.226014E-5	20.700102
2487.655347	-3.004800	3.122700	-9.382000	28.181032	2.559338E-5	20.701556
2488.653396	-2.996100	3.122500	-9.354600	28.185062	2.447130E-5	20.698975
2489.668421	-3.011800	3.121000	-9.399000	28.176431	2.311820E-5	20.711624
2490.658396	-2.960000	3.122000	-9.239500	28.232605	2.400927E-5	20.687096
2491.658864	-3.012900	3.118100	-9.392800	28.260673	2.259016E-5	20.694967
2492.658678	-3.003400	3.117700	-9.362800	28.268519	2.239215E-5	20.703816
2493.664062	-3.012200	3.118100	-9.392100	28.295289	2.361324E-5	20.709906
2494.654202	-3.011300	3.116600	-9.383500	28.296237	2.334922E-5	20.688574
2495.659656	-2.983600	3.116600	-9.297900	28.285797	2.209513E-5	20.698926
2496.662232	-2.984600	3.115500	-9.297400	28.249193	2.252416E-5	20.706643
2497.657377	-2.990800	3.114300	-9.313700	28.196714	2.193011E-5	20.700749
2498.664658	-3.004400	3.111900	-9.348200	28.139750	2.311820E-5	20.699351
2499.661294	-3.001000	3.112100	-9.338300	28.156601	2.080803E-5	20.700194
2500.663816	-3.005200	3.109400	-9.343400	28.173612	2.136907E-5	20.695982
2501.663471	-2.995200	3.110000	-9.314300	28.126238	2.377825E-5	20.713250
2502.666420	-3.026000	3.107900	-9.402600	28.094833	2.252416E-5	20.698704
2503.661322	-2.975600	3.108900	-9.249600	28.042940	2.315120E-5	20.705737
2504.663049	-2.971500	3.108500	-9.236200	28.009374	2.166609E-5	20.697078
2505.663057	-2.981500	3.106100	-9.259800	27.985692	2.034600E-5	20.699794
2506.659862	-2.978600	3.105300	-9.248600	28.013118	2.074203E-5	20.695157
2507.664092	-2.968000	3.103800	-9.210900	28.084740	2.150108E-5	20.699924
2508.663802	-2.986200	3.103900	-9.267800	28.187057	2.364624E-5	20.709993
2509.660187	-2.997300	3.101700	-9.296200	28.269443	2.034600E-5	20.708539
2510.667706	-3.010200	3.101000	-9.333700	28.300727	2.143508E-5	20.704001
2511.663957	-2.962600	3.101900	-9.189300	28.294867	2.183111E-5	20.707584
2512.663025	-2.982500	3.098300	-9.240000	28.280250	2.110505E-5	20.703299
2513.661960	-2.982900	3.098800	-9.241800	28.259578	2.001597E-5	20.707616
2514.669525	-2.979500	3.098000	-9.229200	28.283376	1.919091E-5	20.708817
2515.669415	-2.994000	3.096400	-9.269200	28.290189	1.859687E-5	20.702400
2516.662511	-3.028400	3.094900	-9.372100	28.304763	1.853086E-5	20.715652
2517.662558	-2.994000	3.094000	-9.262600	28.278942	2.054401E-5	20.701507
2518.663386	-2.980800	3.093100	-9.219300	28.239634	1.833285E-5	20.708872
2519.662523	-3.011400	3.090900	-9.307500	28.269572	1.826684E-5	20.707721
2520.666609	-3.006200	3.092300	-9.294500	28.193259	2.024699E-5	20.721928
2521.663886	-2.992200	3.091400	-9.249200	28.179057	1.740878E-5	20.706206
2522.668222	-3.002300	3.088000	-9.270000	28.249701	2.024699E-5	20.711422
2523.667573	-2.985800	3.088600	-9.220900	28.248393	1.968595E-5	20.701095
2524.669363	-2.983500	3.087100	-9.208800	28.233078	1.734278E-5	20.718394
2525.670221	-3.012200	3.084800	-9.290800	28.219340	1.569265E-5	20.735384
2526.668423	-2.952500	3.086600	-9.112100	28.184220	1.829985E-5	20.709507
2527.672621	-2.991600	3.083900	-9.224200	28.215959	2.127006E-5	20.721548
2528.667868	-3.001600	3.082800	-9.252400	28.179241	2.021399E-5	20.705917
2529.669000	-2.972800	3.082200	-9.160600	28.223574	1.744178E-5	20.706454
2530.669210	-2.991600	3.079800	-9.212700	28.248614	1.724377E-5	20.703689
2531.668360	-2.998200	3.078500	-9.229100	28.322819	1.701275E-5	20.701115
2532.671389	-2.996800	3.076800	-9.220000	28.368375	1.886089E-5	20.701940
2533.667883	-3.004700	3.076800	-9.244000	28.351600	1.971895E-5	20.716345
2534.669494	-2.991100	3.075100	-9.196500	28.343888	1.915791E-5	20.718063
2535.671105	-3.004700	3.075000	-9.239100	28.381762	1.948793E-5	20.706411
2536.670949	-3.016900	3.074000	-9.273100	28.426850	2.011498E-5	20.730953
2537.669375	-3.009700	3.072200	-9.245600	28.487266	1.721077E-5	20.731100
2538.671645	-3.012400	3.070900	-9.250100	28.422783	1.899290E-5	20.725435
2539.675025	-3.004400	3.070600	-9.223800	28.366089	1.658372E-5	20.729038
2540.673233	-3.018800	3.067800	-9.260400	28.285985	1.615469E-5	20.708599
2541.670410	-2.991300	3.068400	-9.178000	28.305593	1.631970E-5	20.717910
2542.670834	-3.019100	3.066100	-9.255100	28.368132	1.780481E-5	20.717818
2543.668639	-3.016600	3.065000	-9.244300	28.373929	1.750779E-5	20.729346
2544.670895	-3.006900	3.063900	-9.212600	28.405105	1.661672E-5	20.719961
2545.675265	-3.007200	3.063500	-9.212200	28.423250	1.793682E-5	20.732543
2546.669977	-3.007100	3.060900	-9.203600	28.430986	1.760680E-5	20.728478
2547.673704	-2.975900	3.061100	-9.108600	28.420578	1.945493E-5	20.726058
2548.674702	-2.978600	3.060900	-9.116600	28.443876	1.681474E-5	20.734822
2549.677432	-2.986800	3.058800	-9.135200	28.368090	1.813483E-5	20.729156
2550.676684	-2.989600	3.056300	-9.135700	28.372603	1.767280E-5	20.721847
2551.672458	-2.994800	3.056000	-9.150700	28.384058	1.612169E-5	20.729588
2552.671726	-2.992300	3.055400	-9.141000	28.319495	1.648471E-5	20.717210
2553.672176	-3.005500	3.052800	-9.174700	28.322890	1.688074E-5	20.724895
2554.672652	-2.995200	3.052700	-9.142500	28.304053	1.523062E-5	20.731534
2555.678256	-3.035300	3.050800	-9.258900	28.294928	1.975195E-5	20.737045
2556.672065	-3.030400	3.048300	-9.235900	28.249749	1.704575E-5	20.735654
2557.672914	-3.000400	3.048500	-9.145900	28.235247	1.856387E-5	20.723898
2558.674095	-3.003200	3.047400	-9.151000	28.287093	1.668273E-5	20.741011
2559.678863	-3.010500	3.047000	-9.172400	28.370249	1.684774E-5	20.744607
2560.674104	-2.973000	3.046600	-9.056000	28.345713	1.598968E-5	20.742187
2561.679704	-2.991700	3.044000	-9.106300	28.324002	1.539563E-5	20.750673
2562.679270	-2.994300	3.043200	-9.111000	28.382834	1.625370E-5	20.752064
2563.675959	-2.993100	3.043500	-9.108800	28.401578	1.975195E-5	20.749127
2564.681194	-2.968600	3.041000	-9.026900	28.381599	1.783781E-5	20.724267
2565.680165	-3.003300	3.038600	-9.124700	28.393884	1.816784E-5	20.732845
2566.675822	-3.011800	3.037400	-9.147200	28.456663	1.628670E-5	20.749121
2567.676408	-3.001000	3.036400	-9.111700	28.435052	1.529663E-5	20.711236
2568.679265	-2.995900	3.035200	-9.092100	28.460228	1.579166E-5	20.754607
2569.676194	-2.996000	3.034800	-9.091400	28.464490	1.839885E-5	20.746097
2570.675237	-3.001500	3.033600	-9.104600	28.449129	1.747479E-5	20.737266
2571.676692	-3.021200	3.030000	-9.153300	28.468103	1.714476E-5	20.728872
2572.677780	-3.009900	3.030100	-9.119700	28.464061	1.866287E-5	20.725276
2573.677626	-3.015900	3.028300	-9.131700	28.522396	1.602268E-5	20.744194
2574.677488	-2.998600	3.027900	-9.077300	28.498506	1.816784E-5	20.741946
2575.676749	-3.012500	3.026100	-9.114500	28.496849	1.889389E-5	20.731268
2576.683288	-2.991300	3.025500	-9.049200	28.545613	1.872888E-5	20.746238
2577.684310	-3.041900	3.022000	-9.191600	28.561492	1.724377E-5	20.752747
2578.681637	-3.006000	3.022900	-9.086100	28.463040	1.509861E-5	20.766922
2579.679641	-3.016700	3.020800	-9.111800	28.410199	1.678173E-5	20.757334
2580.682323	-2.987300	3.019300	-9.018100	28.388245	1.655072E-5	20.748978
2581.683208	-2.977500	3.018100	-8.985800	28.470744	1.595667E-5	20.734377
2582.680646	-3.001000	3.017900	-9.056100	28.473123	1.658372E-5	20.738669
2583.684636	-2.990700	3.015900	-9.018900	28.503226	1.631970E-5	20.751915
2584.683900	-3.038500	3.013400	-9.155100	28.488807	1.760680E-5	20.762051
2585.682801	-3.001200	3.013700	-9.043800	28.470915	1.628670E-5	20.744507
2586.682943	-2.976900	3.011900	-8.964900	28.456392	1.562665E-5	20.760703
2587.682934	-3.007800	3.009800	-9.050700	28.517308	1.523062E-5	20.774158
2588.682703	-2.979800	3.009000	-8.965000	28.529696	1.546164E-5	20.753442
2589.686150	-2.999800	3.006100	-9.016400	28.567037	1.631970E-5	20.774453
2590.683093	-2.998700	3.005800	-9.012500	28.519656	1.602268E-5	20.749495
2591.686289	-2.969900	3.004300	-8.921400	28.515963	1.503261E-5	20.761897
2592.686586	-2.995000	3.003400	-8.993900	28.558985	1.565965E-5	20.771085
2593.682452	-3.016800	3.002400	-9.057300	28.562103	1.760680E-5	20.745301
2594.682277	-3.011300	3.000200	-9.033800	28.540225	1.655072E-5	20.742709
2595.686265	-3.021500	2.998100	-9.058500	28.550632	1.645171E-5	20.759354
2596.683933	-2.977000	2.998500	-8.926200	28.454949	1.381152E-5	20.756404
2597.685392	-3.004600	2.997300	-9.004700	28.457823	1.598968E-5	20.764040
2598.689754	-3.012900	2.994900	-9.022500	28.526223	1.651772E-5	20.751841
2599.695077	-2.977400	2.995000	-8.916800	28.537321	1.433956E-5	20.784355
2600.686672	-2.956200	2.994400	-8.851200	28.541931	1.787081E-5	20.771928
2601.687449	-2.994600	2.990900	-8.954900	28.561112	1.440556E-5	20.781288
2602.689481	-2.961700	2.990600	-8.856300	28.613340	1.493360E-5	20.773671
2603.688913	-2.969200	2.989600	-8.875500	28.682274	1.638571E-5	20.780038
2604.690965	-2.985300	2.986700	-8.915200	28.672883	1.457057E-5	20.761096
2605.696034	-2.995200	2.986000	-8.942900	28.670578	1.420755E-5	20.751662
2606.688279	-2.997500	2.983200	-8.941500	28.637154	1.645171E-5	20.765413
2607.693733	-2.975300	2.983000	-8.874100	28.654719	1.483459E-5	20.776466
2608.692942	-3.031300	2.979100	-9.029200	28.679669	1.592367E-5	20.767457
2609.688702	-3.005300	2.980600	-8.956900	28.610246	1.476859E-5	20.774822
2610.692001	-3.011500	2.978000	-8.967800	28.601221	1.361350E-5	20.769052
2611.688187	-3.009700	2.977300	-8.959800	28.567502	1.450457E-5	20.768757
2612.689947	-3.010200	2.975000	-8.953600	28.473287	1.272244E-5	20.766811
2613.696725	-3.004600	2.973100	-8.931900	28.519729	1.354750E-5	20.790347
2614.694964	-3.012300	2.971900	-8.951000	28.594264	1.420755E-5	20.794288
2615.706223	-3.019000	2.968800	-8.961500	28.590944	1.387752E-5	20.760597
2616.694943	-3.005300	2.969100	-8.922200	28.563650	1.433956E-5	20.783037
2617.696695	-3.013000	2.966600	-8.937200	28.551751	1.440556E-5	20.771387
2618.695534	-2.995300	2.967100	-8.886300	28.586242	1.341549E-5	20.768665
2619.695688	-2.992100	2.965200	-8.871700	28.517253	1.348149E-5	20.761774
2620.697124	-2.984200	2.963500	-8.843100	28.558985	1.331648E-5	20.783413
2621.695819	-3.004600	2.962600	-8.900400	28.594448	1.384452E-5	20.784042
2622.697936	-2.998800	2.960600	-8.877200	28.616673	1.348149E-5	20.777502
2623.696260	-2.970600	2.960200	-8.792500	28.611378	1.440556E-5	20.785920
2624.695675	-3.008700	2.956600	-8.895600	28.602036	1.509861E-5	20.793581
2625.695525	-3.002700	2.956100	-8.875400	28.674413	1.556064E-5	20.775914
2626.695432	-3.022200	2.954300	-8.927500	28.669130	1.499960E-5	20.800939
2627.699194	-2.988200	2.953100	-8.823900	28.691629	1.737578E-5	20.778081
2628.698820	-3.032800	2.950200	-8.946100	28.770492	1.546164E-5	20.775014
2629.701200	-3.004300	2.948700	-8.858000	28.718541	1.354750E-5	20.793809
2630.698727	-2.988100	2.948100	-8.807900	28.647035	1.381152E-5	20.794806
2631.700126	-2.998700	2.945900	-8.833000	28.621442	1.437256E-5	20.778038
2632.701027	-2.993400	2.945900	-8.817200	28.532406	1.526362E-5	20.782724
2633.701184	-2.983800	2.943300	-8.781200	28.574559	1.457057E-5	20.798150
2634.707523	-3.001100	2.942400	-8.829900	28.655265	1.315147E-5	20.775120
2635.699674	-2.983700	2.940400	-8.772700	28.661134	1.361350E-5	20.779608
2636.699092	-3.004800	2.939200	-8.831200	28.695781	1.460357E-5	20.807868
2637.708248	-3.024200	2.936900	-8.881400	28.763835	1.519762E-5	20.809086
2638.707626	-3.013000	2.934300	-8.839700	28.791583	1.470258E-5	20.805269
2639.702142	-2.985600	2.934700	-8.761100	28.861025	1.466958E-5	20.808366
2640.702415	-2.996900	2.932300	-8.786600	28.881135	1.509861E-5	20.797805
2641.702147	-3.006900	2.931100	-8.812900	28.804745	1.404253E-5	20.780595
2642.701585	-2.992100	2.929900	-8.765500	28.791509	1.496660E-5	20.793341
2643.708836	-2.976500	2.927000	-8.711600	28.837620	1.407554E-5	20.786211
2644.708964	-3.003000	2.925700	-8.784300	28.754971	1.318447E-5	20.796839
2645.713622	-2.993500	2.923600	-8.751300	28.743454	1.285445E-5	20.802782
2646.704864	-3.008900	2.921000	-8.788400	28.723481	1.529663E-5	20.827234
2647.706753	-2.989700	2.920200	-8.729400	28.700397	1.315147E-5	20.805879
2648.704818	-3.003500	2.917900	-8.762700	28.682240	1.473558E-5	20.793280
2649.705189	-3.017500	2.915800	-8.797700	28.708968	1.331648E-5	20.797443
2650.709985	-2.992700	2.915800	-8.724700	28.783643	1.338248E-5	20.804383
2651.711456	-3.011400	2.912100	-8.769000	28.740905	1.387752E-5	20.808749
2652.707120	-2.994100	2.912200	-8.718700	28.740661	1.427355E-5	20.801864
2653.707130	-3.026900	2.910000	-8.807000	28.790337	1.447156E-5	20.781728
2654.706815	-2.988000	2.908500	-8.689900	28.772474	1.476859E-5	20.812573
2655.707284	-3.001700	2.906700	-8.724200	28.715761	1.519762E-5	20.821354
2656.712846	-3.011100	2.904600	-8.744600	28.719405	1.325048E-5	20.803213
2657.710444	-2.993300	2.904200	-8.691600	28.744109	1.506561E-5	20.805812
2658.707869	-3.012400	2.901000	-8.737900	28.703999	1.569265E-5	20.813300
2659.707325	-2.995700	2.900500	-8.688400	28.782439	1.592367E-5	20.823559
2660.714012	-3.009100	2.898400	-8.720800	28.787721	1.697975E-5	20.803276
2661.711547	-3.015000	2.896600	-8.732300	28.737783	1.612169E-5	20.819354
2662.713700	-3.008200	2.893800	-8.704800	28.765598	1.648471E-5	20.807069
2663.712557	-3.002600	2.892300	-8.683200	28.861173	1.582466E-5	20.802352
2664.716667	-3.009000	2.890400	-8.696200	28.909328	1.734278E-5	20.810560
2665.711141	-2.968300	2.890000	-8.577500	28.935708	1.704575E-5	20.827654
2666.709862	-2.995800	2.886600	-8.647100	28.940488	1.744178E-5	20.823460
2667.715211	-2.980600	2.885500	-8.599500	28.925751	1.862987E-5	20.809088
2668.714694	-2.983700	2.883100	-8.601600	28.907170	1.546164E-5	20.830197
2669.713472	-2.999400	2.881400	-8.641400	28.915593	1.628670E-5	20.833467
2670.713323	-2.980000	2.880500	-8.583000	28.966972	1.575866E-5	20.824064
2671.712197	-3.006800	2.877700	-8.652100	29.013807	1.730977E-5	20.818146
2672.714428	-3.015700	2.876500	-8.674000	29.004908	1.688074E-5	20.811077
2673.713877	-3.017800	2.874100	-8.672100	28.975388	1.816784E-5	20.813103
2674.713837	-3.008500	2.872500	-8.641200	28.919529	1.655072E-5	20.827949
2675.713526	-3.028800	2.870100	-8.692400	28.861857	1.453757E-5	20.820584
2676.715121	-2.995100	2.869000	-8.591600	28.855286	1.694675E-5	20.831982
2677.712586	-3.011500	2.865800	-8.628600	28.927645	1.592367E-5	20.829488
2678.713918	-3.004200	2.864500	-8.603400	28.971359	1.635270E-5	20.803828
2679.714705	-3.013400	2.863500	-8.627700	28.938488	1.618769E-5	20.839937
2680.714182	-2.998300	2.860500	-8.575800	28.872474	1.813483E-5	20.832702
2681.716201	-3.023200	2.858400	-8.641000	28.803901	1.565965E-5	20.824789
2682.719072	-3.026100	2.856900	-8.644800	28.821010	1.460357E-5	20.844869
2683.716258	-3.016800	2.854200	-8.610000	28.870787	1.503261E-5	20.831950
2684.713804	-3.016600	2.852000	-8.602600	28.907767	1.476859E-5	20.842652
2685.720539	-2.990200	2.851000	-8.524100	28.975692	1.625370E-5	20.830479
2686.716668	-3.027800	2.848900	-8.624300	28.961884	1.457057E-5	20.848809
2687.715661	-3.016100	2.847100	-8.586400	28.938872	1.450457E-5	20.857393
2688.720206	-3.012700	2.843800	-8.566600	28.981675	1.298646E-5	20.843144
2689.717917	-2.985600	2.843600	-8.488800	28.982665	1.473558E-5	20.839400
2690.718414	-2.973600	2.840900	-8.446700	28.987849	1.480159E-5	20.846045
2691.721784	-3.040800	2.839100	-8.632500	29.054870	1.334948E-5	20.845293
2692.720977	-3.006600	2.836500	-8.526600	29.027648	1.453757E-5	20.833514
2693.719245	-2.983000	2.835100	-8.456800	29.007981	1.450457E-5	20.858741
2694.725137	-3.015700	2.830800	-8.536100	29.001612	1.565965E-5	20.863704
2695.723486	-2.979600	2.829800	-8.430500	29.035300	1.476859E-5	20.840749
2696.721731	-2.957100	2.828300	-8.362200	29.022301	1.562665E-5	20.843773
2697.724921	-3.017100	2.824100	-8.519500	29.056483	1.529663E-5	20.840756
2698.724412	-2.982700	2.823100	-8.419000	29.139206	1.688074E-5	20.857252
2699.722168	-2.991900	2.820800	-8.439100	29.123702	1.859687E-5	20.850639
2700.724578	-3.011200	2.817700	-8.483900	29.137696	1.678173E-5	20.850041
2701.724758	-3.013400	2.815300	-8.482300	29.092254	1.381152E-5	20.852141
2702.725090	-3.018600	2.812000	-8.487100	29.110850	1.466958E-5	20.870878
2703.727460	-3.025300	2.810400	-8.501400	29.164273	1.526362E-5	20.840787
2704.725285	-3.001100	2.806700	-8.421900	29.153817	1.714476E-5	20.856802
2705.726802	-3.002200	2.804600	-8.419100	29.154667	1.760680E-5	20.837271
2706.735217	-2.985900	2.802200	-8.366200	29.131042	1.925692E-5	20.841914
2707.726132	-2.988300	2.800000	-8.365200	29.166766	1.668273E-5	20.863686
2708.727276	-3.006400	2.797400	-8.408900	29.173415	1.608868E-5	20.874653
2709.727525	-3.021800	2.795100	-8.445700	29.212689	1.767280E-5	20.869185
2710.725586	-3.010300	2.790600	-8.399800	29.267634	1.585767E-5	20.863865
2711.728684	-3.057000	2.788100	-8.522200	29.210758	1.496660E-5	20.869610
2712.732031	-3.001900	2.786600	-8.363900	29.187305	1.618769E-5	20.857831
2713.729125	-2.965000	2.784000	-8.253600	29.121147	1.509861E-5	20.873667
2714.728591	-2.985400	2.781900	-8.303700	29.103297	1.496660E-5	20.873224
2715.731618	-2.998800	2.778300	-8.330600	29.085360	1.615469E-5	20.865108
2716.729226	-2.990900	2.774600	-8.297800	29.071688	1.282144E-5	20.868877
2717.729230	-2.988700	2.772800	-8.286000	29.156188	1.503261E-5	20.866303
2718.730779	-3.016400	2.768900	-8.351700	29.222654	1.608868E-5	20.833237
2719.730963	-2.999400	2.767200	-8.297400	29.204133	1.697975E-5	20.868150
2720.738358	-2.996900	2.763700	-8.282000	29.243900	1.354750E-5	20.858439
2721.729044	-3.008300	2.759600	-8.301200	29.302638	1.744178E-5	20.865003
2722.728216	-2.984000	2.758900	-8.231600	29.314156	1.625370E-5	20.868076
2723.732668	-3.002700	2.755400	-8.272600	29.262567	1.526362E-5	20.866820
2724.729719	-2.993400	2.751600	-8.236100	29.252436	1.486759E-5	20.862300
2725.728227	-2.972200	2.748400	-8.167600	29.211104	1.747479E-5	20.845779
2726.730993	-2.985000	2.746000	-8.195800	29.198418	1.734278E-5	20.848642
2727.729927	-2.978900	2.743100	-8.170900	29.315756	1.496660E-5	20.842189
2728.729161	-2.990600	2.737800	-8.186700	29.268622	1.919091E-5	20.840206
2729.729461	-2.993600	2.736000	-8.189400	29.238112	1.628670E-5	20.840754
2730.731864	-2.975500	2.733200	-8.131900	29.192246	1.747479E-5	20.829621
2731.728175	-2.978600	2.728700	-8.125800	29.177524	1.882789E-5	20.843234
2732.730136	-2.985000	2.725000	-8.133700	29.285027	1.853086E-5	20.843462
2733.733193	-3.020100	2.721000	-8.216800	29.391143	1.754079E-5	20.851787
2734.731352	-2.993900	2.717500	-8.135000	29.314905	1.704575E-5	20.838960
2735.730188	-2.994600	2.714700	-8.128400	29.279148	1.925692E-5	20.862667
2736.732757	-3.012700	2.710700	-8.166000	29.269488	1.928992E-5	20.838234
2737.730982	-2.983600	2.705800	-8.072200	29.289455	1.773881E-5	20.852666
2738.732458	-2.987200	2.702500	-8.071700	29.327514	1.843186E-5	20.845031
2739.731655	-3.009300	2.698800	-8.120700	29.307779	1.922391E-5	20.850745
2740.731132	-2.988100	2.695200	-8.052500	29.382575	2.090704E-5	20.834618
2741.730523	-2.973700	2.692200	-8.004600	29.455088	2.011498E-5	20.827573
2742.735368	-2.993100	2.688900	-8.047600	29.468521	1.770580E-5	20.845380
2743.732293	-3.011200	2.682800	-8.078000	29.480428	1.994997E-5	20.848373
2744.736302	-3.018600	2.677200	-8.080300	29.464849	1.872888E-5	20.821291
2745.734257	-3.011300	2.674000	-8.051200	29.466968	2.090704E-5	20.831962
2746.733611	-2.981800	2.670200	-7.961400	29.514099	1.912491E-5	20.828735
2747.731807	-3.024000	2.663900	-8.054300	29.541845	2.127006E-5	20.816874
2748.738248	-3.017200	2.659400	-8.023300	29.601745	1.793682E-5	20.834109
2749.731985	-2.970600	2.657400	-7.892300	29.597945	1.721077E-5	20.853985
2750.733777	-2.981300	2.653100	-7.908500	29.673808	1.618769E-5	20.839902
2751.735738	-2.986800	2.647800	-7.907300	29.685486	1.800282E-5	20.826546
2752.731576	-2.996100	2.643900	-7.919500	29.597821	1.727677E-5	20.831576
2753.734195	-2.958500	2.639200	-7.806900	29.487571	1.645171E-5	20.843245
2754.738426	-3.014200	2.631400	-7.931500	29.442081	1.631970E-5	20.839119
2755.733935	-3.002500	2.628300	-7.890600	29.433858	1.714476E-5	20.835098
2756.732415	-3.002500	2.623400	-7.875700	29.505206	1.721077E-5	20.834469
2757.732888	-3.024500	2.617600	-7.915600	29.617958	1.813483E-5	20.821531
2758.737878	-3.032300	2.612400	-7.919900	29.669095	1.684774E-5	20.830885
2759.734044	-3.009900	2.608200	-7.849500	29.720401	1.800282E-5	20.829031
2760.735777	-2.990400	2.602800	-7.782900	29.648236	1.648471E-5	20.842097
2761.732792	-3.005700	2.597700	-7.806800	29.576127	1.892689E-5	20.815871
2762.735025	-3.004100	2.591800	-7.784800	29.578253	1.942193E-5	20.832238
2763.736514	-3.052700	2.585300	-7.890200	29.538583	1.955394E-5	20.827336
2764.734349	-3.006000	2.580400	-7.756000	29.633960	1.829985E-5	20.832921
2765.735725	-2.986000	2.574900	-7.687500	29.631877	1.681474E-5	20.835563
2766.739748	-2.971100	2.568700	-7.631100	29.680387	1.529663E-5	20.827096
2767.735165	-2.998900	2.561800	-7.681600	29.745654	1.585767E-5	20.848327
2768.738218	-2.983700	2.557700	-7.630400	29.769980	1.556064E-5	20.828758
2769.737329	-3.038800	2.548900	-7.744800	29.720851	1.605568E-5	20.826640
2770.736251	-2.992600	2.545200	-7.615400	29.637502	1.635270E-5	20.833173
2771.736629	-3.013300	2.538300	-7.647900	29.652644	1.483459E-5	20.826627
2772.742798	-3.003400	2.532600	-7.605300	29.639645	1.717776E-5	20.823480
2773.737168	-2.995800	2.526200	-7.567800	29.697488	1.760680E-5	20.825370
2774.738006	-3.003800	2.519900	-7.568300	29.781442	1.816784E-5	20.818978
2775.742240	-3.019000	2.513700	-7.587600	29.814775	1.787081E-5	20.837414
2776.739079	-2.983900	2.509200	-7.485800	29.798219	1.879488E-5	20.819773
2777.748028	-2.989100	2.502600	-7.479800	29.846697	1.615469E-5	20.836885
2778.744190	-2.985900	2.495400	-7.450200	29.876095	1.671573E-5	20.815794
