LabVIEW Measurement	
Writer_Version	2
Reader_Version	2
Separator	Tab
Decimal_Separator	.
Multi_Headings	No
X_Columns	One
Time_Pref	Absolute
Operator	admin
Description	Clolumns are: time, Current, Voltage, Power, Battery Temp, and Chamber Temp
Date	2024/08/16
Time	13:07:17.8513970375061035156
***End_of_Header***	
	
Channels	6						
Samples	1	1	1	1	1	1	
Date	2024/08/30	2024/08/30	2024/08/30	2024/08/30	2024/08/30	2024/08/30	
Time	02:38:45.2177209854125976563	02:38:45.2225894927978515625	02:38:45.2308511734008789063	02:38:45.2013225555419921875	02:38:45.2013225555419921875	02:38:45.2013225555419921875	
X_Dimension	Time	Time	Time	Time	Time	Time	
X0	0.0000000000000000E+0	0.0000000000000000E+0	0.0000000000000000E+0	0.0000000000000000E+0	0.0000000000000000E+0	0.0000000000000000E+0	
Delta_X	1.000000	1.000000	1.000000	1.000000	1.000000	1.000000	
***End_of_Header***							
X_Value	Untitled	Untitled 1	Untitled 2	Untitled 3	Untitled 4	Untitled 5	Comment
0.000000	0.017333	4.090200	0.071014	20.983675	0.000475	20.995053
0.999377	-3.019800	3.927200	-11.859000	20.986708	0.000476	20.987183
1.999775	-3.004600	3.921700	-11.782000	20.994664	0.000476	20.979968
3.000074	-2.996200	3.917300	-11.736000	20.979805	0.000475	20.958945
4.001002	-2.996900	3.913600	-11.728000	20.996209	0.000473	20.963024
5.002740	-2.996200	3.910200	-11.715000	21.009568	0.000473	20.981597
5.999963	-3.011600	3.907100	-11.765000	21.030433	0.000473	20.971649
7.000823	-3.021600	3.905600	-11.800000	21.009575	0.000471	20.984449
8.004481	-2.992000	3.904300	-11.681000	21.030115	0.000471	21.001197
9.001283	-3.018600	3.900900	-11.774000	21.035804	0.000470	20.971330
10.002074	-2.985200	3.901000	-11.644000	21.038830	0.000469	20.980045
11.003720	-2.978500	3.900000	-11.616000	21.060851	0.000472	20.974571
12.001621	-3.014100	3.896500	-11.744000	21.048999	0.000471	20.957030
13.002265	-3.006100	3.896300	-11.712000	21.048025	0.000468	20.970278
14.002140	-3.005300	3.896200	-11.708000	21.055325	0.000468	20.964778
15.001985	-3.007200	3.894600	-11.711000	21.061409	0.000468	20.940521
16.001627	-3.009700	3.894100	-11.720000	21.055825	0.000465	20.951529
17.002556	-2.994000	3.892700	-11.654000	21.068650	0.000465	20.965778
18.002665	-3.002800	3.890800	-11.681000	21.116339	0.000466	20.973175
19.002463	-3.028700	3.887700	-11.773000	21.095163	0.000465	20.965745
20.002673	-3.007700	3.889500	-11.698000	21.089767	0.000465	20.956556
21.003556	-2.995400	3.888900	-11.648000	21.098611	0.000465	20.953549
22.010270	-3.012900	3.886500	-11.709000	21.122864	0.000464	20.955049
23.005650	-3.010400	3.887300	-11.701000	21.117176	0.000463	20.965005
24.004778	-3.008300	3.886800	-11.691000	21.142221	0.000463	20.953549
25.006159	-2.983600	3.886900	-11.596000	21.145143	0.000462	20.940826
26.005137	-2.993100	3.885600	-11.628000	21.154071	0.000462	20.938852
27.004657	-2.987300	3.886900	-11.610000	21.147513	0.000463	20.955997
28.005741	-2.998700	3.884300	-11.647000	21.148221	0.000463	20.951490
29.013338	-3.004900	3.882600	-11.665000	21.172324	0.000461	20.959004
30.005801	-2.996400	3.883300	-11.635000	21.161922	0.000461	20.949074
31.006186	-2.999500	3.883500	-11.647000	21.197575	0.000461	20.938748
32.006300	-3.009200	3.882500	-11.682000	21.179453	0.000460	20.945275
33.005634	-2.992600	3.882300	-11.617000	21.203101	0.000461	20.960868
34.005750	-2.984400	3.881400	-11.583000	21.195238	0.000463	20.953952
35.005547	-2.990200	3.880600	-11.603000	21.216139	0.000459	20.929344
36.006680	-2.996600	3.878900	-11.622000	21.220619	0.000459	20.947100
37.006100	-3.005500	3.879500	-11.659000	21.235916	0.000460	20.934429
38.008179	-2.988800	3.880200	-11.596000	21.232365	0.000459	20.927558
39.009235	-2.992500	3.880300	-11.611000	21.270256	0.000461	20.956452
40.011986	-2.996000	3.878400	-11.618000	21.263095	0.000458	20.953555
41.009122	-3.012700	3.877600	-11.681000	21.279917	0.000459	20.946204
42.010145	-2.983300	3.877800	-11.568000	21.266516	0.000460	20.941807
43.012096	-3.013400	3.877500	-11.683000	21.286819	0.000456	20.927980
44.008813	-3.005600	3.876800	-11.651000	21.290799	0.000457	20.946659
45.009748	-2.993100	3.878600	-11.608000	21.293220	0.000457	20.950977
46.013012	-2.997800	3.875900	-11.619000	21.302881	0.000456	20.937884
47.009037	-2.996000	3.876000	-11.612000	21.305562	0.000457	20.932507
48.008689	-2.995400	3.876100	-11.610000	21.320599	0.000458	20.940437
49.012685	-3.007200	3.876100	-11.656000	21.341952	0.000454	20.945204
50.009513	-2.998000	3.875400	-11.617000	21.361350	0.000455	20.935689
51.008633	-3.001700	3.874600	-11.629000	21.346847	0.000456	20.936826
52.010860	-2.999600	3.875300	-11.622000	21.367018	0.000456	20.944203
53.009836	-2.982000	3.874300	-11.550000	21.354326	0.000457	20.947626
54.009731	-2.994300	3.875700	-11.604000	21.374893	0.000455	20.937859
55.011099	-2.996500	3.875000	-11.611000	21.362486	0.000455	20.935877
56.012239	-3.008300	3.872900	-11.650000	21.394083	0.000455	20.932877
57.009980	-2.992200	3.872900	-11.587000	21.393427	0.000455	20.935066
58.012621	-3.001000	3.873500	-11.624000	21.411332	0.000454	20.922635
59.010902	-3.027300	3.872600	-11.723000	21.415675	0.000457	20.937410
60.010979	-3.021300	3.872200	-11.698000	21.423335	0.000455	20.933221
61.013725	-3.005600	3.872800	-11.640000	21.423394	0.000453	20.912894
62.014003	-2.999100	3.872800	-11.614000	21.440214	0.000454	20.924980
63.012239	-3.010500	3.872900	-11.659000	21.464518	0.000455	20.929858
64.016897	-3.018700	3.871800	-11.687000	21.447900	0.000457	20.938359
65.014497	-2.979900	3.872400	-11.538000	21.461383	0.000455	20.930988
66.015570	-2.978300	3.873100	-11.534000	21.471575	0.000455	20.923642
67.017175	-2.986500	3.871500	-11.561000	21.472892	0.000455	20.928754
68.014382	-3.002100	3.871800	-11.622000	21.467673	0.000456	20.914524
69.014946	-3.013400	3.870900	-11.664000	21.491581	0.000456	20.919005
70.017200	-2.990100	3.870700	-11.573000	21.513885	0.000456	20.932313
71.017081	-2.998300	3.871100	-11.605000	21.512087	0.000454	20.928617
72.017432	-2.990100	3.869900	-11.571000	21.519124	0.000455	20.915271
73.017066	-2.997600	3.869900	-11.599000	21.529620	0.000456	20.928143
74.017378	-2.990100	3.869700	-11.570000	21.504505	0.000456	20.917239
75.016672	-3.009600	3.869500	-11.645000	21.523966	0.000456	20.932917
76.016912	-3.012600	3.869000	-11.655000	21.544731	0.000456	20.955588
77.017714	-2.986200	3.869900	-11.556000	21.556506	0.000456	20.919012
78.017455	-2.999900	3.868900	-11.605000	21.564399	0.000456	20.924065
79.022496	-3.010000	3.870200	-11.649000	21.566113	0.000457	20.926727
80.018546	-2.994300	3.868300	-11.582000	21.568852	0.000457	20.919512
81.019365	-3.011200	3.868700	-11.649000	21.592991	0.000458	20.951251
82.018709	-2.995200	3.867100	-11.582000	21.607920	0.000455	20.922097
83.019859	-2.995100	3.868100	-11.585000	21.609283	0.000458	20.931046
84.020301	-3.011300	3.867800	-11.646000	21.595490	0.000456	20.934787
85.017912	-3.006900	3.867700	-11.629000	21.631715	0.000457	20.933579
86.021040	-2.990900	3.867700	-11.567000	21.626925	0.000457	20.932105
87.019392	-3.009500	3.867500	-11.639000	21.633714	0.000458	20.924675
88.020651	-3.010100	3.867300	-11.640000	21.638685	0.000457	20.920168
89.019809	-3.035800	3.866500	-11.736000	21.636609	0.000456	20.907185
90.020769	-2.989600	3.867500	-11.562000	21.652095	0.000455	20.931690
91.022490	-2.997800	3.868100	-11.595000	21.670736	0.000458	20.928060
92.019921	-2.985700	3.868300	-11.548000	21.670541	0.000457	20.934502
93.019422	-2.998700	3.867000	-11.595000	21.690895	0.000458	20.916467
94.024580	-3.013900	3.867100	-11.654000	21.704531	0.000457	20.926793
95.023801	-2.980300	3.867100	-11.523000	21.683580	0.000455	20.925741
96.022988	-2.992500	3.867300	-11.571000	21.697483	0.000457	20.929222
97.022925	-2.980400	3.865700	-11.520000	21.709561	0.000458	20.922819
98.022813	-3.004100	3.865100	-11.610000	21.712111	0.000458	20.919682
99.023474	-2.996200	3.865500	-11.581000	21.738409	0.000459	20.902854
100.023667	-2.984900	3.865600	-11.537000	21.731328	0.000457	20.914733
101.025148	-2.997500	3.865200	-11.585000	21.760883	0.000457	20.922500
102.024854	-2.991200	3.865200	-11.560000	21.742388	0.000457	20.932437
103.027253	-2.995500	3.864900	-11.576000	21.763966	0.000458	20.922267
104.023966	-3.004500	3.864600	-11.610000	21.753913	0.000458	20.919792
105.026610	-2.996500	3.864400	-11.578000	21.756101	0.000456	20.926248
106.026660	-2.996200	3.864100	-11.576000	21.783871	0.000458	20.912317
107.026835	-2.999200	3.865100	-11.592000	21.795688	0.000459	20.921773
108.027420	-2.985900	3.864300	-11.538000	21.808239	0.000458	20.907784
109.028554	-3.001600	3.863100	-11.595000	21.802061	0.000456	20.914402
110.030651	-2.996600	3.863400	-11.577000	21.831115	0.000457	20.915506
111.027980	-3.008100	3.863900	-11.623000	21.834931	0.000457	20.916006
112.028726	-2.997400	3.863500	-11.580000	21.818168	0.000458	20.922462
113.027917	-2.993400	3.865000	-11.568000	21.822795	0.000458	20.924722
114.029120	-3.002100	3.863400	-11.597000	21.848598	0.000457	20.916884
115.034282	-2.997500	3.863900	-11.581000	21.862484	0.000460	20.921773
116.030150	-2.995800	3.864200	-11.576000	21.875677	0.000459	20.904161
117.029740	-3.022600	3.861100	-11.669000	21.860434	0.000460	20.919247
118.034723	-2.996100	3.861500	-11.568000	21.876177	0.000458	20.920306
119.030019	-3.007300	3.861800	-11.612000	21.871414	0.000461	20.908428
120.029693	-3.005900	3.861600	-11.607000	21.908389	0.000462	20.902764
121.043979	-3.003400	3.861900	-11.597000	21.909829	0.000459	20.904206
122.030537	-3.009600	3.862700	-11.624000	21.934656	0.000459	20.900608
123.030206	-3.015700	3.862100	-11.646000	21.919043	0.000461	20.910584
124.033030	-3.012400	3.861400	-11.631000	21.914780	0.000463	20.902050
125.030473	-3.014200	3.861300	-11.638000	21.922522	0.000461	20.914539
126.031655	-2.999100	3.860800	-11.578000	21.947783	0.000461	20.900946
127.033498	-3.004200	3.861300	-11.600000	21.940755	0.000460	20.897231
128.031382	-3.002400	3.860100	-11.589000	21.931833	0.000463	20.897783
129.030997	-2.985100	3.859700	-11.521000	21.972647	0.000461	20.901179
130.035093	-2.995500	3.861100	-11.565000	21.981043	0.000462	20.914324
131.031700	-3.011400	3.859000	-11.620000	21.964835	0.000463	20.902368
132.031703	-2.992800	3.860000	-11.552000	21.996700	0.000461	20.916721
133.034351	-2.989300	3.860000	-11.538000	21.994513	0.000464	20.903628
134.031816	-3.005600	3.858700	-11.596000	22.007257	0.000464	20.887463
135.032332	-2.997700	3.860100	-11.570000	22.020590	0.000463	20.906972
136.036036	-2.998400	3.859600	-11.572000	22.016516	0.000462	20.897205
137.033426	-3.004100	3.860400	-11.597000	22.005466	0.000462	20.902264
138.034863	-2.992300	3.859800	-11.549000	22.017093	0.000465	20.908687
139.058491	-3.024800	3.857500	-11.667000	22.003228	0.000463	20.892438
140.033473	-3.007000	3.858800	-11.602000	22.021252	0.000462	20.900523
141.035491	-2.995600	3.859100	-11.559000	22.012493	0.000463	20.906453
142.040157	-2.988200	3.858300	-11.529000	22.025586	0.000465	20.909602
143.036639	-2.984900	3.857900	-11.514000	22.037674	0.000465	20.890885
144.038332	-2.994200	3.859100	-11.553000	22.041353	0.000465	20.874655
145.040000	-2.979300	3.858400	-11.495000	22.054245	0.000465	20.902731
146.037596	-3.000400	3.856700	-11.571000	22.078219	0.000468	20.903498
147.036707	-2.992500	3.856900	-11.542000	22.108568	0.000466	20.904010
148.039771	-2.993800	3.857900	-11.549000	22.090500	0.000466	20.891612
149.039369	-2.984000	3.859300	-11.515000	22.109419	0.000467	20.871199
150.039385	-3.021300	3.856600	-11.650000	22.110081	0.000468	20.901731
151.043374	-3.005500	3.856900	-11.592000	22.141838	0.000467	20.897964
152.040010	-2.997400	3.856700	-11.559000	22.161086	0.000469	20.890209
153.040897	-2.998700	3.857800	-11.567000	22.165563	0.000467	20.900854
154.042936	-3.005200	3.858400	-11.595000	22.143966	0.000470	20.903413
155.041242	-3.010200	3.855700	-11.606000	22.172485	0.000469	20.885026
156.040032	-3.015900	3.855500	-11.627000	22.200829	0.000468	20.887800
157.044563	-2.982900	3.857200	-11.505000	22.191480	0.000470	20.894561
158.041413	-2.984000	3.855100	-11.502000	22.165038	0.000469	20.907914
159.043644	-2.985700	3.855300	-11.509000	22.187873	0.000469	20.884312
160.045890	-3.007800	3.855200	-11.594000	22.189800	0.000470	20.893353
161.042147	-3.011900	3.854800	-11.609000	22.210157	0.000472	20.911362
162.042698	-3.001800	3.855600	-11.573000	22.220835	0.000470	20.908303
163.045445	-2.994000	3.855300	-11.542000	22.223358	0.000475	20.897554
164.042420	-3.004700	3.855100	-11.582000	22.209022	0.000472	20.886994
165.043982	-3.001800	3.853900	-11.567000	22.251266	0.000474	20.898470
166.045349	-2.993500	3.855400	-11.540000	22.255301	0.000473	20.892554
167.047098	-3.026300	3.853500	-11.661000	22.268917	0.000474	20.900496
168.044701	-2.987700	3.854400	-11.514000	22.258765	0.000471	20.873264
169.048859	-2.977500	3.853900	-11.474000	22.265310	0.000473	20.869860
170.048309	-2.996100	3.853800	-11.546000	22.251207	0.000474	20.883713
171.048490	-3.004700	3.853900	-11.579000	22.229275	0.000473	20.886883
172.052596	-3.009700	3.853500	-11.597000	22.259997	0.000474	20.885402
173.049126	-3.003700	3.852900	-11.571000	22.270330	0.000474	20.889584
174.048505	-3.006900	3.852800	-11.583000	22.262805	0.000473	20.885843
175.052989	-2.991600	3.853300	-11.527000	22.284141	0.000474	20.882551
176.050681	-3.014900	3.851600	-11.612000	22.305320	0.000475	20.879576
177.051627	-2.994600	3.852000	-11.534000	22.314817	0.000474	20.890981
178.053207	-3.012100	3.853300	-11.605000	22.336703	0.000472	20.891085
179.049899	-3.008100	3.852300	-11.587000	22.349740	0.000476	20.897027
180.051010	-2.996100	3.852500	-11.541000	22.347930	0.000475	20.889526
181.054967	-2.987300	3.853100	-11.509000	22.363900	0.000477	20.875172
182.052125	-2.989300	3.852100	-11.515000	22.335904	0.000476	20.871795
183.054205	-3.012800	3.851600	-11.603000	22.363135	0.000477	20.881518
184.057731	-3.012500	3.850800	-11.600000	22.374077	0.000476	20.870665
185.053133	-3.003300	3.852100	-11.568000	22.351135	0.000476	20.875666
186.053661	-3.025500	3.849600	-11.645000	22.392751	0.000476	20.880829
187.057270	-2.995400	3.850100	-11.532000	22.363446	0.000478	20.878510
188.055650	-3.000500	3.852400	-11.557000	22.388801	0.000478	20.877347
189.054047	-2.982700	3.851600	-11.487000	22.405321	0.000477	20.880614
190.057932	-2.997400	3.850800	-11.542000	22.387724	0.000479	20.879114
191.053761	-3.017900	3.850800	-11.620000	22.389462	0.000477	20.859993
192.056720	-3.001400	3.849100	-11.551000	22.412774	0.000477	20.861052
193.060223	-2.972600	3.850400	-11.444000	22.369154	0.000480	20.879959
194.056051	-2.995600	3.850800	-11.535000	22.389858	0.000480	20.883622
195.058207	-2.981100	3.850600	-11.478000	22.413014	0.000480	20.859396
196.059951	-3.003900	3.847900	-11.557000	22.408805	0.000479	20.870827
197.056805	-2.992700	3.849500	-11.520000	22.426356	0.000480	20.846680
198.059452	-3.002700	3.847900	-11.554000	22.433744	0.000481	20.882050
199.059684	-3.015000	3.848000	-11.601000	22.458819	0.000481	20.877290
200.058385	-3.003200	3.848700	-11.557000	22.426038	0.000480	20.876231
201.059649	-3.006500	3.847500	-11.567000	22.444290	0.000480	20.853733
202.061038	-2.995300	3.848400	-11.526000	22.446294	0.000481	20.878972
203.060244	-3.006500	3.848300	-11.569000	22.460291	0.000482	20.869756
204.062610	-3.015000	3.846900	-11.598000	22.474080	0.000483	20.866022
205.063049	-3.007300	3.846800	-11.567000	22.483964	0.000482	20.881135
206.062346	-3.005000	3.847600	-11.562000	22.522761	0.000483	20.861196
207.062700	-2.983700	3.847900	-11.481000	22.536620	0.000483	20.859903
208.063460	-2.986800	3.847900	-11.492000	22.550875	0.000482	20.851895
209.060772	-3.015100	3.844800	-11.592000	22.520886	0.000486	20.858844
210.062108	-2.996600	3.846500	-11.526000	22.528915	0.000485	20.850765
211.063549	-2.993300	3.846600	-11.513000	22.531042	0.000484	20.867593
212.061472	-2.986800	3.846900	-11.488000	22.529674	0.000486	20.850102
213.062600	-3.013100	3.846000	-11.586000	22.542716	0.000485	20.866008
214.063680	-2.999400	3.845300	-11.533000	22.538481	0.000486	20.858448
215.064407	-3.001600	3.845900	-11.544000	22.553715	0.000488	20.841938
216.064468	-3.008700	3.844700	-11.567000	22.561316	0.000485	20.832481
217.065209	-3.004100	3.845500	-11.551000	22.562684	0.000489	20.839542
218.065303	-3.017800	3.845800	-11.605000	22.567451	0.000487	20.859962
219.064990	-2.985100	3.845000	-11.476000	22.593087	0.000487	20.857188
220.066331	-3.019000	3.844900	-11.607000	22.626399	0.000488	20.872061
221.065600	-2.995300	3.845100	-11.516000	22.628378	0.000487	20.842750
222.065395	-2.988900	3.845600	-11.493000	22.600291	0.000488	20.832637
223.065860	-2.984700	3.844300	-11.473000	22.592872	0.000488	20.827577
224.065895	-2.988500	3.844500	-11.488000	22.633948	0.000487	20.860182
225.067693	-3.001500	3.844400	-11.538000	22.637923	0.000487	20.867482
226.068057	-3.005600	3.844400	-11.554000	22.630745	0.000489	20.847491
227.068501	-3.012800	3.842800	-11.577000	22.637897	0.000488	20.847069
228.067998	-3.009800	3.843800	-11.568000	22.648571	0.000489	20.870561
229.068666	-2.995400	3.842400	-11.508000	22.690073	0.000490	20.844802
230.068441	-3.008400	3.842900	-11.560000	22.696538	0.000489	20.836105
231.068806	-2.995900	3.842100	-11.510000	22.673764	0.000490	20.848855
232.072602	-3.009000	3.841400	-11.558000	22.666216	0.000492	20.864053
233.068388	-2.997200	3.842300	-11.514000	22.671449	0.000491	20.845588
234.068713	-3.001500	3.841700	-11.531000	22.673868	0.000491	20.834735
235.069759	-2.998400	3.842500	-11.521000	22.668206	0.000493	20.850400
236.067657	-3.001500	3.841100	-11.528000	22.696797	0.000493	20.843951
237.068601	-2.986600	3.842300	-11.475000	22.689327	0.000492	20.844529
238.068871	-3.003100	3.841700	-11.536000	22.699371	0.000492	20.839417
239.067729	-2.998800	3.841200	-11.518000	22.686675	0.000493	20.827648
240.067312	-2.999400	3.840600	-11.518000	22.741681	0.000492	20.832013
241.074265	-3.007100	3.840200	-11.546000	22.739126	0.000496	20.841307
242.069478	-3.005900	3.840800	-11.544000	22.751096	0.000494	20.846185
243.069929	-2.998900	3.839400	-11.513000	22.732370	0.000494	20.842125
244.073870	-2.998300	3.841000	-11.515000	22.777700	0.000495	20.843437
245.072011	-2.998300	3.839600	-11.510000	22.774127	0.000496	20.833695
246.069968	-2.989800	3.839500	-11.479000	22.752957	0.000495	20.845678
247.073881	-3.004700	3.839400	-11.536000	22.777207	0.000495	20.843892
248.074035	-3.001500	3.839200	-11.523000	22.781117	0.000497	20.831688
249.074791	-3.018100	3.837400	-11.581000	22.813964	0.000499	20.813385
250.078762	-3.006400	3.838200	-11.538000	22.796108	0.000497	20.818256
251.071786	-3.004400	3.838300	-11.531000	22.795232	0.000497	20.828284
252.072473	-2.995900	3.839400	-11.502000	22.782433	0.000497	20.830161
253.078845	-3.006600	3.838400	-11.539000	22.812453	0.000498	20.825147
254.072297	-2.986900	3.838100	-11.463000	22.791782	0.000498	20.840949
255.071913	-2.988600	3.838400	-11.470000	22.811332	0.000499	20.843937
256.077583	-3.006300	3.837100	-11.534000	22.815241	0.000499	20.837422
257.072208	-2.979800	3.837400	-11.434000	22.807960	0.000500	20.792671
258.075028	-3.000000	3.837200	-11.510000	22.824941	0.000500	20.817742
259.077839	-2.994900	3.838100	-11.494000	22.834621	0.000500	20.832655
260.081172	-2.988500	3.836400	-11.465000	22.832806	0.000502	20.831310
261.077217	-3.017400	3.836100	-11.574000	22.868141	0.000499	20.831622
262.078953	-2.987800	3.836800	-11.462000	22.862480	0.000499	20.840650
263.073915	-3.008900	3.835800	-11.540000	22.856198	0.000499	20.818709
264.076921	-3.014800	3.835400	-11.561000	22.847413	0.000503	20.831719
265.077204	-2.995500	3.834700	-11.486000	22.863738	0.000503	20.810616
266.074312	-2.994500	3.834400	-11.481000	22.871888	0.000504	20.825893
267.077661	-3.005300	3.834000	-11.521000	22.873430	0.000502	20.817481
268.076908	-3.008500	3.834400	-11.535000	22.882196	0.000503	20.839539
269.075185	-2.972100	3.834800	-11.397000	22.926101	0.000504	20.829945
270.079086	-2.975900	3.835900	-11.414000	22.928623	0.000505	20.831524
271.087265	-2.983700	3.835600	-11.444000	22.926522	0.000505	20.854548
272.075537	-2.984600	3.835900	-11.448000	22.937803	0.000505	20.844514
273.077077	-2.983800	3.834500	-11.440000	22.941978	0.000504	20.825938
274.082664	-3.003500	3.834000	-11.515000	22.912129	0.000507	20.835388
275.075305	-2.994800	3.833300	-11.479000	22.900031	0.000505	20.830854
276.078069	-2.996800	3.833900	-11.488000	22.926457	0.000504	20.845474
277.084211	-3.006600	3.833000	-11.523000	22.945147	0.000505	20.840018
278.075485	-3.002500	3.832300	-11.506000	22.933996	0.000506	20.847338
279.077913	-2.991000	3.833500	-11.465000	22.967442	0.000506	20.832010
280.077827	-3.022500	3.831500	-11.579000	23.000089	0.000507	20.832477
281.078121	-3.011800	3.831800	-11.540000	22.971928	0.000509	20.826073
282.080210	-3.018100	3.831700	-11.564000	22.992913	0.000506	20.839986
283.081177	-2.993700	3.831600	-11.471000	23.006138	0.000508	20.831899
284.078980	-3.020600	3.831800	-11.574000	23.021748	0.000508	20.829048
285.081748	-3.010100	3.830200	-11.528000	23.045117	0.000507	20.840135
286.081908	-3.019400	3.830000	-11.563000	23.041390	0.000509	20.852521
287.080981	-3.013500	3.830500	-11.542000	23.069070	0.000509	20.829522
288.081190	-3.012300	3.830600	-11.537000	23.102265	0.000509	20.825800
289.081537	-3.000300	3.831300	-11.494000	23.084737	0.000508	20.839531
290.079849	-3.039900	3.829000	-11.638000	23.090830	0.000510	20.820506
291.080022	-3.012500	3.830800	-11.539000	23.065854	0.000508	20.854274
292.081654	-2.999300	3.829800	-11.486000	23.052105	0.000511	20.845239
293.080317	-2.992300	3.829500	-11.458000	23.061861	0.000510	20.825618
294.081426	-3.029400	3.828300	-11.596000	23.077943	0.000511	20.843154
295.080415	-3.010300	3.829400	-11.526000	23.097448	0.000510	20.820974
296.081469	-3.011800	3.828600	-11.530000	23.085015	0.000510	20.854033
297.080877	-2.989600	3.830100	-11.449000	23.086117	0.000511	20.827638
298.080523	-2.973100	3.829900	-11.385000	23.085164	0.000510	20.842329
299.080722	-3.002000	3.828300	-11.492000	23.085618	0.000510	20.846103
300.082860	-3.010300	3.828000	-11.522000	23.060376	0.000514	20.838828
301.079677	-3.015400	3.828400	-11.543000	23.052085	0.000514	20.843323
302.079596	-3.001700	3.828000	-11.489000	23.076335	0.000513	20.846285
303.079137	-3.000400	3.827400	-11.483000	23.078824	0.000514	20.841667
304.080717	-3.000600	3.827800	-11.485000	23.075881	0.000516	20.846778
305.080702	-3.006600	3.826800	-11.505000	23.089468	0.000515	20.848064
306.081141	-3.002000	3.826300	-11.486000	23.121593	0.000516	20.839952
307.080868	-3.000900	3.826900	-11.484000	23.121567	0.000517	20.849883
308.082664	-3.003800	3.826200	-11.492000	23.153607	0.000516	20.834100
309.082163	-3.007000	3.825800	-11.504000	23.161573	0.000514	20.844927
310.084389	-2.985200	3.826000	-11.421000	23.141441	0.000515	20.844193
311.085975	-2.998900	3.825900	-11.473000	23.165495	0.000517	20.852175
312.085629	-2.986500	3.825500	-11.424000	23.155889	0.000516	20.841601
313.085267	-2.997100	3.825900	-11.466000	23.189587	0.000517	20.854032
314.086233	-3.008300	3.825600	-11.507000	23.196056	0.000516	20.851980
315.087341	-3.004200	3.824800	-11.490000	23.242767	0.000517	20.850428
316.088071	-2.996500	3.823900	-11.456000	23.208798	0.000519	20.866645
317.088007	-2.997300	3.823600	-11.460000	23.196477	0.000520	20.850980
318.087245	-3.027800	3.824300	-11.578000	23.190689	0.000519	20.848499
319.087889	-2.999400	3.824000	-11.470000	23.230278	0.000517	20.859248
320.088433	-3.004100	3.825100	-11.490000	23.223764	0.000517	20.847979
321.091581	-3.009100	3.823300	-11.504000	23.256585	0.000517	20.861430
322.090680	-3.017800	3.822100	-11.534000	23.237829	0.000520	20.848798
323.089938	-2.996500	3.822200	-11.452000	23.259405	0.000522	20.846239
324.089701	-3.002400	3.822900	-11.476000	23.222973	0.000520	20.845290
325.090656	-3.006900	3.823000	-11.495000	23.211955	0.000521	20.844680
326.090173	-3.036700	3.821200	-11.602000	23.262768	0.000520	20.856721
327.088618	-2.989200	3.822100	-11.424000	23.282426	0.000519	20.881161
328.094388	-3.002100	3.821300	-11.471000	23.265970	0.000520	20.874153
329.092836	-3.036300	3.822200	-11.604000	23.232806	0.000521	20.860359
330.090359	-2.997300	3.820700	-11.451000	23.237297	0.000522	20.870549
331.091834	-3.021800	3.819200	-11.540000	23.279114	0.000521	20.872153
332.092488	-2.994900	3.821800	-11.445000	23.266443	0.000521	20.866093
333.090214	-3.004600	3.820600	-11.479000	23.272671	0.000522	20.867119
334.089953	-3.003500	3.820700	-11.475000	23.283028	0.000523	20.859956
335.093167	-2.995300	3.820600	-11.443000	23.291512	0.000522	20.867509
336.094281	-3.002200	3.821700	-11.472000	23.321402	0.000522	20.861430
337.093410	-2.996700	3.820500	-11.448000	23.312354	0.000525	20.879388
338.093812	-2.991100	3.820200	-11.425000	23.314856	0.000525	20.880947
339.092782	-2.995200	3.820900	-11.443000	23.337267	0.000524	20.875432
340.092009	-2.993400	3.818800	-11.430000	23.319373	0.000525	20.860819
341.093546	-3.023800	3.817100	-11.541000	23.351226	0.000524	20.865716
342.091649	-3.007500	3.818000	-11.482000	23.349068	0.000524	20.865450
343.096194	-3.026800	3.819000	-11.558000	23.353721	0.000526	20.876751
344.095660	-3.014400	3.816800	-11.504000	23.358005	0.000525	20.871087
345.094289	-2.998300	3.818000	-11.447000	23.373876	0.000527	20.878933
346.096740	-3.007000	3.817200	-11.477000	23.398501	0.000526	20.882278
347.093927	-3.012300	3.817900	-11.500000	23.407781	0.000526	20.868346
348.094133	-2.980500	3.817900	-11.379000	23.384199	0.000528	20.877426
349.094406	-2.998200	3.818100	-11.447000	23.383201	0.000526	20.876900
350.094436	-2.995800	3.816700	-11.433000	23.382546	0.000526	20.862969
351.098277	-2.995600	3.817500	-11.435000	23.391664	0.000527	20.868314
352.096745	-3.015500	3.816000	-11.507000	23.371814	0.000528	20.883979
353.096370	-3.014400	3.814800	-11.499000	23.377336	0.000527	20.892357
354.097118	-3.025300	3.815800	-11.543000	23.377705	0.000529	20.882297
355.094323	-3.018600	3.816000	-11.518000	23.415758	0.000527	20.904314
356.096636	-3.011800	3.815600	-11.491000	23.434551	0.000529	20.860091
357.099516	-3.002700	3.814100	-11.452000	23.427999	0.000526	20.892877
358.098396	-2.982000	3.816700	-11.380000	23.450699	0.000529	20.889551
359.097831	-2.982300	3.815600	-11.378000	23.444212	0.000531	20.886369
360.099837	-2.967700	3.814500	-11.319000	23.459635	0.000530	20.895663
361.099854	-2.995200	3.813600	-11.421000	23.469277	0.000529	20.911964
362.098289	-2.989300	3.814500	-11.402000	23.491613	0.000532	20.895474
363.098699	-2.985600	3.814100	-11.386000	23.523118	0.000531	20.901449
364.098284	-2.984900	3.814600	-11.385000	23.504255	0.000530	20.900559
365.098332	-2.975400	3.812800	-11.344000	23.503069	0.000530	20.874717
366.100812	-2.994900	3.811500	-11.413000	23.501171	0.000530	20.876132
367.098748	-3.009900	3.811600	-11.472000	23.492501	0.000531	20.883563
368.098496	-2.987400	3.812600	-11.389000	23.512808	0.000530	20.906287
369.103760	-2.999000	3.812000	-11.431000	23.503289	0.000530	20.894850
370.100901	-3.003700	3.812300	-11.450000	23.528651	0.000534	20.893720
371.101339	-2.998500	3.812100	-11.429000	23.518523	0.000533	20.916282
372.103011	-3.002700	3.811600	-11.444000	23.502894	0.000531	20.899669
373.101655	-3.007400	3.811200	-11.461000	23.508375	0.000532	20.903741
374.103457	-3.004100	3.811000	-11.448000	23.540385	0.000532	20.898370
375.105124	-3.016500	3.811000	-11.495000	23.536938	0.000535	20.900604
376.103716	-2.994200	3.811800	-11.412000	23.541771	0.000533	20.911138
377.103337	-3.006300	3.812300	-11.460000	23.557089	0.000533	20.907053
378.106335	-3.006100	3.811400	-11.457000	23.547895	0.000532	20.906371
379.102509	-3.014900	3.810100	-11.486000	23.531151	0.000533	20.904286
380.103873	-3.028600	3.809500	-11.536000	23.524030	0.000534	20.894778
381.105789	-3.004800	3.809900	-11.447000	23.514200	0.000533	20.920484
382.109139	-3.006700	3.808900	-11.451000	23.560711	0.000535	20.910683
383.103985	-3.002000	3.809700	-11.436000	23.607543	0.000537	20.917327
384.107065	-2.995500	3.808200	-11.407000	23.606850	0.000535	20.919477
385.104629	-3.010200	3.808500	-11.464000	23.607511	0.000534	20.907338
386.106465	-3.006000	3.806900	-11.442000	23.638487	0.000535	20.898090
387.107257	-2.987200	3.808100	-11.374000	23.650810	0.000536	20.916606
388.104074	-2.974800	3.807700	-11.326000	23.646391	0.000538	20.920236
389.104970	-2.995300	3.808200	-11.406000	23.626870	0.000535	20.916314
390.107274	-2.995200	3.808000	-11.404000	23.610731	0.000536	20.922419
391.106809	-2.992400	3.807700	-11.394000	23.623773	0.000536	20.907046
392.107242	-3.007700	3.806200	-11.446000	23.613180	0.000536	20.927718
393.109284	-2.983100	3.807500	-11.357000	23.635273	0.000536	20.918100
394.107280	-3.001300	3.806300	-11.422000	23.662044	0.000539	20.907955
395.107428	-2.988200	3.806300	-11.374000	23.640845	0.000537	20.936012
396.109993	-2.984000	3.806500	-11.357000	23.672741	0.000538	20.923893
397.107536	-2.981500	3.806400	-11.348000	23.689346	0.000536	20.910196
398.112475	-2.993900	3.806300	-11.395000	23.675818	0.000538	20.908014
399.111779	-2.990300	3.806400	-11.381000	23.675993	0.000538	20.933316
400.107489	-2.985300	3.805700	-11.361000	23.698571	0.000540	20.917074
401.112818	-3.004300	3.805000	-11.430000	23.687901	0.000540	20.913488
402.112246	-2.994500	3.804600	-11.392000	23.682277	0.000541	20.916385
403.110689	-2.983600	3.803900	-11.348000	23.679913	0.000539	20.931556
404.110546	-2.982500	3.803300	-11.342000	23.723164	0.000537	20.938882
405.112304	-3.006800	3.804000	-11.437000	23.726416	0.000539	20.941194
406.110533	-2.989200	3.804600	-11.371000	23.765170	0.000539	20.949702
407.112814	-2.996700	3.803700	-11.398000	23.769341	0.000538	20.935868
408.112926	-2.999400	3.802900	-11.405000	23.759125	0.000539	20.953124
409.111086	-2.985300	3.804400	-11.356000	23.752213	0.000541	20.922490
410.116008	-2.997000	3.802200	-11.395000	23.731378	0.000540	20.940480
411.114541	-2.984600	3.803500	-11.351000	23.709442	0.000540	20.930342
412.110758	-2.987700	3.801600	-11.357000	23.717139	0.000543	20.957021
413.115082	-3.001800	3.801300	-11.409000	23.735661	0.000541	20.940505
414.114974	-2.979200	3.802800	-11.328000	23.737183	0.000542	20.926386
415.111546	-3.003500	3.801200	-11.416000	23.727478	0.000543	20.957904
416.115469	-2.993700	3.801800	-11.380000	23.741284	0.000542	20.957047
417.117096	-2.997400	3.800400	-11.391000	23.744458	0.000539	20.951221
418.111912	-2.975700	3.801800	-11.312000	23.767132	0.000543	20.941239
419.112776	-3.000200	3.800100	-11.401000	23.770572	0.000542	20.958910
420.113845	-3.009100	3.799200	-11.431000	23.786437	0.000541	20.940206
421.109865	-2.989300	3.798800	-11.355000	23.811293	0.000541	20.957066
422.112588	-2.998200	3.799000	-11.389000	23.815232	0.000543	20.951533
423.112279	-2.997800	3.800200	-11.391000	23.826899	0.000543	20.960385
424.112523	-2.999000	3.798900	-11.392000	23.793349	0.000543	20.960411
425.114628	-3.001800	3.799400	-11.403000	23.819857	0.000543	20.961859
426.115275	-3.000800	3.798600	-11.397000	23.841027	0.000544	20.968860
427.112344	-2.994800	3.798800	-11.376000	23.850957	0.000543	20.946103
428.114676	-3.005100	3.799400	-11.417000	23.857759	0.000543	20.937751
429.116553	-3.002200	3.797000	-11.398000	23.874516	0.000543	20.953604
430.113045	-2.976700	3.799100	-11.308000	23.864463	0.000544	20.959170
431.115723	-3.004900	3.797200	-11.408000	23.870319	0.000545	20.965989
432.114733	-3.002700	3.798100	-11.404000	23.869211	0.000542	20.972464
433.112465	-2.974000	3.797100	-11.292000	23.871051	0.000544	20.945863
434.115692	-2.969900	3.796500	-11.274000	23.868997	0.000545	20.959923
435.116270	-3.013100	3.796800	-11.440000	23.883715	0.000545	20.974204
436.113988	-2.989500	3.795300	-11.345000	23.889784	0.000542	20.965119
437.114749	-3.005200	3.794800	-11.403000	23.913867	0.000545	20.947545
438.115518	-3.003100	3.794900	-11.395000	23.901657	0.000546	20.965171
439.115888	-3.013100	3.794200	-11.431000	23.911425	0.000545	20.946045
440.118340	-3.010800	3.794200	-11.422000	23.897524	0.000546	20.980939
441.119117	-3.012200	3.794800	-11.430000	23.883546	0.000546	20.949857
442.116101	-3.013800	3.794000	-11.432000	23.892511	0.000546	20.965956
443.115079	-2.984000	3.795000	-11.322000	23.914787	0.000546	20.967431
444.118383	-3.002400	3.794700	-11.393000	23.896870	0.000545	20.970327
445.116046	-3.006500	3.793600	-11.405000	23.915175	0.000548	20.976354
446.116992	-3.019400	3.793800	-11.454000	23.952115	0.000547	20.986368
447.122558	-2.980600	3.793400	-11.306000	23.959596	0.000548	20.983913
448.115492	-2.998800	3.793500	-11.374000	23.946098	0.000547	20.983179
449.116513	-2.985000	3.792000	-11.318000	23.947303	0.000547	20.973483
450.120289	-3.007700	3.791600	-11.403000	23.985206	0.000547	20.987783
451.116622	-2.986200	3.791800	-11.320000	24.004883	0.000548	20.976224
452.119157	-2.993300	3.792500	-11.351000	24.018595	0.000548	20.960105
453.118370	-2.992300	3.792700	-11.348000	24.014384	0.000548	20.983854
454.118948	-3.014800	3.790600	-11.426000	24.020796	0.000549	20.997395
455.117641	-3.012300	3.790900	-11.417000	24.034896	0.000549	20.998732
456.118593	-2.997000	3.790700	-11.360000	24.034087	0.000547	20.983224
457.118001	-2.993000	3.790900	-11.344000	24.012253	0.000551	21.004947
458.117451	-3.001100	3.790500	-11.374000	24.001146	0.000550	20.989543
459.118922	-3.012300	3.789400	-11.414000	23.980867	0.000549	20.997654
460.120535	-3.001600	3.789900	-11.375000	23.979811	0.000548	20.990433
461.121616	-3.020100	3.788000	-11.439000	23.939044	0.000549	20.993647
462.119986	-3.001700	3.789200	-11.373000	23.956856	0.000549	20.995862
463.119910	-2.989100	3.788700	-11.324000	23.986586	0.000549	20.999596
464.119490	-3.003000	3.789700	-11.378000	23.997797	0.000548	20.998037
465.120394	-3.011400	3.787900	-11.406000	23.984675	0.000547	20.989147
466.121069	-2.993600	3.787600	-11.338000	23.959797	0.000549	21.014929
467.120606	-2.992800	3.787200	-11.333000	23.963916	0.000548	20.986348
468.120959	-2.975300	3.788700	-11.271000	24.002447	0.000548	21.012655
469.120076	-2.996200	3.787000	-11.346000	24.035123	0.000552	20.996115
470.121564	-3.006200	3.787200	-11.384000	24.004293	0.000551	20.999336
471.121574	-3.007000	3.786100	-11.383000	24.028089	0.000549	21.011344
472.120749	-2.994700	3.785700	-11.336000	24.065277	0.000550	21.017344
473.120708	-2.999200	3.786600	-11.356000	24.075497	0.000551	21.009103
474.121253	-2.979400	3.785700	-11.278000	24.101157	0.000551	20.991693
475.121884	-2.994900	3.784400	-11.333000	24.120572	0.000550	21.021591
476.122786	-2.990600	3.785500	-11.319000	24.126796	0.000551	21.017877
477.123642	-2.998100	3.784500	-11.346000	24.119653	0.000550	21.009292
478.122679	-3.003500	3.784900	-11.368000	24.124322	0.000551	21.009233
479.122581	-3.006200	3.784000	-11.374000	24.126058	0.000550	21.019981
480.122791	-3.011800	3.785100	-11.399000	24.118804	0.000551	21.022663
481.124157	-2.977800	3.785300	-11.271000	24.126090	0.000550	21.017169
482.125576	-3.002300	3.783200	-11.358000	24.132100	0.000553	21.025566
483.127061	-3.018300	3.782700	-11.416000	24.109537	0.000551	21.020007
484.125121	-2.973400	3.784000	-11.251000	24.096299	0.000551	20.996777
485.124084	-3.009100	3.783600	-11.384000	24.111797	0.000553	21.019429
486.125025	-2.982600	3.783400	-11.283000	24.106933	0.000551	21.020715
487.126783	-3.012400	3.781200	-11.390000	24.105230	0.000553	21.010948
488.125308	-2.997800	3.782000	-11.337000	24.142999	0.000551	21.008525
489.125449	-2.985700	3.781300	-11.289000	24.105632	0.000549	21.035054
490.127985	-3.009500	3.781900	-11.381000	24.078677	0.000552	21.019877
491.126323	-3.023300	3.780700	-11.429000	24.082589	0.000552	21.001992
492.125414	-3.003600	3.782000	-11.358000	24.072971	0.000552	20.994245
493.128085	-3.036700	3.779800	-11.477000	24.082829	0.000553	21.021669
494.125986	-3.027300	3.780500	-11.444000	24.109932	0.000553	21.011396
495.127078	-3.015900	3.780100	-11.400000	24.121460	0.000552	21.008733
496.130163	-2.989800	3.781000	-11.304000	24.137222	0.000551	21.019325
497.128606	-2.977500	3.781000	-11.257000	24.102238	0.000554	21.006051
498.128592	-2.987600	3.779800	-11.291000	24.130235	0.000553	21.007577
499.130377	-2.956700	3.780700	-11.177000	24.125928	0.000555	20.997096
500.127694	-3.006300	3.778800	-11.359000	24.125637	0.000552	21.023825
501.127649	-3.011700	3.778600	-11.379000	24.172251	0.000551	20.991400
502.135087	-3.030100	3.777500	-11.445000	24.155660	0.000553	20.997044
503.130474	-3.025600	3.776900	-11.426000	24.195810	0.000553	20.997011
504.128759	-3.005900	3.777900	-11.355000	24.185649	0.000553	21.008629
505.132064	-2.996300	3.778500	-11.320000	24.196049	0.000553	20.992037
506.130564	-3.007700	3.777100	-11.360000	24.205452	0.000551	21.008577
507.133833	-3.010700	3.777100	-11.371000	24.215405	0.000553	21.000544
508.136649	-3.022300	3.777200	-11.415000	24.193556	0.000552	20.990959
509.132397	-3.012000	3.776600	-11.374000	24.196367	0.000553	20.978607
510.135425	-3.000500	3.776900	-11.331000	24.220003	0.000553	20.992355
511.136580	-3.012800	3.775100	-11.372000	24.244642	0.000554	20.996206
512.131990	-3.008100	3.774800	-11.354000	24.252464	0.000553	20.962332
513.134709	-3.005000	3.775200	-11.344000	24.249809	0.000552	20.979107
514.134972	-3.000300	3.775100	-11.325000	24.198970	0.000553	20.980743
515.133454	-3.006300	3.774700	-11.347000	24.225701	0.000554	20.989537
516.135334	-3.007200	3.773500	-11.347000	24.242984	0.000553	20.975581
517.135673	-3.005400	3.773800	-11.340000	24.246105	0.000554	20.992933
518.134454	-3.016800	3.773900	-11.384000	24.276099	0.000554	20.977977
519.137901	-3.004800	3.773700	-11.339000	24.238885	0.000553	20.974314
520.141512	-3.000400	3.774400	-11.324000	24.239727	0.000554	20.961410
521.134959	-3.009800	3.772900	-11.355000	24.256725	0.000555	20.963761
522.139975	-2.998900	3.773800	-11.317000	24.268458	0.000554	20.975055
523.141061	-3.004300	3.773400	-11.335000	24.297817	0.000555	20.951402
524.136251	-2.982000	3.773700	-11.252000	24.296735	0.000554	20.948421
525.139324	-3.000900	3.771200	-11.316000	24.279777	0.000552	20.970762
526.139927	-2.984900	3.774000	-11.264000	24.277394	0.000552	20.962683
527.136866	-2.978500	3.772300	-11.235000	24.263077	0.000555	20.960650
528.138905	-2.976800	3.770800	-11.224000	24.251389	0.000554	20.979269
529.141224	-2.982500	3.772700	-11.251000	24.250684	0.000553	20.969080
530.139069	-2.977600	3.770900	-11.227000	24.261290	0.000554	20.956487
531.140409	-3.017700	3.770900	-11.378000	24.232533	0.000555	20.943765
532.140620	-2.998100	3.770700	-11.304000	24.275659	0.000553	20.949564
533.139396	-3.006900	3.769900	-11.335000	24.278573	0.000555	20.964813
534.140494	-3.002600	3.769400	-11.318000	24.317359	0.000553	20.961995
535.142904	-3.015200	3.769000	-11.363000	24.336874	0.000553	20.963553
536.139609	-2.986000	3.769600	-11.255000	24.302343	0.000553	20.956890
537.140104	-3.000700	3.769200	-11.309000	24.267733	0.000555	20.937823
538.146714	-2.990900	3.768900	-11.271000	24.268912	0.000553	20.950383
539.141524	-2.998300	3.768700	-11.299000	24.272875	0.000554	20.957676
540.140413	-2.985300	3.768500	-11.250000	24.263531	0.000554	20.944512
541.142033	-3.002200	3.768700	-11.313000	24.290585	0.000553	20.960741
542.141700	-3.005500	3.767600	-11.322000	24.292210	0.000554	20.937719
543.143665	-2.974400	3.768300	-11.208000	24.314186	0.000553	20.966398
544.142841	-2.986400	3.768500	-11.253000	24.344696	0.000551	20.953383
545.143736	-2.994700	3.767300	-11.281000	24.359193	0.000556	20.963183
546.144617	-2.995500	3.766900	-11.283000	24.348011	0.000554	20.955286
547.143797	-3.027800	3.766200	-11.401000	24.334854	0.000552	20.947305
548.144065	-2.997400	3.766500	-11.289000	24.332310	0.000556	20.958027
549.143953	-3.015400	3.767200	-11.358000	24.292553	0.000554	20.954656
550.144464	-3.007700	3.766600	-11.328000	24.297170	0.000553	20.951227
551.145411	-3.002600	3.767100	-11.310000	24.329448	0.000553	20.951838
552.144449	-3.014400	3.765900	-11.350000	24.352977	0.000553	20.948889
553.144577	-3.000800	3.765300	-11.298000	24.327084	0.000553	20.942356
554.144011	-2.997200	3.764900	-11.283000	24.337483	0.000553	20.932400
555.146400	-2.996200	3.765500	-11.281000	24.315844	0.000552	20.945778
556.146146	-2.988500	3.764200	-11.249000	24.349300	0.000555	20.930978
557.147645	-2.994700	3.763900	-11.271000	24.332808	0.000555	20.967060
558.148646	-2.995900	3.764800	-11.278000	24.353269	0.000554	20.933536
559.150317	-3.012500	3.762900	-11.335000	24.400216	0.000553	20.936537
560.149068	-2.998100	3.762600	-11.280000	24.426710	0.000554	20.942252
561.155081	-2.998800	3.761900	-11.280000	24.436978	0.000551	20.942122
562.151126	-2.992700	3.763900	-11.264000	24.410776	0.000556	20.949974
563.148956	-3.000800	3.762400	-11.289000	24.395678	0.000553	20.940992
564.150989	-2.987900	3.761400	-11.237000	24.394862	0.000551	20.934959
565.149199	-3.001300	3.760900	-11.286000	24.412065	0.000553	20.930406
566.152682	-3.002200	3.762500	-11.295000	24.453818	0.000553	20.942895
567.153786	-2.998200	3.761200	-11.276000	24.437742	0.000553	20.950000
568.152684	-3.011300	3.761300	-11.326000	24.424224	0.000552	20.938336
569.154820	-3.018900	3.759900	-11.350000	24.441219	0.000552	20.942584
570.154160	-3.003300	3.760000	-11.292000	24.426911	0.000552	20.946721
571.153228	-3.006500	3.760000	-11.304000	24.451008	0.000554	20.928698
572.157179	-2.993000	3.760900	-11.256000	24.450716	0.000552	20.922717
573.154138	-3.014200	3.758400	-11.328000	24.488325	0.000552	20.953806
574.153760	-2.999000	3.759000	-11.272000	24.478393	0.000555	20.911605
575.158066	-2.993100	3.759500	-11.250000	24.498405	0.000555	20.937369
576.155028	-3.004000	3.759200	-11.292000	24.470599	0.000554	20.936972
577.155635	-3.012700	3.757700	-11.320000	24.452795	0.000554	20.927646
578.157921	-2.996300	3.759200	-11.263000	24.487056	0.000553	20.934043
579.156352	-2.983200	3.759800	-11.215000	24.500347	0.000555	20.938369
580.155960	-3.000600	3.757900	-11.275000	24.502639	0.000556	20.909851
581.160508	-3.014600	3.757300	-11.326000	24.501557	0.000555	20.940531
582.156238	-2.986500	3.758100	-11.223000	24.503027	0.000553	20.923990
583.157637	-2.998100	3.756400	-11.262000	24.489846	0.000553	20.934472
584.160190	-3.000800	3.756900	-11.273000	24.483411	0.000553	20.935128
585.156546	-2.978000	3.757900	-11.190000	24.467634	0.000554	20.932576
586.155788	-2.985300	3.757500	-11.216000	24.508232	0.000554	20.932056
587.159285	-2.991500	3.756800	-11.237000	24.483625	0.000552	20.933446
588.155677	-2.995800	3.756700	-11.254000	24.464694	0.000552	20.942902
589.155413	-3.009800	3.754900	-11.300000	24.460150	0.000554	20.917956
590.160548	-2.988800	3.755800	-11.225000	24.463277	0.000553	20.912560
591.157613	-3.001400	3.754600	-11.268000	24.483009	0.000552	20.937096
592.156423	-2.990500	3.755200	-11.229000	24.506698	0.000553	20.915346
593.160110	-2.970700	3.755100	-11.154000	24.527440	0.000554	20.925724
594.156387	-2.978900	3.756000	-11.188000	24.522345	0.000552	20.931043
595.159583	-2.987800	3.754700	-11.218000	24.521348	0.000552	20.925776
596.159821	-3.001200	3.753600	-11.265000	24.543294	0.000553	20.929302
597.157803	-2.994500	3.753800	-11.240000	24.520377	0.000553	20.906312
598.158165	-3.010000	3.752800	-11.295000	24.494170	0.000553	20.910364
599.163261	-3.021400	3.753000	-11.337000	24.503383	0.000552	20.909650
600.158711	-3.017800	3.752400	-11.323000	24.520370	0.000553	20.937121
601.160366	-2.996000	3.753500	-11.244000	24.512945	0.000553	20.927776
602.162824	-3.000000	3.752600	-11.255000	24.533447	0.000551	20.918950
603.159464	-2.994300	3.751900	-11.233000	24.553237	0.000551	20.925529
604.160105	-2.994900	3.752500	-11.237000	24.567259	0.000551	20.923476
605.164303	-3.005700	3.751100	-11.274000	24.569414	0.000551	20.923269
606.160182	-2.996200	3.752500	-11.242000	24.583805	0.000553	20.922535
607.159990	-2.983100	3.751100	-11.189000	24.602545	0.000552	20.940388
608.163804	-2.979600	3.750200	-11.174000	24.604487	0.000553	20.925269
609.160209	-3.013800	3.751100	-11.304000	24.617719	0.000553	20.907727
610.163267	-3.015600	3.750400	-11.309000	24.595036	0.000552	20.935225
611.166530	-3.002900	3.750700	-11.261000	24.610559	0.000553	20.913345
612.160465	-3.003900	3.750300	-11.265000	24.572489	0.000553	20.903597
613.164321	-3.010200	3.749100	-11.285000	24.549249	0.000552	20.931484
614.165127	-2.985700	3.750100	-11.196000	24.521891	0.000553	20.913046
615.163089	-2.999500	3.749100	-11.244000	24.493665	0.000552	20.913176
616.163674	-2.973800	3.749100	-11.149000	24.495135	0.000552	20.901849
617.167433	-2.976200	3.749400	-11.158000	24.520292	0.000551	20.910968
618.164979	-3.027500	3.747500	-11.345000	24.560539	0.000551	20.895400
619.175520	-2.986800	3.747900	-11.194000	24.556707	0.000550	20.906727
620.166874	-3.003300	3.747400	-11.253000	24.561012	0.000550	20.925269
621.167807	-2.991100	3.748100	-11.211000	24.528663	0.000550	20.911306
622.166852	-3.016900	3.746900	-11.303000	24.523445	0.000550	20.915553
623.168929	-3.006900	3.747300	-11.266000	24.547307	0.000551	20.924795
624.164084	-3.015000	3.745700	-11.292000	24.532178	0.000551	20.901557
625.166274	-3.005500	3.748000	-11.263000	24.583798	0.000552	20.909727
626.166234	-3.007700	3.746800	-11.268000	24.617052	0.000552	20.908954
627.164169	-3.000500	3.746300	-11.240000	24.590666	0.000551	20.909980
628.164042	-3.011700	3.745800	-11.281000	24.597496	0.000548	20.893601
629.170392	-2.995400	3.746300	-11.221000	24.584142	0.000549	20.910072
630.165365	-2.987200	3.745600	-11.188000	24.569330	0.000550	20.926503
631.166778	-2.987300	3.745300	-11.187000	24.559147	0.000548	20.907279
632.168130	-2.989700	3.744600	-11.193000	24.553968	0.000550	20.932426
633.164401	-3.000900	3.744100	-11.234000	24.580173	0.000550	20.906090
634.167802	-3.002300	3.744300	-11.241000	24.598739	0.000552	20.918080
635.168932	-2.994400	3.744700	-11.211000	24.632892	0.000551	20.915365
636.166454	-2.999400	3.743900	-11.228000	24.620864	0.000551	20.910409
637.169697	-3.015100	3.742500	-11.283000	24.660557	0.000548	20.940278
638.167132	-3.009100	3.742700	-11.260000	24.658752	0.000547	20.916183
639.167455	-2.995500	3.743900	-11.213000	24.676675	0.000548	20.888652
640.166817	-2.995000	3.743500	-11.211000	24.697213	0.000549	20.923009
641.170060	-2.985000	3.742400	-11.170000	24.714644	0.000551	20.894985
642.168515	-2.985900	3.742200	-11.173000	24.716793	0.000551	20.909468
643.169016	-2.985100	3.741700	-11.169000	24.669937	0.000551	20.901330
644.168374	-3.000000	3.741200	-11.223000	24.715719	0.000548	20.906967
645.168322	-3.014400	3.740800	-11.275000	24.677420	0.000548	20.911208
646.168460	-2.975500	3.743300	-11.138000	24.628568	0.000550	20.902019
647.168725	-3.003200	3.741900	-11.237000	24.617991	0.000549	20.909897
648.168493	-3.001800	3.741700	-11.230000	24.617330	0.000549	20.893588
649.172668	-3.012500	3.739400	-11.264000	24.644556	0.000550	20.891036
650.168282	-3.039600	3.739600	-11.366000	24.671309	0.000548	20.904604
651.169282	-3.030700	3.738500	-11.329000	24.675089	0.000548	20.905552
652.169103	-2.999300	3.740900	-11.219000	24.670416	0.000547	20.899440
653.173104	-2.988400	3.740200	-11.176000	24.658286	0.000548	20.904811
654.173326	-2.998700	3.739000	-11.211000	24.705648	0.000547	20.898284
655.170983	-2.978100	3.739800	-11.136000	24.678552	0.000548	20.913293
656.169740	-2.997800	3.738100	-11.206000	24.633293	0.000547	20.905811
657.171524	-2.991700	3.738600	-11.183000	24.621739	0.000549	20.918398
658.171604	-2.983800	3.739400	-11.157000	24.616470	0.000548	20.919749
659.171325	-3.009700	3.737800	-11.249000	24.603840	0.000547	20.894751
660.171405	-3.010100	3.739200	-11.253000	24.610695	0.000545	20.900207
661.172693	-3.009600	3.738100	-11.249000	24.647469	0.000548	20.891588
662.173094	-2.999400	3.737800	-11.210000	24.683672	0.000547	20.890932
663.174109	-3.023800	3.737300	-11.301000	24.692514	0.000548	20.890796
664.171901	-3.019900	3.735900	-11.281000	24.687524	0.000546	20.893848
665.170640	-3.014800	3.737400	-11.267000	24.692488	0.000547	20.883184
666.172668	-2.983100	3.736400	-11.146000	24.705718	0.000548	20.884606
667.172048	-2.990100	3.735600	-11.169000	24.726871	0.000547	20.895400
668.174140	-2.994100	3.736500	-11.187000	24.736373	0.000547	20.878858
669.172574	-3.001700	3.735300	-11.211000	24.727868	0.000548	20.904934
670.171591	-2.996100	3.734600	-11.187000	24.673341	0.000546	20.892893
671.171490	-2.999900	3.734700	-11.202000	24.666364	0.000544	20.881625
672.171619	-2.995300	3.734300	-11.184000	24.692637	0.000545	20.885704
673.176204	-3.003700	3.733600	-11.213000	24.720327	0.000547	20.885989
674.172945	-3.007500	3.733500	-11.228000	24.759388	0.000546	20.877773
675.175403	-3.005100	3.734200	-11.221000	24.776372	0.000545	20.878222
676.174617	-3.021600	3.733600	-11.280000	24.780132	0.000543	20.874883
677.173804	-2.997600	3.732400	-11.188000	24.749447	0.000546	20.879176
678.176903	-3.000000	3.733400	-11.200000	24.720327	0.000544	20.882670
679.175474	-3.003000	3.731600	-11.205000	24.719097	0.000545	20.896608
680.177293	-3.018300	3.732700	-11.265000	24.757731	0.000544	20.872792
681.177855	-3.010500	3.732100	-11.235000	24.783588	0.000545	20.880722
682.175984	-3.007200	3.733300	-11.226000	24.781355	0.000545	20.868051
683.176519	-3.015900	3.730400	-11.250000	24.778048	0.000547	20.882274
684.180817	-2.989000	3.732000	-11.154000	24.801309	0.000546	20.888548
685.179122	-3.000100	3.730900	-11.192000	24.819470	0.000542	20.881170
686.179401	-3.017600	3.730800	-11.257000	24.773252	0.000543	20.877936
687.179230	-3.002500	3.730400	-11.200000	24.782152	0.000545	20.877384
688.180372	-3.007000	3.731100	-11.218000	24.782624	0.000546	20.882599
689.180044	-3.032900	3.731500	-11.316000	24.744774	0.000544	20.874487
690.179896	-3.006300	3.730200	-11.214000	24.706288	0.000542	20.860049
691.180226	-3.041300	3.729100	-11.340000	24.758424	0.000543	20.865901
692.180577	-3.010300	3.728000	-11.222000	24.778087	0.000544	20.876624
693.183156	-2.982700	3.730000	-11.124000	24.793206	0.000545	20.875676
694.179545	-3.017100	3.728300	-11.248000	24.809768	0.000542	20.856737
695.181911	-2.993600	3.729800	-11.165000	24.839326	0.000543	20.876442
696.184447	-3.012700	3.727200	-11.228000	24.832401	0.000543	20.884191
697.182425	-3.014100	3.727800	-11.235000	24.831612	0.000542	20.863011
698.182058	-2.995300	3.729400	-11.170000	24.815205	0.000542	20.874520
699.184825	-3.002100	3.728500	-11.192000	24.822531	0.000542	20.874760
700.183525	-3.025200	3.726800	-11.273000	24.788436	0.000544	20.852398
701.182534	-3.008900	3.727500	-11.215000	24.799691	0.000541	20.860848
702.184666	-3.026300	3.725200	-11.272000	24.808908	0.000542	20.878631
703.183344	-3.009100	3.726300	-11.212000	24.779880	0.000543	20.866570
704.186050	-3.010800	3.725100	-11.215000	24.805076	0.000542	20.872416
705.188147	-3.010000	3.727100	-11.218000	24.832874	0.000542	20.870915
706.184874	-2.995400	3.725600	-11.159000	24.818784	0.000540	20.872422
707.185601	-3.034900	3.725600	-11.306000	24.827496	0.000540	20.858880
708.188920	-3.014200	3.725300	-11.227000	24.828518	0.000540	20.847105
709.188335	-3.013100	3.726200	-11.227000	24.782275	0.000539	20.871818
710.187030	-3.011400	3.725100	-11.216000	24.793608	0.000540	20.858536
711.190954	-2.998000	3.724300	-11.165000	24.834427	0.000540	20.851613
712.188731	-2.985700	3.726000	-11.124000	24.862638	0.000540	20.856692
713.188389	-3.000800	3.724800	-11.176000	24.875976	0.000539	20.856802
714.192666	-2.979400	3.725500	-11.099000	24.832142	0.000539	20.854061
715.191457	-3.017600	3.723400	-11.235000	24.791271	0.000539	20.859984
716.191437	-3.002400	3.723700	-11.179000	24.751849	0.000538	20.875423
717.196005	-3.017600	3.722600	-11.233000	24.737829	0.000540	20.873208
718.192135	-3.006100	3.723700	-11.192000	24.736146	0.000539	20.881476
719.191304	-2.994100	3.723100	-11.146000	24.744684	0.000538	20.854958
720.196842	-3.005200	3.722800	-11.187000	24.749855	0.000538	20.862992
721.190477	-3.000200	3.721900	-11.166000	24.787517	0.000539	20.852898
722.194338	-3.006600	3.721800	-11.189000	24.831379	0.000540	20.873208
723.194928	-3.004800	3.721500	-11.181000	24.866385	0.000538	20.863297
724.193675	-3.002800	3.721500	-11.174000	24.833527	0.000537	20.859718
725.193255	-3.016600	3.720700	-11.223000	24.806228	0.000539	20.876416
726.198050	-3.002400	3.720700	-11.170000	24.792811	0.000535	20.861530
727.193015	-3.029600	3.720500	-11.270000	24.766515	0.000537	20.856477
728.194707	-3.011900	3.720800	-11.206000	24.790423	0.000539	20.838272
729.199008	-3.007100	3.721700	-11.191000	24.832653	0.000536	20.846039
730.194944	-3.005900	3.720500	-11.183000	24.846484	0.000538	20.853281
731.195702	-2.987800	3.719800	-11.113000	24.853201	0.000534	20.831101
732.200088	-2.988300	3.720300	-11.117000	24.823127	0.000536	20.862082
733.196289	-2.972700	3.720300	-11.058000	24.796902	0.000535	20.849514
734.197269	-2.987200	3.719600	-11.111000	24.831941	0.000536	20.837739
735.204790	-2.981000	3.720200	-11.089000	24.850322	0.000538	20.841961
736.198351	-3.011500	3.719300	-11.199000	24.836090	0.000535	20.853281
737.197391	-2.998900	3.719500	-11.153000	24.863654	0.000535	20.846806
738.200366	-2.997100	3.718800	-11.145000	24.880027	0.000537	20.823885
739.198062	-3.001500	3.719100	-11.162000	24.878215	0.000535	20.842928
740.198770	-3.031900	3.716500	-11.268000	24.891398	0.000537	20.842409
741.200249	-3.017600	3.717700	-11.218000	24.844970	0.000535	20.832322
742.200830	-3.001700	3.717800	-11.159000	24.851111	0.000535	20.850339
743.204025	-3.013400	3.716900	-11.200000	24.866850	0.000534	20.814454
744.202050	-3.013500	3.716900	-11.200000	24.854761	0.000536	20.824132
745.199204	-2.985500	3.716500	-11.095000	24.857246	0.000533	20.836583
746.198425	-2.989400	3.716600	-11.110000	24.859033	0.000533	20.824151
747.203374	-2.986500	3.716500	-11.098000	24.857984	0.000533	20.824996
748.196651	-2.990100	3.716500	-11.112000	24.875866	0.000534	20.829666
749.197946	-2.995900	3.716000	-11.132000	24.877464	0.000536	20.835537
750.201756	-2.994700	3.716300	-11.128000	24.892058	0.000534	20.853977
751.197785	-3.029200	3.714900	-11.253000	24.917963	0.000534	20.829244
752.198392	-2.994300	3.715400	-11.124000	24.940639	0.000532	20.831614
753.202096	-3.002400	3.715300	-11.154000	24.907577	0.000531	20.841578
754.197188	-3.015800	3.713800	-11.199000	24.881302	0.000532	20.819475
755.199908	-2.996400	3.714100	-11.128000	24.839566	0.000531	20.826899
756.201573	-3.005800	3.714000	-11.162000	24.814455	0.000532	20.843897
757.200961	-3.023200	3.712900	-11.224000	24.831773	0.000532	20.836148
758.203758	-3.017100	3.714100	-11.205000	24.903015	0.000531	20.834154
759.207154	-2.983100	3.714200	-11.079000	24.878131	0.000531	20.840948
760.201812	-2.995000	3.713300	-11.121000	24.877892	0.000533	20.833121
761.203765	-2.976500	3.713700	-11.054000	24.911434	0.000530	20.826958
762.207238	-2.999500	3.712600	-11.135000	24.940885	0.000532	20.828068
763.201329	-3.003900	3.712200	-11.150000	24.940730	0.000531	20.807524
764.204380	-3.012800	3.712800	-11.184000	24.917821	0.000531	20.840481
765.208114	-3.010800	3.711600	-11.175000	24.888687	0.000531	20.818826
766.200924	-2.991400	3.712100	-11.103000	24.879633	0.000531	20.827757
767.203745	-3.002800	3.711500	-11.144000	24.913123	0.000529	20.831024
768.206089	-3.015700	3.711700	-11.192000	24.930868	0.000530	20.824178
769.200612	-3.036500	3.711100	-11.268000	24.932842	0.000529	20.817625
770.203070	-3.014300	3.710900	-11.185000	24.915433	0.000530	20.838084
771.204792	-3.005600	3.711600	-11.155000	24.922785	0.000529	20.818436
772.200779	-3.010800	3.709500	-11.168000	24.881659	0.000528	20.827893
773.203539	-2.999600	3.710400	-11.129000	24.894997	0.000531	20.834642
774.206232	-2.979800	3.710500	-11.056000	24.901268	0.000530	20.814384
775.201861	-2.998400	3.710800	-11.125000	24.905021	0.000528	20.814832
776.205128	-3.032200	3.708400	-11.243000	24.909881	0.000528	20.841046
777.206857	-2.998900	3.708900	-11.122000	24.888648	0.000527	20.824477
778.204601	-2.973000	3.709600	-11.028000	24.905992	0.000526	20.825763
779.205843	-3.019500	3.707500	-11.193000	24.920986	0.000528	20.834648
780.207446	-2.994900	3.708100	-11.104000	24.941326	0.000528	20.817131
781.204009	-3.004500	3.707500	-11.137000	24.946076	0.000527	20.859355
782.205099	-2.993000	3.708200	-11.098000	24.920540	0.000524	20.816183
783.203593	-3.015200	3.706900	-11.176000	24.886914	0.000526	20.841702
784.204168	-3.022000	3.707800	-11.204000	24.927212	0.000528	20.827147
785.203886	-3.022000	3.707100	-11.202000	24.923691	0.000526	20.819820
786.204115	-3.020800	3.707600	-11.199000	24.931859	0.000526	20.811896
787.203625	-3.022700	3.706000	-11.201000	24.905643	0.000526	20.824939
788.204154	-2.976300	3.706900	-11.032000	24.946218	0.000527	20.837689
789.205288	-3.026500	3.704500	-11.210000	24.959523	0.000526	20.825913
790.205544	-3.000400	3.706400	-11.119000	24.986844	0.000525	20.828680
791.205902	-3.008000	3.706700	-11.149000	24.997864	0.000524	20.828836
792.220955	-3.012700	3.705100	-11.161000	24.990520	0.000523	20.828102
793.219801	-3.010100	3.705900	-11.154000	24.944310	0.000523	20.833876
794.204926	-3.001400	3.706600	-11.125000	24.940117	0.000524	20.828245
795.204982	-3.004900	3.704600	-11.131000	24.940608	0.000523	20.823049
796.206792	-2.998600	3.705100	-11.109000	24.936991	0.000524	20.827479
797.207511	-2.993600	3.705600	-11.092000	24.949635	0.000524	20.827842
798.207245	-3.017500	3.704700	-11.178000	24.960876	0.000523	20.849081
799.207042	-2.967700	3.704900	-10.994000	24.913551	0.000522	20.830505
800.207142	-3.016400	3.704300	-11.173000	24.921958	0.000522	20.818555
801.208396	-2.991400	3.704200	-11.080000	24.923770	0.000523	20.807571
802.206354	-3.003300	3.704100	-11.124000	24.906951	0.000523	20.821984
803.209044	-2.996500	3.703000	-11.095000	24.897425	0.000523	20.821432
804.209357	-3.000500	3.702700	-11.109000	24.897625	0.000521	20.813099
805.209168	-3.018200	3.702500	-11.173000	24.880023	0.000523	20.828148
806.209074	-2.983400	3.702300	-11.044000	24.857054	0.000523	20.838287
807.209158	-2.994500	3.703000	-11.087000	24.836487	0.000520	20.818594
808.210776	-3.028000	3.701400	-11.208000	24.829504	0.000521	20.836241
809.207477	-3.013200	3.701800	-11.153000	24.823129	0.000522	20.831740
810.208250	-3.003700	3.701600	-11.118000	24.852687	0.000522	20.824894
811.214085	-3.009400	3.701300	-11.138000	24.927220	0.000520	20.834741
812.209893	-2.979300	3.701200	-11.026000	24.931264	0.000519	20.855395
813.212680	-3.001700	3.700200	-11.106000	24.931478	0.000521	20.846127
814.216357	-3.007300	3.701000	-11.129000	24.944854	0.000520	20.825414
815.210360	-2.996000	3.700900	-11.087000	24.932526	0.000520	20.838645
816.214238	-2.995200	3.701200	-11.084000	24.926023	0.000521	20.853927
817.213105	-3.000400	3.700700	-11.101000	24.908175	0.000518	20.835540
818.211653	-3.012300	3.698800	-11.141000	24.876852	0.000521	20.827810
819.214210	-2.995400	3.700400	-11.083000	24.902085	0.000520	20.815204
820.215709	-2.998400	3.698400	-11.088000	24.884890	0.000521	20.839197
821.214289	-3.006000	3.698600	-11.117000	24.912401	0.000519	20.828876
822.217956	-3.002900	3.698700	-11.106000	24.885783	0.000519	20.850050
823.214756	-3.010300	3.698600	-11.132000	24.907625	0.000518	20.850160
824.213017	-3.003100	3.698500	-11.106000	24.925751	0.000518	20.831370
825.215411	-2.992500	3.696800	-11.062000	24.944045	0.000517	20.847835
826.215592	-2.993400	3.697600	-11.067000	24.932294	0.000518	20.850264
827.215389	-3.018400	3.697100	-11.158000	24.994255	0.000517	20.834696
828.214731	-3.002200	3.696200	-11.095000	24.988819	0.000516	20.839197
829.215439	-2.979400	3.698000	-11.017000	24.951895	0.000517	20.850972
830.214061	-2.997800	3.697000	-11.082000	24.949636	0.000515	20.847283
831.219358	-3.022500	3.696600	-11.172000	24.982659	0.000517	20.852453
832.216269	-3.022600	3.695700	-11.170000	24.991317	0.000516	20.844074
833.214374	-2.995100	3.697400	-11.073000	25.037351	0.000518	20.858039
834.220458	-3.019800	3.694100	-11.155000	25.034406	0.000515	20.843230
835.218891	-3.001300	3.695900	-11.092000	25.056032	0.000517	20.857350
836.214064	-2.986600	3.696400	-11.039000	25.045853	0.000515	20.844289
837.219758	-3.005400	3.695300	-11.105000	25.035144	0.000514	20.842548
838.219514	-2.985500	3.695200	-11.031000	24.990508	0.000516	20.847530
839.221236	-3.002600	3.694600	-11.092000	24.977178	0.000514	20.835573
840.219324	-2.996700	3.695200	-11.072000	24.979514	0.000515	20.881537
841.218061	-2.981100	3.695200	-11.015000	24.972118	0.000514	20.831442
842.215734	-3.010700	3.693200	-11.118000	24.934145	0.000514	20.872036
843.216553	-2.981000	3.696100	-11.018000	24.925674	0.000514	20.839828
844.224799	-2.986600	3.695300	-11.034000	24.943043	0.000513	20.869113
845.219408	-2.976100	3.694200	-10.993000	24.954672	0.000513	20.879362
846.217547	-2.986700	3.694800	-11.034000	24.952258	0.000514	20.855604
847.220639	-2.980300	3.693900	-11.007000	24.946014	0.000513	20.881103
848.220890	-2.993500	3.693400	-11.056000	24.929007	0.000511	20.866405
849.219351	-3.003000	3.692200	-11.086000	24.929564	0.000513	20.871705
850.221081	-3.019600	3.692200	-11.148000	24.941426	0.000511	20.853740
851.219505	-3.023800	3.691400	-11.161000	24.985332	0.000511	20.866515
852.221984	-2.999300	3.692300	-11.073000	24.959092	0.000512	20.870523
853.222047	-2.976900	3.691200	-10.988000	24.972345	0.000513	20.880505
854.219978	-2.969700	3.691900	-10.963000	24.957384	0.000513	20.866438
855.219843	-2.980600	3.692100	-11.003000	24.973523	0.000510	20.870308
856.222566	-3.013200	3.691400	-11.122000	24.997071	0.000511	20.864548
857.219806	-3.006400	3.690900	-11.095000	25.026177	0.000508	20.861521
858.221702	-3.005600	3.690300	-11.091000	24.998935	0.000510	20.864522
859.223077	-3.000600	3.691000	-11.074000	25.036886	0.000510	20.848090
860.228820	-3.021600	3.689300	-11.146000	25.081941	0.000509	20.853961
861.223730	-3.002300	3.688300	-11.073000	25.111232	0.000510	20.863451
862.223394	-2.986300	3.690700	-11.020000	25.125739	0.000511	20.862840
863.221648	-2.995800	3.689100	-11.051000	25.146844	0.000512	20.883078
864.222684	-2.986300	3.690300	-11.020000	25.129944	0.000508	20.858053
865.222166	-2.996900	3.688100	-11.052000	25.170356	0.000509	20.886293
866.221689	-3.000200	3.688800	-11.066000	25.124439	0.000509	20.865802
867.222593	-3.007600	3.688300	-11.092000	25.137877	0.000506	20.885930
868.224430	-3.014000	3.688300	-11.116000	25.123552	0.000507	20.880559
869.221317	-3.006000	3.687700	-11.085000	25.144833	0.000508	20.874895
870.219018	-2.991200	3.687400	-11.029000	25.119282	0.000507	20.866316
871.221651	-2.996500	3.688200	-11.051000	25.118596	0.000506	20.877006
872.221682	-3.003600	3.687500	-11.074000	25.088781	0.000507	20.886430
873.222238	-3.004800	3.686400	-11.076000	25.042556	0.000506	20.896452
874.222501	-3.016400	3.687500	-11.122000	25.023189	0.000507	20.877013
875.221581	-3.002100	3.688000	-11.071000	25.028728	0.000506	20.867401
876.222824	-2.994800	3.686700	-11.040000	25.040699	0.000505	20.886528
877.222930	-2.986300	3.686200	-11.007000	25.066446	0.000505	20.885820
878.225194	-3.007700	3.686300	-11.086000	25.124252	0.000506	20.885528
879.225000	-3.013500	3.685700	-11.105000	25.141126	0.000504	20.876864
880.225542	-3.018400	3.684600	-11.121000	25.096158	0.000503	20.889094
881.226787	-2.996200	3.685500	-11.041000	25.103949	0.000506	20.880319
882.225664	-2.987500	3.684400	-11.006000	25.094004	0.000503	20.896413
883.227243	-2.985200	3.684300	-10.998000	25.095634	0.000504	20.875767
884.227413	-2.994000	3.684200	-11.029000	25.123062	0.000502	20.886230
885.226926	-2.990400	3.683300	-11.013000	25.092645	0.000504	20.868973
886.227694	-3.017200	3.683900	-11.114000	25.067644	0.000504	20.901246
887.229363	-2.944300	3.685100	-10.849000	25.081917	0.000502	20.886652
888.229332	-2.982600	3.682900	-10.983000	25.095609	0.000502	20.905610
889.228776	-2.998900	3.683400	-11.045000	25.053111	0.000503	20.900882
890.229664	-2.990800	3.684300	-11.017000	25.057012	0.000503	20.886782
891.231375	-2.990700	3.683300	-11.015000	25.041004	0.000501	20.889679
892.228884	-2.983200	3.682600	-10.985000	25.039542	0.000504	20.904331
893.231989	-2.992700	3.682900	-11.021000	25.039594	0.000504	20.899642
894.230034	-3.001900	3.681800	-11.052000	25.058074	0.000502	20.910605
895.229884	-3.008000	3.682500	-11.075000	25.077175	0.000504	20.885685
896.229012	-3.014400	3.681300	-11.096000	25.087961	0.000501	20.915950
897.230391	-2.992100	3.681800	-11.016000	25.095681	0.000503	20.886244
898.230109	-2.991000	3.681400	-11.010000	25.068440	0.000500	20.898252
899.230082	-2.978300	3.681200	-10.963000	25.075525	0.000499	20.884503
900.230197	-2.982700	3.679900	-10.975000	25.104519	0.000499	20.893219
901.235228	-3.005900	3.679800	-11.060000	25.083795	0.000499	20.910820
902.231125	-3.010400	3.679400	-11.076000	25.091061	0.000498	20.904364
903.230037	-2.993800	3.679500	-11.015000	25.056528	0.000501	20.920432
904.229782	-3.010500	3.679900	-11.077000	25.019923	0.000498	20.908819
905.232879	-3.017600	3.678900	-11.101000	24.992610	0.000497	20.914119
906.230461	-2.991000	3.680200	-11.006000	24.994130	0.000497	20.906637
907.230746	-3.012300	3.678000	-11.078000	25.015808	0.000500	20.899000
908.231266	-2.993400	3.678000	-11.009000	25.042674	0.000499	20.907475
909.230300	-2.983400	3.678100	-10.972000	25.052445	0.000497	20.913489
910.230549	-2.993500	3.678600	-11.011000	25.047851	0.000498	20.913145
911.231943	-3.015600	3.679600	-11.094000	25.078295	0.000497	20.904352
912.232107	-3.000900	3.677200	-11.034000	25.052213	0.000500	20.911359
913.232398	-3.008200	3.677000	-11.060000	25.052238	0.000497	20.909963
914.232089	-2.992600	3.677300	-11.004000	25.044338	0.000495	20.902981
915.231672	-2.997600	3.676000	-11.018000	25.123562	0.000498	20.894791
916.232132	-2.986400	3.676900	-10.979000	25.139355	0.000497	20.892629
917.232325	-2.991400	3.676600	-10.997000	25.191342	0.000496	20.925849
918.231877	-2.989000	3.676200	-10.987000	25.159122	0.000496	20.942338
919.231649	-2.988900	3.675700	-10.985000	25.162726	0.000494	20.920829
920.231655	-2.978700	3.677100	-10.952000	25.180434	0.000494	20.911581
921.232852	-3.006600	3.675300	-11.049000	25.169881	0.000495	20.923271
922.231937	-3.017700	3.674800	-11.089000	25.158837	0.000496	20.930675
923.231498	-2.999100	3.675100	-11.022000	25.173873	0.000496	20.898832
924.233356	-3.021300	3.675400	-11.103000	25.144306	0.000494	20.911821
925.234612	-2.993000	3.675500	-10.999000	25.131605	0.000496	20.922777
926.234380	-2.982900	3.674800	-10.960000	25.172069	0.000493	20.927837
927.235209	-2.991000	3.675000	-10.991000	25.165036	0.000493	20.941638
928.233801	-3.000800	3.673800	-11.023000	25.119933	0.000491	20.904424
929.233937	-2.999600	3.674400	-11.021000	25.107730	0.000493	20.917777
930.237248	-2.988200	3.674700	-10.979000	25.143704	0.000492	20.920699
931.232548	-3.012700	3.673400	-11.067000	25.103822	0.000491	20.928551
932.234927	-2.980000	3.673700	-10.947000	25.126461	0.000491	20.932785
933.235846	-2.976000	3.674100	-10.933000	25.154509	0.000492	20.925856
934.235712	-3.016200	3.671500	-11.073000	25.176966	0.000490	20.930856
935.235958	-3.003100	3.671800	-11.027000	25.172398	0.000490	20.933857
936.235929	-3.005700	3.671300	-11.034000	25.140546	0.000490	20.946924
937.237526	-3.023900	3.671800	-11.102000	25.155181	0.000491	20.933168
938.237175	-3.011800	3.671800	-11.058000	25.146842	0.000491	20.930012
939.236010	-2.988800	3.672000	-10.974000	25.128130	0.000490	20.924030
940.237047	-3.010300	3.671200	-11.051000	25.119233	0.000488	20.946865
941.237010	-3.008200	3.669900	-11.038000	25.151816	0.000486	20.940221
942.236656	-2.977500	3.670800	-10.930000	25.176008	0.000490	20.948858
943.238790	-2.990100	3.671200	-10.977000	25.147093	0.000489	20.953495
944.240932	-3.018300	3.670300	-11.077000	25.195210	0.000487	20.953911
945.240513	-3.004700	3.669400	-11.025000	25.174377	0.000489	20.944377
946.239536	-2.978500	3.669300	-10.928000	25.166160	0.000489	20.959833
947.245295	-3.005200	3.668500	-11.024000	25.182108	0.000489	20.938389
948.241637	-2.995600	3.668600	-10.988000	25.212471	0.000487	20.959385
949.241436	-2.988200	3.669000	-10.963000	25.257932	0.000486	20.941019
950.241400	-3.005200	3.668800	-11.025000	25.215563	0.000487	20.940207
951.241709	-3.017600	3.668400	-11.069000	25.240406	0.000488	20.944759
952.240956	-3.000900	3.670200	-11.013000	25.247018	0.000486	20.951871
953.240930	-3.023400	3.667000	-11.086000	25.243162	0.000486	20.966964
954.242678	-3.033800	3.667200	-11.125000	25.255972	0.000485	20.947111
955.242761	-2.997800	3.667800	-10.994000	25.260216	0.000486	20.973653
956.244577	-2.972800	3.667700	-10.902000	25.234415	0.000486	20.954390
957.242381	-2.993800	3.666600	-10.977000	25.260241	0.000485	20.958508
958.242173	-2.991200	3.666700	-10.967000	25.247826	0.000485	20.975913
959.241272	-2.990900	3.665600	-10.963000	25.257939	0.000485	20.959515
960.241669	-3.006600	3.667700	-11.026000	25.220150	0.000485	20.952397
961.241657	-2.997200	3.665900	-10.987000	25.178562	0.000484	20.968490
962.242059	-3.008500	3.664400	-11.024000	25.185699	0.000482	20.978497
963.242644	-2.995100	3.666000	-10.979000	25.155730	0.000483	20.958371
964.244458	-2.998400	3.665200	-10.989000	25.151615	0.000481	20.967516
965.243233	-3.014900	3.664400	-11.047000	25.176570	0.000482	20.966016
966.243033	-2.970000	3.666400	-10.888000	25.195332	0.000482	20.966360
967.243134	-3.010900	3.663300	-11.029000	25.219341	0.000482	20.976712
968.243223	-2.982400	3.665900	-10.933000	25.208479	0.000483	20.977660
969.244960	-3.014100	3.663300	-11.040000	25.215641	0.000481	20.994331
970.244711	-3.016500	3.663800	-11.051000	25.258954	0.000484	20.976653
971.243700	-3.002000	3.663000	-10.996000	25.269299	0.000481	20.960489
972.244075	-3.039200	3.662800	-11.131000	25.241292	0.000481	20.972672
973.243759	-2.997800	3.663500	-10.982000	25.236595	0.000480	20.977913
974.243274	-3.001000	3.662400	-10.990000	25.233057	0.000480	20.980524
975.243343	-2.983800	3.662400	-10.927000	25.281862	0.000480	20.971205
976.244282	-2.966800	3.662300	-10.864000	25.289334	0.000479	20.985342
977.246739	-3.003600	3.662400	-10.999000	25.313949	0.000478	20.999149
978.244215	-2.999600	3.661900	-10.983000	25.349729	0.000476	20.988609
979.244411	-2.998000	3.661400	-10.976000	25.361224	0.000480	20.991142
980.245532	-3.011700	3.661200	-11.026000	25.352193	0.000479	20.982550
981.249251	-2.998300	3.661200	-10.977000	25.333724	0.000478	20.980127
982.245652	-2.998200	3.660800	-10.975000	25.329707	0.000478	20.977517
983.246948	-2.969400	3.661000	-10.870000	25.316698	0.000478	20.981050
984.248111	-2.988100	3.661100	-10.938000	25.290802	0.000479	21.010046
985.248993	-3.003400	3.659200	-10.989000	25.323613	0.000477	20.995102
986.250086	-3.015000	3.659900	-11.034000	25.317008	0.000477	20.984206
987.248983	-2.989700	3.659600	-10.940000	25.341015	0.000476	20.998824
988.250716	-2.995200	3.659400	-10.960000	25.354024	0.000475	20.990550
989.249825	-2.995000	3.659000	-10.958000	25.305856	0.000475	21.001454
990.247975	-3.008300	3.658100	-11.003000	25.294185	0.000474	20.994479
991.249984	-2.999400	3.658000	-10.971000	25.300292	0.000475	21.000610
992.248943	-3.000000	3.657600	-10.972000	25.317817	0.000476	21.000187
993.248434	-3.013500	3.657200	-11.020000	25.366139	0.000474	21.006032
994.252224	-3.004000	3.658100	-10.988000	25.374200	0.000475	20.998954
995.252028	-3.007000	3.657400	-10.996000	25.356669	0.000474	21.002688
996.250886	-2.985200	3.658300	-10.920000	25.373042	0.000472	20.989732
997.253527	-2.975400	3.658700	-10.885000	25.403935	0.000473	21.021221
998.251653	-2.982000	3.657800	-10.906000	25.357898	0.000473	21.020514
999.252747	-2.980700	3.658100	-10.902000	25.323975	0.000472	21.009688
1000.253064	-2.994100	3.656300	-10.946000	25.290730	0.000471	21.013766
1001.254792	-2.986900	3.656200	-10.920000	25.275301	0.000473	20.997329
1002.253134	-3.012700	3.654600	-11.009000	25.260971	0.000473	21.001434
1003.253864	-2.993500	3.655800	-10.943000	25.310060	0.000471	20.981971
1004.254603	-2.979100	3.655600	-10.890000	25.333303	0.000469	21.005778
1005.253047	-2.995100	3.654400	-10.945000	25.332591	0.000472	21.001271
1006.252551	-3.000800	3.654300	-10.965000	25.338859	0.000469	20.987179
1007.254994	-2.999700	3.653800	-10.959000	25.313805	0.000471	21.012752
1008.253417	-3.002700	3.654200	-10.972000	25.325980	0.000471	21.013123
1009.253550	-3.009000	3.652700	-10.989000	25.340069	0.000469	21.003089
1010.254612	-3.016100	3.653000	-11.016000	25.286518	0.000470	20.979671
1011.254384	-3.012300	3.653400	-11.005000	25.324091	0.000467	20.966189
1012.257170	-3.002400	3.652600	-10.966000	25.350639	0.000469	20.998530
1013.256291	-2.991600	3.653400	-10.929000	25.345283	0.000468	20.974664
1014.255545	-3.009300	3.651000	-10.986000	25.375925	0.000468	20.989783
1015.258382	-3.021100	3.651700	-11.032000	25.358738	0.000467	20.975846
1016.258008	-3.018700	3.649900	-11.017000	25.340897	0.000466	20.981639
1017.256326	-3.009500	3.651800	-10.989000	25.342922	0.000467	20.996472
1018.256928	-3.001900	3.650900	-10.959000	25.298292	0.000467	20.971579
1019.262419	-2.991500	3.651400	-10.922000	25.308966	0.000466	20.975657
1020.258908	-3.011700	3.649300	-10.989000	25.360601	0.000466	20.953064
1021.259770	-3.006200	3.651100	-10.975000	25.383629	0.000466	20.960064
1022.266534	-2.981900	3.650500	-10.884000	25.383098	0.000465	20.984184
1023.264853	-3.006700	3.650300	-10.974000	25.357974	0.000465	20.977924
1024.259467	-3.013600	3.650800	-11.001000	25.351014	0.000464	20.972358
1025.261109	-2.999900	3.649100	-10.946000	25.325934	0.000463	20.970410
1026.262913	-3.000500	3.648000	-10.945000	25.321528	0.000465	20.979736
1027.264218	-2.981900	3.648600	-10.879000	25.324465	0.000467	20.968936
1028.266674	-2.994100	3.649200	-10.924000	25.355212	0.000464	20.967091
1029.263300	-2.995400	3.649300	-10.930000	25.356577	0.000463	20.944283
1030.265122	-3.009600	3.648100	-10.978000	25.362605	0.000461	20.980677
1031.263819	-3.005300	3.648000	-10.962000	25.357650	0.000463	20.966221
1032.263431	-3.013800	3.646100	-10.988000	25.343555	0.000463	20.973877
1033.263062	-3.033600	3.646700	-11.062000	25.341278	0.000463	20.966851
1034.264549	-3.010500	3.647300	-10.979000	25.394366	0.000461	20.956148
1035.263631	-2.990100	3.646700	-10.902000	25.358957	0.000461	20.965162
1036.266006	-2.993800	3.646300	-10.916000	25.346233	0.000460	20.968507
1037.267210	-2.978900	3.647100	-10.863000	25.309288	0.000459	20.957966
1038.264380	-2.986900	3.646000	-10.889000	25.299792	0.000459	20.982566
1039.266935	-3.005200	3.647300	-10.960000	25.317387	0.000461	20.960882
1040.267476	-2.992700	3.645000	-10.907000	25.361809	0.000461	20.953803
1041.265137	-2.993900	3.644900	-10.911000	25.313816	0.000460	20.956349
1042.269226	-3.021900	3.644600	-11.012000	25.295645	0.000459	20.953277
1043.266522	-3.016200	3.644300	-10.991000	25.306086	0.000458	20.970870
1044.265657	-3.008200	3.643600	-10.959000	25.368608	0.000460	20.950673
1045.268487	-3.007500	3.643700	-10.957000	25.372010	0.000455	20.957407
1046.266549	-2.995100	3.644600	-10.915000	25.409289	0.000460	20.961174
1047.265857	-2.993000	3.645300	-10.909000	25.445434	0.000456	20.954796
1048.268947	-2.984300	3.643700	-10.873000	25.465376	0.000458	20.925987
1049.267730	-2.998600	3.642800	-10.922000	25.478066	0.000458	20.948685
1050.265641	-2.990500	3.642600	-10.893000	25.468157	0.000455	20.934943
1051.270176	-2.993500	3.642900	-10.904000	25.410816	0.000456	20.939951
1052.268106	-2.982500	3.641900	-10.861000	25.387936	0.000458	20.943055
1053.266224	-3.011600	3.642000	-10.968000	25.343600	0.000456	20.953537
1054.269280	-2.999100	3.642700	-10.924000	25.328669	0.000453	20.940918
1055.272190	-2.993700	3.641800	-10.902000	25.348768	0.000454	20.947348
1056.268136	-3.003100	3.641300	-10.934000	25.362359	0.000454	20.951985
1057.270172	-2.995000	3.640200	-10.900000	25.372360	0.000453	20.936898
1058.272772	-2.973800	3.640400	-10.825000	25.403390	0.000456	20.937236
1059.269225	-2.982600	3.640000	-10.855000	25.452925	0.000452	20.941458
1060.271608	-3.001700	3.639400	-10.924000	25.440959	0.000452	20.948406
1061.272828	-2.988700	3.639800	-10.877000	25.433643	0.000453	20.941535
1062.269507	-2.985800	3.639600	-10.867000	25.432097	0.000452	20.939035
1063.269946	-3.016000	3.638500	-10.973000	25.403002	0.000450	20.929735
1064.272942	-2.992100	3.639900	-10.890000	25.387186	0.000453	20.930924
1065.269407	-3.004800	3.637100	-10.928000	25.378137	0.000452	20.941276
1066.274513	-3.000100	3.638000	-10.914000	25.399593	0.000452	20.938639
1067.273862	-2.997400	3.638400	-10.904000	25.393558	0.000450	20.925942
1068.274198	-2.997700	3.637600	-10.904000	25.387186	0.000449	20.938035
1069.273662	-2.997800	3.637100	-10.903000	25.416748	0.000450	20.944484
1070.275276	-3.011900	3.636800	-10.953000	25.438598	0.000451	20.940347
1071.274511	-3.013500	3.636800	-10.959000	25.474542	0.000449	20.952732
1072.274739	-3.018100	3.636500	-10.975000	25.435344	0.000450	20.941347
1073.275998	-3.019700	3.635700	-10.978000	25.469257	0.000450	20.949322
1074.274610	-2.990900	3.637200	-10.878000	25.428416	0.000450	20.919694
1075.275887	-2.989500	3.636000	-10.868000	25.436178	0.000449	20.916583
1076.275537	-2.994000	3.634500	-10.880000	25.442634	0.000449	20.921642
1077.275328	-2.988600	3.634700	-10.862000	25.484295	0.000450	20.942139
1078.275904	-2.974300	3.636800	-10.815000	25.500206	0.000448	20.932040
1079.277504	-2.990600	3.634700	-10.868000	25.489036	0.000447	20.937418
1080.274461	-2.990900	3.635500	-10.873000	25.457401	0.000445	20.940262
1081.278912	-3.009900	3.634800	-10.939000	25.419677	0.000447	20.918505
1082.278154	-3.001000	3.632700	-10.900000	25.424897	0.000446	20.916161
1083.277221	-3.006400	3.633200	-10.922000	25.431974	0.000447	20.930377
1084.276626	-3.024000	3.633400	-10.986000	25.454380	0.000447	20.945289
1085.279722	-2.985700	3.633300	-10.847000	25.413532	0.000445	20.942678
1086.277962	-2.999600	3.633300	-10.897000	25.431003	0.000443	20.936989
1087.277254	-2.995400	3.630600	-10.875000	25.446223	0.000444	20.937099
1088.281587	-2.997200	3.632800	-10.887000	25.455505	0.000441	20.937411
1089.278582	-2.979000	3.632000	-10.819000	25.480737	0.000444	20.926714
1090.281125	-3.006900	3.630000	-10.914000	25.521660	0.000442	20.924188
1091.280640	-3.010400	3.632000	-10.932000	25.528141	0.000444	20.951556
1092.280853	-2.986900	3.631300	-10.845000	25.509494	0.000445	20.925247
1093.281189	-2.999700	3.629100	-10.885000	25.498214	0.000441	20.926247
1094.284685	-3.000000	3.631300	-10.893000	25.480453	0.000442	20.922162
1095.281735	-3.003900	3.629300	-10.901000	25.475285	0.000442	20.915550
1096.281082	-3.000500	3.630300	-10.892000	25.485860	0.000440	20.921428
1097.291561	-3.005700	3.629300	-10.908000	25.450130	0.000438	20.927747
1098.282265	-2.999700	3.628600	-10.884000	25.457297	0.000441	20.924513
1099.282084	-2.998300	3.628100	-10.876000	25.472898	0.000439	20.924058
1100.286504	-3.024700	3.628800	-10.975000	25.485834	0.000438	20.920928
1101.283739	-3.010800	3.628200	-10.923000	25.477213	0.000441	20.931709
1102.284133	-3.008200	3.626600	-10.909000	25.471023	0.000437	20.935450
1103.286827	-3.004400	3.627500	-10.898000	25.479574	0.000436	20.908478
1104.284424	-2.985200	3.628500	-10.831000	25.483539	0.000438	20.933320
1105.284236	-2.990500	3.628000	-10.849000	25.519501	0.000439	20.938139
1106.287396	-2.977000	3.627500	-10.798000	25.546096	0.000437	20.900366
1107.283663	-2.996700	3.626000	-10.865000	25.526932	0.000439	20.936594
1108.283977	-3.001700	3.625700	-10.882000	25.462822	0.000436	20.910622
1109.287144	-2.988300	3.626300	-10.836000	25.466547	0.000436	20.908673
1110.284504	-3.011400	3.623900	-10.912000	25.440526	0.000436	20.929482
1111.284311	-3.023800	3.624500	-10.959000	25.476806	0.000435	20.906173
1112.287708	-2.995100	3.625800	-10.859000	25.504191	0.000436	20.913285
1113.285226	-2.986000	3.625100	-10.824000	25.553689	0.000434	20.933593
1114.284349	-3.011700	3.624300	-10.914000	25.475467	0.000435	20.932801
1115.289658	-2.991300	3.624900	-10.842000	25.428352	0.000433	20.899717
1116.284719	-2.993700	3.625100	-10.852000	25.443592	0.000434	20.939672
1117.289643	-2.980100	3.623900	-10.798000	25.448243	0.000433	20.915422
1118.291002	-2.990300	3.624500	-10.838000	25.449187	0.000433	20.926326
1119.285902	-2.979000	3.623900	-10.795000	25.473346	0.000434	20.914077
1120.289359	-3.005100	3.623100	-10.887000	25.410784	0.000433	20.926644
1121.293056	-3.023900	3.621400	-10.950000	25.419155	0.000434	20.917032
1122.288967	-2.984300	3.622500	-10.810000	25.436309	0.000434	20.927144
1123.288653	-3.000500	3.622200	-10.868000	25.436910	0.000430	20.921585
1124.290655	-2.985400	3.620600	-10.807000	25.422512	0.000430	20.924196
1125.288629	-2.978900	3.620300	-10.783000	25.386857	0.000431	20.916844
1126.289957	-2.984500	3.620300	-10.804000	25.373377	0.000430	20.921325
1127.290914	-2.994400	3.620900	-10.842000	25.447408	0.000432	20.912213
1128.289875	-2.981400	3.620200	-10.792000	25.475532	0.000429	20.920540
1129.289401	-3.004100	3.619800	-10.874000	25.475344	0.000431	20.907550
1130.295534	-2.982600	3.620700	-10.798000	25.501534	0.000429	20.915357
1131.290105	-3.026700	3.619300	-10.954000	25.497174	0.000430	20.914772
1132.292159	-2.980400	3.619400	-10.786000	25.509088	0.000428	20.914883
1133.296125	-3.016100	3.618300	-10.912000	25.513726	0.000427	20.900101
1134.291517	-2.977200	3.618400	-10.772000	25.504522	0.000426	20.918832
1135.295875	-3.018300	3.618600	-10.921000	25.520866	0.000427	20.922443
1136.295118	-3.002200	3.617800	-10.861000	25.546673	0.000427	20.909954
1137.296324	-3.009500	3.618900	-10.890000	25.565778	0.000428	20.920131
1138.299685	-2.988000	3.617900	-10.810000	25.515252	0.000426	20.894048
1139.298015	-2.999100	3.617300	-10.848000	25.466962	0.000425	20.904823
1140.296001	-2.990500	3.618000	-10.819000	25.434563	0.000427	20.923021
1141.296832	-2.966500	3.617900	-10.732000	25.437609	0.000425	20.912331
1142.300925	-3.019400	3.614900	-10.914000	25.471994	0.000424	20.910824
1143.295162	-3.001600	3.614500	-10.848000	25.504238	0.000426	20.933243
1144.294893	-2.979800	3.616200	-10.774000	25.490991	0.000423	20.896711
1145.302684	-2.995600	3.614300	-10.827000	25.519217	0.000424	20.903719
1146.296549	-3.007500	3.614400	-10.870000	25.495894	0.000424	20.913013
1147.298088	-2.986700	3.614000	-10.793000	25.465229	0.000424	20.901186
1148.301697	-3.006400	3.614100	-10.865000	25.480888	0.000422	20.924969
1149.295598	-2.988100	3.616000	-10.803000	25.495551	0.000423	20.914091
1150.298223	-3.007900	3.614100	-10.869000	25.492744	0.000423	20.909850
1151.302697	-3.012800	3.613900	-10.887000	25.562854	0.000422	20.921462
1152.296437	-2.983100	3.614100	-10.780000	25.588375	0.000420	20.909635
1153.299937	-2.996100	3.613200	-10.825000	25.598969	0.000424	20.888508
1154.299926	-2.990700	3.611400	-10.800000	25.596343	0.000422	20.883026
1155.296584	-2.982500	3.613300	-10.776000	25.616359	0.000422	20.911187
1156.297796	-3.006000	3.611500	-10.855000	25.561988	0.000421	20.916325
1157.299231	-2.993100	3.612000	-10.810000	25.518835	0.000420	20.922774
1158.298526	-3.014400	3.610600	-10.882000	25.555235	0.000420	20.891528
1159.301312	-3.030600	3.610500	-10.940000	25.535832	0.000421	20.894327
1160.299235	-3.008300	3.610600	-10.860000	25.495512	0.000419	20.898406
1161.298316	-3.001500	3.610800	-10.837000	25.500569	0.000417	20.899217
1162.299993	-3.011600	3.610600	-10.873000	25.509127	0.000418	20.903543
1163.302634	-2.974500	3.609600	-10.735000	25.517567	0.000417	20.889261
1164.300622	-2.991600	3.609400	-10.797000	25.484438	0.000417	20.902932
1165.302672	-2.976300	3.610700	-10.746000	25.446864	0.000415	20.881798
1166.305326	-3.002200	3.609100	-10.834000	25.398073	0.000417	20.918149
1167.301029	-2.986100	3.608600	-10.774000	25.367748	0.000414	20.890547
1168.302310	-3.005700	3.607600	-10.842000	25.389541	0.000413	20.915271
1169.304732	-3.004800	3.607900	-10.839000	25.397834	0.000416	20.895625
1170.306303	-2.988800	3.607500	-10.781000	25.398752	0.000416	20.884695
1171.306349	-2.988200	3.609100	-10.784000	25.422938	0.000415	20.886695
1172.306846	-3.015200	3.605900	-10.871000	25.453209	0.000415	20.900496
1173.305260	-2.987000	3.607400	-10.773000	25.508796	0.000412	20.910323
1174.308432	-3.008800	3.606000	-10.849000	25.535075	0.000413	20.884558
1175.307970	-2.982400	3.608500	-10.761000	25.528866	0.000412	20.878797
1176.305407	-2.997300	3.606300	-10.809000	25.533315	0.000414	20.910290
1177.304242	-2.999300	3.604700	-10.811000	25.533762	0.000411	20.899359
1178.306628	-2.982600	3.605600	-10.754000	25.540320	0.000411	20.879869
1179.305944	-3.008700	3.604200	-10.843000	25.495724	0.000412	20.891981
1180.307044	-2.977300	3.605100	-10.732000	25.554115	0.000413	20.894196
1181.307332	-3.013100	3.605700	-10.862000	25.541969	0.000410	20.896222
1182.306942	-3.012600	3.603200	-10.854000	25.497380	0.000412	20.898385
1183.307121	-2.994000	3.604800	-10.792000	25.485459	0.000406	20.862235
1184.306562	-3.000800	3.602800	-10.810000	25.479147	0.000410	20.878654
1185.307408	-2.996600	3.602900	-10.796000	25.448636	0.000409	20.894482
1186.307312	-2.992100	3.602500	-10.778000	25.491047	0.000409	20.890130
1187.306763	-3.022900	3.601500	-10.886000	25.482600	0.000409	20.876433
1188.307450	-3.010500	3.602800	-10.845000	25.515548	0.000409	20.880122
1189.308765	-2.991700	3.603200	-10.779000	25.548572	0.000407	20.880096
1190.308927	-3.008000	3.602500	-10.835000	25.555810	0.000406	20.884044
1191.310927	-3.000400	3.601600	-10.805000	25.606902	0.000406	20.883200
1192.310867	-2.991000	3.602400	-10.774000	25.652722	0.000407	20.887493
1193.312242	-3.035700	3.601200	-10.931000	25.621564	0.000408	20.883226
1194.310822	-2.996100	3.602100	-10.790000	25.574585	0.000406	20.881089
1195.311320	-3.028000	3.601000	-10.903000	25.568919	0.000407	20.877296
1196.311989	-2.990300	3.599300	-10.762000	25.551941	0.000406	20.886324
1197.312865	-2.983700	3.599900	-10.740000	25.514926	0.000405	20.885661
1198.312685	-2.993200	3.600200	-10.775000	25.561565	0.000404	20.876075
1199.312931	-2.999300	3.599200	-10.794000	25.582313	0.000404	20.888850
1200.314638	-2.992600	3.598800	-10.769000	25.561093	0.000404	20.886979
1201.315202	-3.013600	3.599000	-10.845000	25.507766	0.000403	20.879894
1202.313436	-2.995600	3.598500	-10.779000	25.497741	0.000403	20.891636
1203.314959	-2.993400	3.597500	-10.768000	25.496790	0.000403	20.885940
1204.314024	-2.999800	3.597600	-10.791000	25.485717	0.000402	20.894259
1205.314169	-3.013100	3.597600	-10.839000	25.473233	0.000403	20.887414
1206.314473	-3.006800	3.596600	-10.813000	25.515042	0.000402	20.887200
1207.315750	-3.015000	3.595900	-10.841000	25.483013	0.000401	20.901975
1208.315755	-2.980700	3.596600	-10.719000	25.523793	0.000403	20.886504
1209.325567	-2.984700	3.596800	-10.734000	25.526238	0.000402	20.879003
1210.315458	-3.015000	3.594300	-10.836000	25.520908	0.000399	20.877918
1211.316504	-3.021200	3.594400	-10.858000	25.556629	0.000400	20.885816
1212.315782	-3.009100	3.594600	-10.816000	25.604133	0.000398	20.877574
1213.317026	-2.991200	3.594700	-10.751000	25.597956	0.000398	20.907404
1214.316874	-3.018500	3.594700	-10.850000	25.593002	0.000400	20.879197
1215.316025	-3.026700	3.593300	-10.875000	25.624446	0.000401	20.879009
1216.316351	-2.993700	3.595100	-10.762000	25.552684	0.000399	20.890862
1217.321280	-2.983000	3.593600	-10.719000	25.538907	0.000399	20.851899
1218.320218	-2.999800	3.592600	-10.776000	25.551603	0.000397	20.874605
1219.317651	-3.026100	3.593200	-10.873000	25.565211	0.000398	20.871202
1220.320391	-3.028500	3.592400	-10.878000	25.571297	0.000398	20.864512
1221.319930	-2.997200	3.592900	-10.768000	25.626826	0.000396	20.863856
1222.317561	-2.972200	3.591800	-10.675000	25.570689	0.000398	20.864376
1223.320495	-2.980400	3.592100	-10.705000	25.587498	0.000397	20.878411
1224.322052	-3.014900	3.591400	-10.827000	25.533357	0.000396	20.890894
1225.320559	-2.973400	3.590800	-10.676000	25.502118	0.000394	20.869480
1226.319685	-2.973900	3.590500	-10.677000	25.510196	0.000395	20.880911
1227.319762	-3.023500	3.590700	-10.856000	25.502351	0.000393	20.872559
1228.320191	-2.972200	3.590600	-10.671000	25.523720	0.000394	20.872682
1229.322598	-3.027500	3.588800	-10.864000	25.529755	0.000395	20.868785
1230.327874	-2.999500	3.589600	-10.766000	25.556401	0.000396	20.878949
1231.322060	-3.002400	3.589300	-10.776000	25.597380	0.000392	20.871266
1232.325088	-2.999500	3.589300	-10.766000	25.624937	0.000391	20.883768
1233.323313	-3.021600	3.588100	-10.841000	25.623177	0.000392	20.877261
1234.322567	-3.009900	3.589100	-10.803000	25.608490	0.000394	20.854925
1235.324890	-3.010000	3.587700	-10.798000	25.616251	0.000392	20.843753
1236.324027	-2.997400	3.588700	-10.756000	25.619342	0.000390	20.854444
1237.322359	-2.996800	3.588100	-10.752000	25.609855	0.000391	20.881424
1238.323472	-3.013600	3.587900	-10.811000	25.612209	0.000391	20.862452
1239.328021	-3.011100	3.586500	-10.798000	25.630699	0.000391	20.849729
1240.322665	-3.013900	3.585600	-10.805000	25.609318	0.000390	20.869506
1241.323058	-3.001300	3.585500	-10.760000	25.572253	0.000387	20.858834
1242.324134	-2.994600	3.585200	-10.735000	25.564673	0.000388	20.834153
1243.322689	-3.009200	3.585000	-10.787000	25.528448	0.000387	20.859412
1244.322225	-3.001300	3.585100	-10.759000	25.531306	0.000389	20.857068
1245.323966	-3.016600	3.584900	-10.814000	25.521178	0.000388	20.849267
1246.323698	-2.989800	3.585900	-10.721000	25.520654	0.000386	20.873870
1247.323052	-3.027900	3.584000	-10.850000	25.569355	0.000388	20.861614
1248.324586	-3.009500	3.583200	-10.782000	25.593595	0.000387	20.876474
1249.324453	-3.009100	3.584100	-10.784000	25.582387	0.000386	20.858581
1250.324146	-2.991600	3.583500	-10.720000	25.612215	0.000386	20.851079
1251.323940	-3.020100	3.583300	-10.821000	25.624218	0.000386	20.849384
1252.322935	-2.998100	3.582700	-10.740000	25.643264	0.000386	20.857132
1253.323246	-2.994500	3.583300	-10.729000	25.633505	0.000385	20.850650
1254.325469	-2.983000	3.582100	-10.685000	25.646200	0.000384	20.861977
1255.325006	-2.981900	3.581800	-10.680000	25.585032	0.000384	20.837056
1256.325563	-3.014100	3.581600	-10.795000	25.568223	0.000383	20.852417
1257.326614	-2.998000	3.582000	-10.738000	25.575641	0.000384	20.854651
1258.327610	-3.021700	3.580700	-10.819000	25.581721	0.000383	20.860756
1259.326732	-3.031500	3.581000	-10.855000	25.575460	0.000384	20.842142
1260.326811	-3.019900	3.579600	-10.809000	25.607771	0.000382	20.850410
1261.327130	-2.986900	3.580900	-10.695000	25.585472	0.000381	20.846506
1262.326856	-3.001900	3.579600	-10.744000	25.550560	0.000380	20.865497
1263.327207	-2.981300	3.581000	-10.675000	25.511139	0.000383	20.863841
1264.331769	-2.993500	3.580400	-10.716000	25.501644	0.000380	20.871849
1265.328379	-2.978200	3.580000	-10.661000	25.518558	0.000381	20.858489
1266.328312	-3.006900	3.578800	-10.760000	25.509839	0.000381	20.862061
1267.329839	-3.002900	3.579000	-10.746000	25.528887	0.000383	20.855586
1268.329143	-3.003100	3.578700	-10.745000	25.540587	0.000378	20.837465
1269.329044	-3.004100	3.577900	-10.748000	25.530930	0.000377	20.851475
1270.329941	-3.002600	3.578500	-10.744000	25.579948	0.000380	20.840485
1271.330041	-2.993600	3.578300	-10.711000	25.629546	0.000378	20.845726
1272.329211	-3.012300	3.577200	-10.774000	25.679847	0.000378	20.844090
1273.333903	-3.008200	3.576000	-10.757000	25.718951	0.000379	20.837374
1274.330657	-3.009200	3.576800	-10.762000	25.689211	0.000377	20.845434
1275.330789	-2.997800	3.576100	-10.719000	25.692121	0.000378	20.847883
1276.332813	-3.022600	3.573900	-10.801000	25.710868	0.000376	20.840160
1277.331400	-2.996800	3.574500	-10.712000	25.711340	0.000376	20.843479
1278.333940	-3.017400	3.574600	-10.785000	25.722326	0.000376	20.833178
1279.334785	-2.996100	3.574000	-10.707000	25.738402	0.000376	20.846006
1280.331659	-2.997400	3.573600	-10.711000	25.736928	0.000374	20.844050
1281.332242	-2.981200	3.574100	-10.654000	25.685563	0.000375	20.865003
1282.335893	-3.003500	3.573600	-10.733000	25.666854	0.000374	20.861860
1283.332740	-3.008200	3.572800	-10.747000	25.671258	0.000373	20.858222
1284.333319	-3.020000	3.572700	-10.789000	25.705300	0.000373	20.843102
1285.335895	-3.010100	3.573100	-10.755000	25.689333	0.000374	20.836549
1286.333748	-3.004700	3.573000	-10.734000	25.691215	0.000372	20.855507
1287.333394	-2.988700	3.573000	-10.677000	25.603534	0.000373	20.842836
1288.336620	-2.982600	3.572700	-10.655000	25.612479	0.000372	20.852767
1289.333945	-3.003400	3.571500	-10.726000	25.617827	0.000372	20.841069
1290.335551	-2.998100	3.570800	-10.705000	25.592857	0.000374	20.849655
1291.336790	-2.991100	3.570900	-10.680000	25.598186	0.000372	20.848370
1292.335998	-3.002500	3.570800	-10.720000	25.657251	0.000370	20.864068
1293.336344	-2.998100	3.572100	-10.709000	25.686837	0.000370	20.855378
1294.340466	-3.026400	3.569300	-10.800000	25.728405	0.000371	20.857300
1295.336911	-2.982700	3.569800	-10.646000	25.703146	0.000372	20.862275
1296.337759	-3.021500	3.569500	-10.785000	25.688977	0.000369	20.876966
1297.339633	-2.998800	3.568700	-10.701000	25.673929	0.000370	20.849526
1298.337194	-2.992100	3.569000	-10.678000	25.638606	0.000370	20.846291
1299.339551	-2.989700	3.568000	-10.666000	25.591078	0.000369	20.869679
1300.339384	-3.009800	3.568000	-10.738000	25.580776	0.000369	20.848428
1301.338593	-3.012200	3.567300	-10.745000	25.592941	0.000369	20.855430
1302.339756	-3.012100	3.568100	-10.747000	25.578564	0.000366	20.868965
1303.341479	-3.013500	3.566800	-10.748000	25.597972	0.000366	20.865698
1304.340933	-2.984900	3.567500	-10.648000	25.587638	0.000366	20.857216
1305.343782	-3.004300	3.566300	-10.714000	25.561755	0.000365	20.850188
1306.344429	-3.011300	3.565800	-10.737000	25.554880	0.000365	20.864620
1307.338733	-2.980400	3.566800	-10.629000	25.528750	0.000366	20.870621
1308.344125	-2.978800	3.566100	-10.622000	25.517625	0.000366	20.840010
1309.344531	-3.007600	3.564000	-10.718000	25.567963	0.000366	20.866380
1310.339573	-3.011900	3.564900	-10.736000	25.579450	0.000364	20.863217
1311.340668	-2.992900	3.565800	-10.671000	25.538503	0.000365	20.867140
1312.343360	-3.005700	3.564600	-10.712000	25.547610	0.000364	20.868224
1313.344117	-2.994100	3.565300	-10.675000	25.546478	0.000364	20.861398
1314.345440	-2.973000	3.565000	-10.598000	25.564865	0.000362	20.844778
1315.344707	-2.991100	3.563600	-10.658000	25.595340	0.000361	20.859261
1316.342424	-2.986800	3.563100	-10.640000	25.627683	0.000363	20.873725
1317.344249	-2.993100	3.563600	-10.666000	25.646043	0.000361	20.857079
1318.345068	-3.020200	3.563200	-10.761000	25.674446	0.000361	20.877070
1319.343480	-3.005800	3.562000	-10.705000	25.601348	0.000360	20.863873
1320.343836	-2.992600	3.562600	-10.661000	25.632585	0.000360	20.881019
1321.342917	-3.026700	3.561300	-10.777000	25.674944	0.000361	20.886104
1322.343069	-3.010700	3.560700	-10.719000	25.714889	0.000359	20.871699
1323.342711	-3.011900	3.561400	-10.726000	25.733222	0.000360	20.854078
1324.343096	-2.993600	3.561300	-10.660000	25.727926	0.000359	20.871517
1325.344471	-2.991200	3.561100	-10.651000	25.628886	0.000360	20.889157
1326.343904	-2.998100	3.559600	-10.671000	25.601717	0.000357	20.879889
1327.342752	-2.996200	3.561400	-10.670000	25.568759	0.000358	20.867179
1328.343401	-3.012600	3.558200	-10.719000	25.566023	0.000358	20.874388
1329.343340	-3.005100	3.559700	-10.696000	25.557661	0.000359	20.864568
1330.344980	-2.985900	3.560500	-10.631000	25.604906	0.000357	20.881195
1331.343688	-3.009300	3.558500	-10.707000	25.619593	0.000357	20.892625
1332.344044	-3.017600	3.558100	-10.736000	25.643094	0.000356	20.857437
1333.345471	-3.009400	3.556500	-10.702000	25.672287	0.000359	20.873953
1334.344850	-2.990700	3.557400	-10.638000	25.698930	0.000357	20.888384
1335.343939	-2.983000	3.559200	-10.616000	25.657736	0.000357	20.873564
1336.344439	-2.995400	3.557900	-10.657000	25.639059	0.000354	20.883728
1337.345258	-3.000700	3.556900	-10.672000	25.576475	0.000356	20.876824
1338.345463	-3.009000	3.555800	-10.698000	25.578363	0.000354	20.894840
1339.346356	-3.001600	3.557400	-10.677000	25.581170	0.000356	20.889125
1340.346500	-2.988800	3.556700	-10.629000	25.626519	0.000354	20.887254
1341.347436	-3.009900	3.555800	-10.702000	25.669881	0.000354	20.867744
1342.347199	-3.003800	3.554400	-10.675000	25.661985	0.000354	20.880201
1343.348334	-3.009000	3.554500	-10.695000	25.668536	0.000352	20.881091
1344.349038	-2.982600	3.555300	-10.604000	25.663899	0.000351	20.882598
1345.349318	-3.017400	3.554700	-10.725000	25.637591	0.000352	20.890788
1346.351297	-3.017300	3.553300	-10.721000	25.681606	0.000352	20.893743
1347.347064	-2.986600	3.554600	-10.615000	25.684011	0.000353	20.889047
1348.354084	-2.978900	3.553800	-10.586000	25.715879	0.000352	20.886917
1349.351332	-2.989600	3.554000	-10.624000	25.754038	0.000350	20.892528
1350.347828	-2.982800	3.553000	-10.597000	25.780078	0.000350	20.900666
1351.347520	-2.991400	3.553100	-10.628000	25.778636	0.000349	20.862711
1352.351088	-2.995800	3.552100	-10.641000	25.813172	0.000349	20.897873
1353.352153	-2.994200	3.551300	-10.632000	25.813851	0.000349	20.892392
1354.347820	-3.011300	3.552300	-10.696000	25.799115	0.000346	20.889917
1355.352373	-2.997800	3.550500	-10.643000	25.791349	0.000348	20.887332
1356.352874	-2.981200	3.551300	-10.586000	25.722986	0.000351	20.906855
1357.350033	-3.002400	3.550000	-10.658000	25.667986	0.000348	20.890969
1358.353734	-2.988100	3.551200	-10.611000	25.712627	0.000348	20.902614
1359.349991	-2.991400	3.550700	-10.620000	25.741784	0.000348	20.902030
1360.350367	-2.999000	3.548500	-10.641000	25.750514	0.000347	20.903212
1361.353970	-3.004100	3.549400	-10.661000	25.739741	0.000347	20.897607
1362.351525	-2.995100	3.549300	-10.629000	25.722876	0.000347	20.913382
1363.352622	-3.019200	3.547700	-10.710000	25.742515	0.000348	20.929788
1364.353544	-3.017400	3.548100	-10.706000	25.753586	0.000345	20.892073
1365.352681	-2.984100	3.548600	-10.588000	25.735699	0.000346	20.894496
1366.354317	-2.996900	3.548200	-10.633000	25.654237	0.000344	20.898971
1367.356914	-3.005500	3.547100	-10.660000	25.628459	0.000347	20.896315
1368.354976	-3.002200	3.547200	-10.648000	25.661765	0.000345	20.894204
1369.353858	-2.994300	3.546000	-10.617000	25.667268	0.000346	20.912532
1370.357142	-3.006900	3.546600	-10.663000	25.656067	0.000345	20.906498
1371.355570	-3.013400	3.546300	-10.685000	25.677499	0.000343	20.899575
1372.355109	-3.002500	3.546900	-10.647000	25.684632	0.000344	20.909109
1373.359074	-2.997400	3.544900	-10.625000	25.696117	0.000346	20.908316
1374.355733	-3.022000	3.544200	-10.709000	25.706942	0.000344	20.914921
1375.356140	-3.001800	3.544000	-10.638000	25.690025	0.000344	20.910258
1376.357212	-2.986900	3.544600	-10.587000	25.656326	0.000343	20.916714
1377.356317	-3.013100	3.544500	-10.678000	25.668781	0.000343	20.910732
1378.359100	-2.988000	3.543300	-10.586000	25.709981	0.000339	20.899958
1379.358636	-2.995100	3.544200	-10.615000	25.736960	0.000341	20.919941
1380.355473	-3.013800	3.543200	-10.678000	25.715226	0.000342	20.928456
1381.359205	-2.979000	3.543400	-10.555000	25.710369	0.000341	20.913622
1382.357149	-2.989700	3.541600	-10.588000	25.708920	0.000340	20.935872
1383.355953	-2.994500	3.542700	-10.608000	25.712936	0.000339	20.925683
1384.357099	-2.986500	3.542000	-10.577000	25.740173	0.000338	20.925065
1385.357376	-3.005500	3.541000	-10.642000	25.772855	0.000338	20.926124
1386.355816	-2.995200	3.540600	-10.603000	25.731760	0.000338	20.930839
1387.355975	-2.993800	3.541200	-10.601000	25.741040	0.000339	20.912187
1388.360528	-2.991100	3.541300	-10.591000	25.763116	0.000339	20.923455
1389.356414	-3.012500	3.540100	-10.663000	25.776734	0.000337	20.931917
1390.359178	-3.002400	3.539600	-10.626000	25.783317	0.000339	20.923357
1391.358997	-3.014100	3.539600	-10.668000	25.813346	0.000338	20.928865
1392.357132	-3.003600	3.537400	-10.623000	25.798836	0.000338	20.923299
1393.358855	-2.984500	3.537400	-10.557000	25.803892	0.000335	20.927903
1394.361658	-3.013700	3.537700	-10.660000	25.839158	0.000335	20.949101
1395.357870	-2.997100	3.538500	-10.604000	25.827629	0.000336	20.925669
1396.360654	-3.021600	3.538100	-10.690000	25.819256	0.000337	20.943334
1397.360063	-2.992700	3.538100	-10.587000	25.797071	0.000335	20.928163
1398.358374	-3.013800	3.535500	-10.655000	25.802793	0.000335	20.926799
1399.361134	-2.998900	3.537100	-10.606000	25.817070	0.000334	20.919805
1400.363153	-2.988400	3.536100	-10.566000	25.789201	0.000334	20.936853
1401.359569	-3.003500	3.535900	-10.620000	25.724977	0.000335	20.942042
1402.361423	-2.979600	3.537000	-10.538000	25.733758	0.000334	20.950861
1403.366250	-2.993200	3.536200	-10.584000	25.742326	0.000332	20.930546
1404.362869	-3.004100	3.536300	-10.623000	25.721892	0.000334	20.941314
1405.363179	-3.016200	3.534700	-10.660000	25.717831	0.000331	20.948140
1406.363216	-2.990400	3.534900	-10.570000	25.702854	0.000333	20.950166
1407.362960	-3.016800	3.533800	-10.660000	25.720599	0.000332	20.939067
1408.365497	-2.993300	3.534000	-10.577000	25.733247	0.000334	20.962200
1409.364038	-2.993500	3.534000	-10.578000	25.803336	0.000332	20.932560
1410.362698	-2.995600	3.533800	-10.585000	25.778473	0.000333	20.951205
1411.363457	-3.023400	3.532300	-10.679000	25.773067	0.000332	20.939612
1412.363708	-3.005200	3.533100	-10.617000	25.813235	0.000329	20.955303
1413.363717	-3.003500	3.531700	-10.606000	25.826827	0.000332	20.967058
1414.363595	-3.010600	3.532300	-10.633000	25.827978	0.000329	20.961576
1415.363596	-3.003900	3.530900	-10.605000	25.783187	0.000329	20.956888
1416.363594	-3.021200	3.530100	-10.664000	25.765670	0.000329	20.951621
1417.365597	-3.014300	3.529400	-10.638000	25.785172	0.000330	20.951296
1418.365594	-2.985700	3.531600	-10.544000	25.759869	0.000329	20.954803
1419.365593	-2.987200	3.530100	-10.544000	25.750002	0.000331	20.970493
1420.364594	-2.964300	3.531000	-10.466000	25.697182	0.000328	20.947789
1421.365594	-3.000900	3.529800	-10.592000	25.737961	0.000326	20.963616
1422.364594	-3.004000	3.528500	-10.599000	25.751547	0.000327	20.969201
1423.364870	-3.005200	3.528300	-10.602000	25.818395	0.000327	20.960485
1424.365872	-3.007400	3.529800	-10.615000	25.801945	0.000326	20.979520
1425.365872	-2.995300	3.528200	-10.567000	25.795104	0.000324	20.949893
1426.367376	-2.996100	3.528200	-10.569000	25.800898	0.000328	20.979416
1427.366080	-3.012300	3.527200	-10.624000	25.831941	0.000325	20.969824
1428.366079	-3.028800	3.527100	-10.682000	25.773959	0.000326	20.970850
1429.368078	-2.991900	3.526100	-10.548000	25.780723	0.000323	20.977169
1430.368082	-2.967500	3.527800	-10.467000	25.803335	0.000325	20.970486
1431.368079	-3.003300	3.525900	-10.588000	25.764176	0.000324	20.965765
1432.368080	-2.999500	3.526000	-10.575000	25.779701	0.000322	20.983728
1433.368632	-3.009500	3.525500	-10.609000	25.795537	0.000324	20.963128
1434.368629	-3.006200	3.524700	-10.596000	25.785941	0.000325	20.967239
1435.370631	-3.003900	3.524200	-10.585000	25.785178	0.000320	20.983540
1436.368629	-3.001500	3.524200	-10.577000	25.844291	0.000321	20.976065
1437.369631	-2.988100	3.524100	-10.529000	25.837702	0.000323	20.960440
1438.370189	-3.014100	3.523900	-10.620000	25.801538	0.000322	20.996652
1439.369186	-3.008000	3.524200	-10.600000	25.821893	0.000321	20.989599
1440.369185	-2.977800	3.525000	-10.496000	25.815285	0.000322	20.997658
1441.369186	-2.997000	3.523200	-10.558000	25.780536	0.000323	21.021543
1442.370188	-3.003900	3.523300	-10.582000	25.778783	0.000320	20.992288
1443.371187	-3.025600	3.521500	-10.653000	25.832245	0.000318	20.979611
1444.373192	-3.036600	3.521200	-10.691000	25.805683	0.000319	20.993229
1445.372185	-3.007900	3.521500	-10.591000	25.838750	0.000322	20.979981
1446.373188	-3.016700	3.520500	-10.619000	25.839332	0.000321	20.990047
1447.373187	-2.988100	3.521300	-10.521000	25.784383	0.000321	21.002652
1448.373187	-2.985600	3.520700	-10.511000	25.788243	0.000318	20.992307
1449.372188	-2.992200	3.520100	-10.532000	25.759707	0.000321	21.000152
1450.375186	-3.005800	3.520100	-10.580000	25.765508	0.000320	20.976584
1451.374188	-2.996800	3.519800	-10.548000	25.783096	0.000318	21.014160
1452.375186	-3.024400	3.518900	-10.642000	25.821039	0.000318	20.980208
1453.375185	-3.009100	3.519400	-10.588000	25.849574	0.000320	20.995593
1454.377187	-3.023700	3.517700	-10.635000	25.875902	0.000316	21.007815
1455.376186	-3.001200	3.519400	-10.562000	25.881695	0.000318	20.997515
1456.375186	-3.016100	3.517500	-10.608000	25.844931	0.000317	21.001360
1457.375188	-3.012500	3.517700	-10.596000	25.831450	0.000317	20.990664
1458.375186	-2.999800	3.516000	-10.546000	25.780891	0.000315	20.999619
1459.376189	-2.986300	3.516600	-10.500000	25.795634	0.000315	21.011581
1460.377184	-2.983700	3.516800	-10.492000	25.793248	0.000317	21.006341
1461.377184	-2.978400	3.516800	-10.474000	25.766807	0.000315	21.020556
1462.377185	-2.976000	3.517300	-10.466000	25.759442	0.000316	21.010315
1463.377184	-2.984000	3.515700	-10.490000	25.729360	0.000313	21.022771
1464.377184	-2.980600	3.514900	-10.476000	25.712941	0.000316	21.002016
1465.377184	-2.960000	3.516200	-10.406000	25.726502	0.000314	21.010893
1466.377184	-2.987100	3.514700	-10.497000	25.759100	0.000312	21.015186
1467.378185	-2.985500	3.513100	-10.487000	25.770002	0.000315	21.010016
1468.378786	-2.974600	3.514600	-10.453000	25.770008	0.000313	21.028985
1469.376957	-2.982600	3.514300	-10.481000	25.747926	0.000312	21.003490
1470.381349	-3.010600	3.514100	-10.579000	25.778693	0.000312	21.012107
1471.378636	-2.987300	3.514000	-10.495000	25.795867	0.000313	21.012763
1472.379638	-3.011900	3.512700	-10.579000	25.788185	0.000314	21.014530
1473.382633	-2.992200	3.512800	-10.510000	25.780393	0.000313	21.031356
1474.382892	-3.027800	3.510900	-10.630000	25.785637	0.000310	21.014341
1475.380115	-3.001000	3.511200	-10.536000	25.766756	0.000312	21.041363
1476.381758	-2.998000	3.510900	-10.525000	25.760205	0.000308	21.027200
1477.382132	-3.032900	3.509600	-10.643000	25.706727	0.000308	21.028011
1478.396468	-3.000000	3.509900	-10.529000	25.721937	0.000311	21.020056
1479.401661	-2.999000	3.509500	-10.524000	25.685723	0.000310	21.018296
1480.395658	-3.007300	3.510000	-10.554000	25.680136	0.000309	21.009367
1481.397659	-2.989700	3.510000	-10.493000	25.730990	0.000310	20.999756
1482.401877	-2.980200	3.510600	-10.461000	25.747622	0.000309	21.015510
1483.397877	-3.014800	3.509100	-10.578000	25.770351	0.000309	21.015582
1484.396065	-2.992700	3.507900	-10.497000	25.777697	0.000307	21.001626
1485.397114	-3.003500	3.508300	-10.537000	25.832898	0.000307	21.017244
1486.399116	-2.984700	3.508400	-10.471000	25.895862	0.000308	20.981403
1487.399340	-2.991700	3.508800	-10.496000	25.900291	0.000307	20.994385
1488.412392	-3.002100	3.509100	-10.534000	25.931984	0.000307	21.016264
1489.406661	-3.005600	3.507500	-10.540000	25.855975	0.000309	21.005815
1490.400858	-3.002000	3.507500	-10.529000	25.809090	0.000306	20.994755
1491.398477	-2.997300	3.507600	-10.512000	25.834101	0.000306	21.006600
1492.398477	-3.001000	3.505400	-10.519000	25.876116	0.000305	20.973422
1493.401726	-2.976800	3.507000	-10.439000	25.904280	0.000305	21.000762
1494.401533	-3.000000	3.505300	-10.515000	25.860145	0.000305	20.995307
1495.399616	-3.004800	3.505500	-10.532000	25.831230	0.000305	21.001821
1496.419667	-3.017800	3.504700	-10.575000	25.839907	0.000304	20.995840
1497.406667	-2.989200	3.504600	-10.475000	25.840955	0.000305	21.011588
1498.400085	-3.013100	3.504200	-10.557000	25.836215	0.000302	21.004932
1499.400085	-2.989600	3.504100	-10.475000	25.850582	0.000302	20.995184
1500.402735	-2.996800	3.503500	-10.498000	25.772783	0.000302	21.002379
1501.403735	-3.022000	3.501900	-10.582000	25.732839	0.000303	20.981702
1502.401959	-2.994800	3.502300	-10.488000	25.737929	0.000303	21.011939
1503.403960	-2.991200	3.503000	-10.477000	25.753746	0.000301	20.972357
1504.407228	-2.980600	3.502600	-10.438000	25.753901	0.000301	20.970616
1505.406227	-2.985800	3.501200	-10.453000	25.782042	0.000301	20.975649
1506.404429	-2.995800	3.502300	-10.492000	25.820096	0.000300	20.982579
1507.419434	-3.015600	3.501600	-10.559000	25.832995	0.000300	20.973253
1508.408129	-3.016100	3.499900	-10.555000	25.841129	0.000301	20.961037
1509.403931	-3.017600	3.500100	-10.561000	25.788444	0.000300	20.991086
1510.413067	-2.958800	3.500900	-10.358000	25.802424	0.000298	20.964356
1511.410942	-3.031900	3.498000	-10.604000	25.773526	0.000299	20.972311
1512.404989	-3.001700	3.498100	-10.499000	25.790313	0.000298	20.979689
1513.409313	-2.989500	3.499800	-10.462000	25.764952	0.000298	20.987878
1514.405221	-2.966000	3.499500	-10.379000	25.796792	0.000298	20.963440
1515.412561	-2.980200	3.499100	-10.427000	25.828443	0.000295	20.969629
1516.406623	-3.024000	3.497400	-10.574000	25.865499	0.000298	20.980774
1517.407098	-2.972700	3.499000	-10.400000	25.866573	0.000298	20.951984
1518.411155	-3.002600	3.497100	-10.500000	25.882414	0.000297	20.976903
1519.415375	-3.001900	3.497000	-10.497000	25.834347	0.000297	20.959914
1520.417635	-3.008000	3.496300	-10.516000	25.791134	0.000296	20.979092
1521.411602	-3.006900	3.496400	-10.512000	25.751909	0.000297	20.970039
1522.412600	-3.022500	3.495600	-10.564000	25.704833	0.000294	20.958316
1523.411753	-3.024900	3.495100	-10.571000	25.746006	0.000296	20.970747
1524.411805	-3.003000	3.495700	-10.496000	25.746109	0.000297	20.954257
1525.409805	-2.991700	3.495800	-10.457000	25.744350	0.000295	20.937320
1526.412846	-3.023000	3.494100	-10.561000	25.734314	0.000296	20.961375
1527.415357	-2.983100	3.493900	-10.422000	25.722487	0.000294	20.982209
1528.412610	-3.003400	3.493800	-10.492000	25.698198	0.000292	20.968246
1529.411718	-3.000400	3.493600	-10.481000	25.708273	0.000295	20.944230
1530.412672	-2.978900	3.493300	-10.404000	25.731540	0.000294	20.952900
1531.420960	-2.982900	3.494100	-10.421000	25.694622	0.000294	20.960862
1532.408963	-2.978400	3.493300	-10.403000	25.675279	0.000293	20.942386
1533.412962	-2.991200	3.492700	-10.447000	25.639200	0.000293	20.954037
1534.416338	-3.004300	3.491100	-10.488000	25.646728	0.000292	20.948796
1535.412377	-3.003400	3.490900	-10.484000	25.642537	0.000291	20.948380
1536.417378	-2.992900	3.491800	-10.450000	25.650925	0.000291	20.949218
1537.410378	-2.994400	3.491900	-10.456000	25.632384	0.000293	20.949088
1538.412684	-2.988600	3.491700	-10.434000	25.654657	0.000289	20.931631
1539.413685	-3.002600	3.490100	-10.478000	25.685859	0.000289	20.953011
1540.413064	-3.003500	3.489600	-10.480000	25.736209	0.000290	20.957589
1541.422068	-3.011000	3.490100	-10.508000	25.784416	0.000292	20.960018
1542.412061	-3.006700	3.489100	-10.490000	25.840328	0.000289	20.935106
1543.411112	-3.004600	3.489200	-10.482000	25.819139	0.000290	20.947958
1544.419111	-3.016600	3.488500	-10.523000	25.829866	0.000290	20.939769
1545.420165	-2.972500	3.490100	-10.373000	25.780484	0.000289	20.942321
1546.411677	-2.992300	3.488500	-10.438000	25.770462	0.000288	20.950270
1547.412677	-2.979300	3.489200	-10.395000	25.796482	0.000290	20.947010
1548.413677	-2.969100	3.487900	-10.355000	25.759740	0.000290	20.948036
1549.413317	-2.998300	3.487200	-10.455000	25.816915	0.000287	20.926760
1550.419074	-2.984800	3.487700	-10.409000	25.818564	0.000288	20.949277
1551.412069	-2.971800	3.486900	-10.361000	25.790216	0.000288	20.958258
1552.411068	-2.972800	3.485700	-10.361000	25.769634	0.000289	20.936164
1553.411289	-2.992900	3.486800	-10.435000	25.794464	0.000287	20.957784
1554.416345	-3.023800	3.485100	-10.537000	25.768030	0.000286	20.916538
1555.417347	-3.010500	3.486400	-10.495000	25.787255	0.000286	20.947224
1556.413347	-3.005300	3.485500	-10.474000	25.805690	0.000286	20.945354
1557.422576	-2.976500	3.485500	-10.373000	25.830946	0.000285	20.954602
1558.426817	-2.993000	3.484600	-10.428000	25.802780	0.000284	20.942906
1559.418913	-2.980100	3.484200	-10.382000	25.788257	0.000285	20.927371
1560.420884	-3.013000	3.483000	-10.493000	25.739430	0.000286	20.932852
1561.418882	-3.016500	3.482300	-10.504000	25.735517	0.000286	20.946465
1562.415404	-2.994400	3.482600	-10.427000	25.721517	0.000287	20.939516
1563.417401	-2.979700	3.482600	-10.376000	25.738666	0.000287	20.923078
1564.425453	-2.976000	3.483200	-10.365000	25.797252	0.000285	20.934034
1565.421504	-2.988900	3.481800	-10.406000	25.812415	0.000284	20.928404
1566.420548	-2.991200	3.481600	-10.413000	25.802942	0.000284	20.935482
1567.417550	-2.995400	3.482000	-10.428000	25.790197	0.000282	20.939749
1568.424858	-3.012300	3.480900	-10.485000	25.847687	0.000282	20.929696
1569.419997	-3.002600	3.480600	-10.450000	25.866360	0.000283	20.914317
1570.427998	-2.989700	3.480700	-10.405000	25.832033	0.000280	20.929618
1571.419997	-3.013300	3.479600	-10.485000	25.809615	0.000281	20.945978
1572.425031	-3.004300	3.479500	-10.453000	25.851676	0.000280	20.946978
1573.419009	-3.007800	3.477900	-10.459000	25.813682	0.000281	20.941529
1574.422009	-2.997900	3.479300	-10.429000	25.800750	0.000281	20.919532
1575.426012	-3.018300	3.478300	-10.498000	25.817956	0.000281	20.922117
1576.417177	-3.004600	3.477400	-10.447000	25.874914	0.000278	20.927650
1577.426233	-3.003200	3.477900	-10.444000	25.879634	0.000279	20.942821
1578.418369	-2.993600	3.479000	-10.414000	25.857767	0.000280	20.902367
1579.418371	-2.985800	3.477100	-10.381000	25.866366	0.000279	20.917168
1580.423866	-3.007500	3.476100	-10.453000	25.894402	0.000278	20.916408
1581.421866	-2.982000	3.476100	-10.364000	25.929380	0.000277	20.932580
1582.420866	-2.989400	3.477800	-10.396000	25.926548	0.000276	20.927839
1583.419916	-3.012100	3.475200	-10.467000	25.917606	0.000279	20.931658
1584.428914	-3.002800	3.475500	-10.436000	25.892009	0.000279	20.938184
1585.420201	-3.009500	3.474200	-10.455000	25.834664	0.000276	20.913297
1586.432202	-3.007200	3.473700	-10.445000	25.833565	0.000279	20.916934
1587.421362	-2.991500	3.474300	-10.392000	25.891809	0.000276	20.932768
1588.429730	-3.004000	3.474200	-10.436000	25.874837	0.000275	20.929469
1589.421737	-2.976600	3.475700	-10.345000	25.866108	0.000274	20.914064
1590.427146	-2.987700	3.474500	-10.380000	25.866554	0.000277	20.923994
1591.428146	-2.986700	3.473600	-10.374000	25.869198	0.000276	20.939925
1592.430567	-2.985200	3.474700	-10.372000	25.855562	0.000275	20.922435
1593.424180	-2.979100	3.473500	-10.346000	25.834373	0.000274	20.925332
1594.425237	-3.000200	3.472800	-10.418000	25.843264	0.000275	20.918142
1595.421194	-2.980600	3.472800	-10.350000	25.807332	0.000274	20.941789
1596.423886	-2.991400	3.472300	-10.386000	25.776178	0.000273	20.925195
1597.437890	-3.005000	3.472000	-10.432000	25.753940	0.000273	20.926092
1598.424888	-2.994700	3.472300	-10.398000	25.740484	0.000274	20.924429
1599.430920	-3.023200	3.470700	-10.492000	25.746258	0.000273	20.913161
1600.423019	-3.020100	3.469300	-10.477000	25.766996	0.000275	20.929722
1601.427022	-2.991100	3.470300	-10.379000	25.749899	0.000272	20.920136
1602.426020	-3.010900	3.470400	-10.449000	25.817400	0.000272	20.920610
1603.437070	-2.985200	3.469700	-10.357000	25.812654	0.000271	20.905413
1604.432082	-3.008200	3.469000	-10.434000	25.863133	0.000270	20.911550
1605.424069	-3.001700	3.469800	-10.414000	25.887839	0.000270	20.906497
1606.431068	-3.003800	3.469700	-10.421000	25.922416	0.000271	20.923214
1607.433291	-3.026000	3.468500	-10.495000	25.887464	0.000271	20.920344
1608.437349	-3.007500	3.467500	-10.428000	25.881250	0.000270	20.928326
1609.429579	-2.975800	3.467200	-10.317000	25.915156	0.000269	20.902172
1610.429577	-2.992800	3.467700	-10.377000	25.904901	0.000268	20.900879
1611.435623	-3.014900	3.466700	-10.451000	25.921860	0.000270	20.902743
1612.432624	-2.990900	3.466900	-10.369000	25.938534	0.000268	20.935138
1613.429626	-3.015900	3.466400	-10.452000	25.950941	0.000268	20.918207
1614.442624	-2.988500	3.466900	-10.360000	25.983215	0.000268	20.924078
1615.434626	-3.018000	3.466000	-10.459000	25.969871	0.000269	20.919207
1616.436127	-3.010000	3.466100	-10.431000	25.895242	0.000268	20.905400
1617.436748	-3.004900	3.466000	-10.414000	25.916138	0.000269	20.929235
1618.434628	-2.989900	3.465200	-10.360000	25.894957	0.000267	20.905114
1619.438629	-3.014100	3.466200	-10.447000	25.925183	0.000266	20.910348
1620.432698	-3.008800	3.464200	-10.422000	25.858245	0.000268	20.911855
1621.440446	-3.004800	3.463400	-10.406000	25.891964	0.000265	20.910167
1622.447446	-3.021000	3.462800	-10.461000	25.934280	0.000265	20.914745
1623.448446	-3.011300	3.461800	-10.424000	25.958615	0.000263	20.904107
1624.434666	-2.987100	3.462700	-10.342000	25.954601	0.000268	20.918090
1625.436667	-2.982700	3.463900	-10.330000	25.896858	0.000265	20.933573
1626.435676	-2.999500	3.462000	-10.383000	25.862060	0.000265	20.905257
1627.439666	-3.012600	3.461600	-10.428000	25.894207	0.000265	20.913368
1628.436217	-3.012100	3.461700	-10.426000	25.860773	0.000265	20.914394
1629.443407	-2.999000	3.461900	-10.381000	25.922998	0.000264	20.915739
1630.434500	-2.989800	3.460000	-10.344000	25.953934	0.000263	20.934488
1631.437813	-3.002400	3.461700	-10.392000	25.940092	0.000264	20.903042
1632.436902	-3.013700	3.460300	-10.427000	25.931797	0.000265	20.909406
1633.441451	-2.994300	3.460500	-10.361000	25.942607	0.000263	20.909835
1634.441450	-3.027300	3.459400	-10.472000	25.953566	0.000263	20.922740
1635.437602	-3.003500	3.458400	-10.386000	25.921414	0.000261	20.904191
1636.443660	-2.971700	3.459500	-10.279000	25.881218	0.000260	20.916440
1637.443366	-2.994400	3.459000	-10.357000	25.843328	0.000260	20.913466
1638.439707	-3.022900	3.458300	-10.453000	25.902354	0.000262	20.891682
1639.442706	-2.995600	3.459200	-10.362000	25.869915	0.000261	20.898924
1640.446743	-3.009200	3.458300	-10.405000	25.881166	0.000262	20.899794
1641.448791	-2.973200	3.458400	-10.282000	25.865848	0.000259	20.901002
1642.442792	-2.974700	3.457800	-10.284000	25.867762	0.000260	20.886331
1643.442791	-2.981400	3.457300	-10.307000	25.875082	0.000260	20.909329
1644.443808	-2.999000	3.458300	-10.370000	25.919629	0.000258	20.905243
1645.443808	-2.964900	3.457800	-10.251000	25.913726	0.000260	20.908796
1646.448042	-2.973000	3.456500	-10.275000	25.935515	0.000260	20.902236
1647.448266	-2.984100	3.455900	-10.312000	25.947682	0.000259	20.913985
1648.444321	-3.011400	3.454500	-10.402000	25.948206	0.000258	20.902184
1649.456934	-3.031700	3.454000	-10.470000	25.912071	0.000258	20.899073
1650.447188	-3.031400	3.452800	-10.465000	25.947838	0.000257	20.912719
1651.446545	-3.012600	3.453300	-10.402000	25.983519	0.000255	20.909686
1652.447766	-2.990800	3.454500	-10.331000	25.946706	0.000258	20.887402
1653.446022	-3.021100	3.454300	-10.435000	25.948044	0.000258	20.903444
1654.452782	-2.998200	3.453600	-10.354000	25.922028	0.000256	20.911920
1655.451306	-2.994000	3.453700	-10.340000	25.968022	0.000254	20.891747
1656.453262	-3.004100	3.451500	-10.368000	25.997328	0.000254	20.888474
1657.449262	-2.990000	3.452000	-10.320000	25.943053	0.000255	20.880888
1658.447263	-2.998000	3.452000	-10.348000	25.962171	0.000255	20.898196
1659.449308	-3.027800	3.450300	-10.445000	25.938728	0.000257	20.912576
1660.457979	-2.996300	3.452000	-10.343000	25.919383	0.000254	20.898833
1661.447080	-2.995900	3.451700	-10.340000	25.935321	0.000255	20.898248
1662.449113	-2.978100	3.450500	-10.275000	25.981566	0.000255	20.925266
1663.448110	-3.013900	3.449900	-10.397000	26.015210	0.000255	20.908809
1664.449114	-3.004300	3.449800	-10.363000	26.012036	0.000255	20.884285
1665.452383	-2.976400	3.450800	-10.270000	25.973646	0.000251	20.865632
1666.450490	-2.988000	3.450300	-10.308000	25.985788	0.000254	20.891104
1667.453504	-3.003000	3.448100	-10.354000	26.002597	0.000250	20.898508
1668.451488	-3.001700	3.450100	-10.355000	25.942342	0.000251	20.902457
1669.452569	-3.026000	3.448200	-10.434000	25.901519	0.000253	20.889422
1670.460568	-3.001800	3.448600	-10.351000	25.908573	0.000252	20.883233
1671.453874	-2.965500	3.450000	-10.230000	25.950048	0.000250	20.883648
1672.456871	-3.002500	3.448000	-10.352000	25.911269	0.000250	20.889260
1673.462873	-3.004500	3.446500	-10.354000	25.859454	0.000250	20.887941
1674.458873	-3.011000	3.447100	-10.378000	25.868344	0.000251	20.899716
1675.437892	-2.972400	3.447800	-10.247000	25.833416	0.000250	20.885019
1676.459924	-2.978500	3.447000	-10.266000	25.837108	0.000249	20.893942
1677.439247	-2.984300	3.447600	-10.288000	25.852555	0.000250	20.880537
1678.438624	-2.979600	3.445500	-10.265000	25.832329	0.000248	20.881557
1679.439623	-3.007700	3.445200	-10.360000	25.842668	0.000249	20.869184
1680.466381	-2.986400	3.445800	-10.289000	25.840043	0.000247	20.878874
1681.460433	-2.999000	3.444200	-10.329000	25.891064	0.000249	20.876075
1682.446458	-3.013000	3.444700	-10.378000	25.923586	0.000248	20.888831
1683.444428	-2.982500	3.445300	-10.275000	25.885381	0.000248	20.878426
1684.462521	-2.987700	3.443500	-10.288000	25.865609	0.000247	20.891279
1685.441573	-2.999300	3.443300	-10.327000	25.851526	0.000247	20.888513
1686.440062	-2.981600	3.443400	-10.266000	25.851947	0.000248	20.875660
1687.442822	-2.979300	3.442900	-10.256000	25.901138	0.000246	20.880979
1688.444154	-2.968800	3.442900	-10.220000	25.897646	0.000246	20.894540
1689.444209	-3.004900	3.442500	-10.344000	25.863611	0.000244	20.888324
1690.445580	-3.007200	3.442300	-10.350000	25.892745	0.000245	20.870178
1691.471961	-2.995400	3.441600	-10.308000	25.882129	0.000246	20.876108
1692.445995	-2.987600	3.442700	-10.284000	25.873445	0.000245	20.873549
1693.444976	-3.016100	3.440800	-10.377000	25.911179	0.000245	20.872100
1694.465953	-3.027300	3.439400	-10.411000	25.905204	0.000246	20.893124
1695.449502	-3.024100	3.439800	-10.401000	25.930006	0.000243	20.888168
1696.447468	-2.999200	3.439900	-10.316000	25.951820	0.000243	20.876893
1697.468750	-3.007500	3.440500	-10.347000	25.977881	0.000244	20.890747
1698.473762	-2.992900	3.439900	-10.295000	25.965558	0.000243	20.877894
1699.468474	-3.002600	3.439200	-10.325000	25.968183	0.000243	20.867729
1700.465708	-2.995200	3.438900	-10.299000	26.015559	0.000241	20.869334
1701.464920	-3.005800	3.438100	-10.333000	26.018862	0.000243	20.868385
1702.453921	-2.992500	3.438300	-10.288000	26.004103	0.000242	20.873945
1703.450134	-3.014700	3.438300	-10.364000	25.963671	0.000242	20.876945
1704.465181	-3.000200	3.437900	-10.313000	25.936297	0.000241	20.857506
1705.465274	-3.002900	3.437400	-10.321000	25.935773	0.000240	20.897755
1706.451274	-2.978700	3.437300	-10.238000	25.974997	0.000242	20.872204
1707.453311	-2.975700	3.436700	-10.225000	25.973556	0.000240	20.847049
1708.452402	-3.011700	3.435900	-10.347000	25.978773	0.000239	20.876471
1709.472624	-3.007900	3.434600	-10.330000	25.944740	0.000238	20.855558
1710.476687	-3.015200	3.435400	-10.358000	25.867937	0.000239	20.854265
1711.452845	-3.010100	3.435600	-10.341000	25.907720	0.000240	20.846816
1712.468645	-2.998600	3.435300	-10.299000	25.867723	0.000239	20.870645
1713.472645	-3.019400	3.434600	-10.370000	25.868253	0.000239	20.855058
1714.452695	-3.005000	3.434600	-10.320000	25.910390	0.000239	20.858032
1715.468288	-2.987000	3.434400	-10.258000	25.965513	0.000238	20.868840
1716.453330	-2.988100	3.433200	-10.258000	25.977073	0.000238	20.842997
1717.454329	-2.965200	3.435400	-10.185000	26.014227	0.000236	20.853298
1718.474123	-2.997000	3.433600	-10.290000	26.008771	0.000237	20.856350
1719.459208	-2.995000	3.433300	-10.282000	26.011900	0.000238	20.876562
1720.476854	-2.967700	3.433500	-10.188000	26.015675	0.000237	20.857597
1721.473208	-3.006700	3.432100	-10.318000	26.017143	0.000236	20.869028
1722.472224	-2.994200	3.431500	-10.274000	26.037804	0.000238	20.854227
1723.472434	-2.983800	3.431200	-10.237000	26.053720	0.000236	20.835605
1724.493434	-3.009300	3.431200	-10.325000	26.011376	0.000237	20.847589
1725.472464	-2.972600	3.431500	-10.199000	25.994774	0.000236	20.854142
1726.482636	-2.984900	3.430700	-10.240000	25.970873	0.000233	20.850044
1727.459632	-2.986100	3.431800	-10.247000	26.012152	0.000234	20.845049
1728.455941	-2.991200	3.430800	-10.261000	25.991768	0.000233	20.831208
1729.457917	-3.016900	3.428500	-10.343000	25.931467	0.000232	20.839379
1730.458320	-2.994600	3.429200	-10.269000	25.968804	0.000232	20.844172
1731.457320	-3.010000	3.429200	-10.321000	26.006327	0.000233	20.852473
1732.455317	-2.998100	3.429200	-10.280000	26.026743	0.000233	20.831260
1733.459888	-2.999100	3.427600	-10.278000	26.057425	0.000232	20.836482
1734.480941	-2.995100	3.428200	-10.267000	26.036873	0.000230	20.831007
1735.480834	-3.001600	3.427800	-10.288000	25.993139	0.000230	20.834482
1736.470837	-2.990800	3.428300	-10.252000	25.955260	0.000232	20.843841
1737.481390	-2.994600	3.427500	-10.263000	25.999015	0.000231	20.846550
1738.480890	-3.026800	3.426100	-10.369000	26.022250	0.000231	20.836703
1739.456946	-3.016500	3.424700	-10.330000	26.030635	0.000229	20.837067
1740.458950	-2.990300	3.426300	-10.245000	25.961893	0.000230	20.837703
1741.456496	-3.007900	3.424400	-10.299000	25.889002	0.000227	20.842237
1742.460626	-3.028900	3.425500	-10.375000	25.899935	0.000228	20.844686
1743.459627	-3.005400	3.424900	-10.292000	25.866288	0.000229	20.841230
1744.476850	-2.984900	3.425600	-10.224000	25.863825	0.000229	20.843023
1745.475024	-3.026100	3.424200	-10.360000	25.863799	0.000228	20.857695
1746.476073	-3.009900	3.424400	-10.306000	25.873375	0.000227	20.845978
1747.475072	-3.015100	3.423000	-10.320000	25.890101	0.000229	20.865151
1748.474070	-3.014200	3.423600	-10.318000	25.887567	0.000229	20.828942
1749.480157	-3.005000	3.422800	-10.285000	25.875715	0.000228	20.838373
1750.477607	-2.968900	3.423500	-10.163000	25.905838	0.000229	20.827857
1751.475605	-3.013600	3.422300	-10.313000	25.955900	0.000226	20.824096
1752.483942	-2.968400	3.423100	-10.160000	25.958079	0.000228	20.839087
1753.459993	-2.983900	3.424100	-10.216000	26.001763	0.000227	20.853103
1754.479101	-3.002700	3.422100	-10.275000	26.008002	0.000224	20.848466
1755.482298	-3.000200	3.420500	-10.261000	25.994574	0.000228	20.828812
1756.462552	-2.985500	3.421400	-10.213000	25.963406	0.000225	20.841120
1757.485524	-3.004600	3.422000	-10.281000	25.979866	0.000225	20.846751
1758.465577	-2.991900	3.421100	-10.235000	25.934461	0.000226	20.823421
1759.464577	-3.012900	3.418800	-10.299000	25.908134	0.000228	20.861930
1760.463576	-2.981500	3.421800	-10.201000	25.949034	0.000224	20.831897
1761.467198	-3.000100	3.419300	-10.257000	26.023989	0.000224	20.839873
1762.465200	-3.015000	3.418000	-10.304000	26.044657	0.000225	20.836931
1763.490201	-3.008500	3.420200	-10.288000	25.995072	0.000223	20.827415
1764.479462	-3.003400	3.417900	-10.264000	25.986816	0.000224	20.844725
1765.481536	-2.991200	3.418800	-10.225000	26.000186	0.000226	20.817855
1766.462531	-3.005900	3.418100	-10.273000	26.004588	0.000223	20.844088
1767.505753	-3.007900	3.418300	-10.281000	25.991956	0.000222	20.835190
1768.479805	-2.988400	3.417400	-10.211000	26.025328	0.000225	20.836950
1769.463850	-2.993800	3.417400	-10.230000	26.050999	0.000222	20.829552
1770.463902	-2.998300	3.416200	-10.242000	26.054031	0.000222	20.841607
1771.467936	-2.985500	3.417000	-10.201000	26.062584	0.000221	20.829812
1772.465176	-3.002700	3.415800	-10.255000	26.021209	0.000221	20.838977
1773.467713	-3.010800	3.416400	-10.285000	26.007181	0.000221	20.856175
1774.467297	-3.008600	3.415500	-10.275000	26.055834	0.000221	20.836307
1775.468369	-2.989500	3.416100	-10.211000	25.996688	0.000220	20.837574
1776.467350	-2.994600	3.415000	-10.225000	25.932373	0.000221	20.845978
1777.470356	-3.000200	3.415100	-10.245000	25.927181	0.000221	20.828909
1778.470518	-3.018200	3.413400	-10.301000	25.946241	0.000220	20.829091
1779.487627	-3.003600	3.412600	-10.249000	25.974946	0.000220	20.845601
1780.471808	-3.030500	3.413400	-10.344000	25.954755	0.000217	20.839542
1781.469904	-3.001500	3.412400	-10.242000	25.931765	0.000218	20.826876
1782.470098	-2.989900	3.412500	-10.202000	25.870879	0.000218	20.845368
1783.469452	-2.998300	3.413200	-10.233000	25.867465	0.000217	20.844783
1784.495001	-3.018200	3.412700	-10.299000	25.866857	0.000218	20.833267
1785.471970	-2.998300	3.411700	-10.228000	25.878605	0.000217	20.862612
1786.472566	-2.979600	3.412800	-10.167000	25.880803	0.000217	20.866242
1787.471125	-2.985900	3.410900	-10.183000	25.889222	0.000216	20.838665
1788.475123	-3.007300	3.409700	-10.252000	25.908230	0.000216	20.856337
1789.490980	-3.000600	3.411500	-10.236000	25.960328	0.000218	20.846088
1790.473979	-3.010500	3.409300	-10.262000	25.968746	0.000216	20.857864
1791.493997	-3.010500	3.409500	-10.263000	25.953378	0.000217	20.836261
1792.504997	-2.989500	3.410700	-10.195000	25.950255	0.000215	20.839288
1793.489999	-2.983200	3.408900	-10.169000	25.972250	0.000217	20.832462
1794.478216	-2.996300	3.409400	-10.215000	25.960341	0.000214	20.862222
1795.491267	-3.004900	3.409000	-10.243000	25.941437	0.000216	20.860773
1796.479270	-2.990500	3.409600	-10.196000	25.937958	0.000215	20.844478
1797.502564	-3.014500	3.408900	-10.275000	25.977991	0.000215	20.837755
1798.492566	-3.001300	3.408400	-10.229000	26.024991	0.000214	20.858422
1799.479586	-3.018400	3.406700	-10.282000	26.043978	0.000215	20.865170
1800.482586	-3.022500	3.405900	-10.293000	25.995582	0.000213	20.863488
1801.493701	-2.989100	3.407400	-10.184000	25.939471	0.000212	20.857851
1802.494958	-3.003500	3.406100	-10.229000	25.913997	0.000212	20.857389
1803.502326	-2.992400	3.407500	-10.195000	25.950792	0.000211	20.851206
1804.493632	-2.997500	3.406000	-10.208000	26.010936	0.000212	20.837664
1805.493725	-3.003900	3.405300	-10.229000	26.034720	0.000213	20.880998
1806.476761	-3.014400	3.404600	-10.261000	26.026407	0.000213	20.853207
1807.478140	-3.002300	3.406100	-10.225000	26.004510	0.000212	20.853492
1808.478757	-3.002300	3.404900	-10.221000	26.031701	0.000212	20.860897
1809.479958	-2.997900	3.404900	-10.208000	26.039200	0.000211	20.872698
1810.505033	-2.977600	3.405600	-10.139000	26.078363	0.000210	20.867002
1811.496001	-3.009300	3.405000	-10.246000	26.085965	0.000210	20.887441
1812.499233	-2.993500	3.404000	-10.189000	26.107698	0.000209	20.874666
1813.498258	-2.997800	3.403700	-10.203000	26.119942	0.000210	20.881751
1814.495258	-3.006600	3.404500	-10.235000	26.104654	0.000209	20.882037
1815.479973	-3.002400	3.403000	-10.216000	26.133516	0.000210	20.883063
1816.501197	-2.986500	3.401600	-10.158000	26.114796	0.000210	20.873263
1817.497336	-2.993200	3.404000	-10.187000	26.135585	0.000209	20.867599
1818.495362	-3.003100	3.401300	-10.214000	26.100148	0.000207	20.864235
1819.494857	-2.996000	3.402000	-10.191000	26.067470	0.000207	20.870756
1820.481902	-3.006100	3.401100	-10.222000	26.093509	0.000207	20.857565
1821.479958	-2.994000	3.400500	-10.180000	26.064037	0.000207	20.893384
1822.495149	-2.984000	3.401300	-10.148000	26.031468	0.000204	20.885791
1823.481205	-3.007600	3.401000	-10.228000	26.002260	0.000208	20.878731
1824.480809	-2.997300	3.400900	-10.193000	26.002655	0.000206	20.871067
1825.479783	-3.005600	3.398800	-10.214000	26.013063	0.000208	20.873938
1826.505774	-2.993100	3.398600	-10.171000	26.038282	0.000203	20.879361
1827.498998	-2.989500	3.399300	-10.162000	26.083302	0.000207	20.874808
1828.484034	-3.034500	3.397600	-10.309000	26.100284	0.000207	20.890448
1829.487023	-2.970500	3.400000	-10.099000	26.091944	0.000206	20.905301
1830.483023	-3.003200	3.398600	-10.206000	26.093593	0.000204	20.889415
1831.510052	-2.998200	3.398600	-10.188000	26.049848	0.000204	20.862533
1832.489184	-3.002400	3.397200	-10.199000	26.062421	0.000205	20.880855
1833.501474	-3.010000	3.395900	-10.220000	26.081588	0.000203	20.887785
1834.508530	-3.001200	3.398200	-10.198000	26.085448	0.000202	20.891188
1835.502150	-3.019700	3.395000	-10.250000	26.096508	0.000203	20.895663
1836.504372	-2.982700	3.396800	-10.131000	26.088544	0.000205	20.868223
1837.514590	-3.009200	3.396000	-10.219000	26.075008	0.000202	20.868846
1838.488884	-2.993400	3.395000	-10.162000	26.083554	0.000203	20.878381
1839.488125	-3.004600	3.394500	-10.199000	26.098060	0.000206	20.901015
1840.506159	-2.997800	3.393300	-10.172000	26.096663	0.000203	20.906724
1841.509161	-3.012900	3.393400	-10.224000	26.083321	0.000205	20.882888
1842.508793	-2.995600	3.393800	-10.165000	26.082196	0.000201	20.885077
1843.509826	-3.005900	3.393900	-10.200000	26.113626	0.000202	20.895319
1844.491972	-3.017800	3.393000	-10.239000	26.123193	0.000201	20.915361
1845.493231	-2.995300	3.393400	-10.164000	26.127808	0.000200	20.897715
1846.493437	-2.986100	3.392800	-10.130000	26.117795	0.000202	20.894293
1847.494433	-2.998900	3.391900	-10.171000	26.121732	0.000201	20.901093
1848.495501	-3.010800	3.392200	-10.212000	26.158325	0.000199	20.883336
1849.494882	-2.989500	3.392700	-10.142000	26.115429	0.000201	20.896183
1850.493879	-2.998500	3.391400	-10.168000	26.084911	0.000198	20.902502
1851.495885	-3.014600	3.390500	-10.220000	26.072435	0.000199	20.897079
1852.494879	-2.991600	3.390000	-10.141000	26.102999	0.000199	20.916881
1853.493761	-3.008600	3.390800	-10.201000	26.124466	0.000200	20.913796
1854.495761	-3.004500	3.391400	-10.188000	26.144647	0.000200	20.905152
1855.521006	-2.994700	3.388600	-10.147000	26.188512	0.000198	20.932630
1856.512005	-2.986500	3.389200	-10.121000	26.217107	0.000198	20.916323
1857.499458	-3.008300	3.390100	-10.198000	26.173567	0.000199	20.915719
1858.515459	-2.998700	3.389300	-10.163000	26.117071	0.000196	20.888824
1859.513796	-3.000900	3.388200	-10.167000	26.136522	0.000198	20.890824
1860.496019	-3.020000	3.388200	-10.231000	26.157912	0.000196	20.905678
1861.517015	-3.009000	3.387700	-10.193000	26.202764	0.000197	20.923720
1862.522497	-3.004700	3.387600	-10.178000	26.228057	0.000196	20.910257
1863.514390	-2.984400	3.387500	-10.109000	26.231127	0.000196	20.918557
1864.520386	-3.006000	3.388400	-10.185000	26.250705	0.000197	20.919739
1865.518618	-2.970400	3.386700	-10.059000	26.213404	0.000194	20.913075
1866.505685	-3.015300	3.385400	-10.206000	26.143994	0.000194	20.907815
1867.500417	-2.986000	3.386100	-10.110000	26.138668	0.000195	20.921427
1868.521530	-3.010700	3.387100	-10.197000	26.141131	0.000198	20.916316
1869.500241	-3.000600	3.385100	-10.156000	26.123387	0.000194	20.916978
1870.497125	-2.999800	3.386400	-10.157000	26.159818	0.000194	20.922291
1871.499222	-2.990600	3.385500	-10.124000	26.150491	0.000193	20.907230
1872.498540	-3.008300	3.385600	-10.184000	26.139638	0.000193	20.926194
1873.498873	-3.016600	3.384500	-10.209000	26.150071	0.000191	20.927194
1874.517539	-2.998200	3.383500	-10.144000	26.110226	0.000192	20.902807
1875.500061	-3.013300	3.382300	-10.191000	26.078899	0.000194	20.928701
1876.520061	-2.992700	3.383800	-10.126000	26.113290	0.000191	20.918687
1877.528062	-3.015300	3.383900	-10.203000	26.170885	0.000190	20.905438
1878.502060	-3.017900	3.382500	-10.207000	26.114712	0.000193	20.926279
1879.522060	-2.984500	3.382200	-10.094000	26.082125	0.000193	20.912978
1880.526062	-2.999800	3.382400	-10.146000	26.093108	0.000192	20.934916
1881.521062	-2.975000	3.381800	-10.060000	26.148455	0.000191	20.941216
1882.528060	-3.023900	3.381100	-10.223000	26.174504	0.000193	20.941313
1883.505578	-2.986800	3.382800	-10.102000	26.180619	0.000191	20.921382
1884.504579	-2.991300	3.381600	-10.115000	26.147815	0.000192	20.952425
1885.504088	-3.035500	3.379000	-10.256000	26.152352	0.000189	20.949399
1886.503089	-2.995000	3.381800	-10.128000	26.094414	0.000189	20.923902
1887.504089	-2.971200	3.381900	-10.047000	26.094679	0.000187	20.951191
1888.504127	-3.017900	3.380600	-10.201000	26.088673	0.000189	20.945632
1889.522126	-3.012200	3.379300	-10.179000	26.082151	0.000187	20.931020
1890.521126	-2.992800	3.379700	-10.114000	26.082144	0.000187	20.922953
1891.506125	-2.990400	3.379000	-10.104000	26.116121	0.000185	20.922953
1892.506126	-2.976700	3.378000	-10.054000	26.168448	0.000188	20.941391
1893.508126	-2.998300	3.376700	-10.123000	26.191989	0.000186	20.953666
1894.505126	-2.987500	3.378700	-10.093000	26.145488	0.000186	20.953406
1895.536127	-3.002200	3.377500	-10.139000	26.181401	0.000188	20.958673
1896.508130	-2.998900	3.376500	-10.124000	26.149108	0.000184	20.927649
1897.524126	-2.973600	3.377500	-10.042000	26.098118	0.000187	20.949906
1898.511126	-2.994500	3.376900	-10.111000	26.092035	0.000185	20.950432
1899.512125	-3.024600	3.375700	-10.209000	26.077115	0.000183	20.943976
1900.509127	-3.009900	3.375200	-10.158000	26.115261	0.000187	20.951958
1901.529125	-3.005800	3.375300	-10.144000	26.140084	0.000184	20.948925
1902.535125	-2.998800	3.376200	-10.124000	26.133477	0.000187	20.947028
1903.509125	-2.991400	3.375100	-10.095000	26.111719	0.000183	20.946028
1904.511128	-2.997300	3.375000	-10.115000	26.115345	0.000184	20.954887
1905.525129	-2.998100	3.374400	-10.116000	26.170103	0.000184	20.958699
1906.510126	-3.002000	3.374700	-10.129000	26.185383	0.000183	20.952243
1907.510126	-2.986000	3.375000	-10.077000	26.232749	0.000183	20.952899
1908.510126	-2.993000	3.374300	-10.098000	26.201375	0.000183	20.958355
1909.511126	-2.998900	3.374000	-10.117000	26.236136	0.000181	20.962466
1910.510642	-3.003700	3.373100	-10.131000	26.278807	0.000185	20.945606
1911.512639	-3.008500	3.373700	-10.148000	26.262138	0.000183	20.976266
1912.536640	-2.990800	3.371900	-10.084000	26.251131	0.000182	20.968999
1913.510642	-2.996400	3.371400	-10.102000	26.221483	0.000182	20.944424
1914.533640	-2.991400	3.371200	-10.083000	26.200463	0.000180	20.961232
1915.538640	-2.981200	3.372200	-10.052000	26.222815	0.000179	20.936754
1916.537642	-3.002600	3.370700	-10.119000	26.216687	0.000181	20.960939
1917.514646	-2.995100	3.369900	-10.092000	26.194219	0.000181	20.958751
1918.513161	-3.011300	3.369500	-10.146000	26.246646	0.000181	20.958803
1919.528331	-2.992900	3.369200	-10.082000	26.290344	0.000179	20.962414
1920.531330	-2.992900	3.369400	-10.083000	26.282298	0.000180	20.971395
1921.529506	-3.034100	3.368900	-10.220000	26.211161	0.000178	20.962972
1922.538573	-3.021700	3.368200	-10.177000	26.206546	0.000178	20.957861
1923.512042	-3.010700	3.369900	-10.145000	26.255882	0.000178	20.969980
1924.513167	-2.977500	3.369800	-10.033000	26.280940	0.000176	20.983780
1925.514273	-2.997400	3.367200	-10.092000	26.322724	0.000179	20.967453
1926.513273	-2.988300	3.368900	-10.067000	26.288102	0.000177	20.974383
1927.514693	-3.009100	3.367100	-10.131000	26.252844	0.000179	20.974513
1928.517694	-2.994200	3.367600	-10.082000	26.238508	0.000178	20.988079
1929.533696	-2.988600	3.366800	-10.061000	26.294765	0.000176	20.976812
1930.532187	-2.994200	3.367100	-10.081000	26.292516	0.000175	20.961751
1931.533422	-3.006800	3.367000	-10.123000	26.293880	0.000177	20.992515
1932.515424	-2.988200	3.366900	-10.060000	26.249212	0.000176	20.972759
1933.531578	-3.024000	3.366300	-10.178000	26.269578	0.000175	20.967622
1934.535580	-3.000700	3.366500	-10.101000	26.243143	0.000176	20.974720
1935.533658	-3.032400	3.364700	-10.202000	26.231767	0.000175	20.997424
1936.531657	-3.005600	3.364500	-10.111000	26.261156	0.000173	20.972909
1937.516693	-2.981200	3.366300	-10.034000	26.249903	0.000175	20.992891
1938.517997	-3.008900	3.364400	-10.122000	26.237985	0.000174	20.964323
1939.533122	-3.010400	3.365100	-10.130000	26.248236	0.000176	20.994534
1940.549121	-3.001800	3.364000	-10.097000	26.323332	0.000175	20.989872
1941.521214	-2.994000	3.363700	-10.070000	26.307795	0.000174	20.984689
1942.520216	-2.990200	3.363700	-10.057000	26.320824	0.000170	21.000152
1943.538935	-2.992100	3.362700	-10.060000	26.331572	0.000174	20.989144
1944.537992	-2.995400	3.362000	-10.069000	26.248559	0.000172	21.004815
1945.541992	-2.992400	3.361600	-10.058000	26.240958	0.000171	20.984852
1946.543258	-2.987200	3.362200	-10.042000	26.226098	0.000175	20.991729
1947.542253	-3.039600	3.359500	-10.211000	26.304809	0.000170	20.998756
1948.553068	-3.020000	3.361200	-10.150000	26.328722	0.000171	21.006666
1949.522120	-2.982900	3.360500	-10.023000	26.316662	0.000171	20.989807
1950.523116	-2.992700	3.359700	-10.054000	26.334513	0.000172	20.991151
1951.556642	-3.024300	3.359500	-10.159000	26.343031	0.000171	21.009192
1952.541504	-2.998000	3.360000	-10.073000	26.352441	0.000171	20.994944
1953.525504	-3.016400	3.360300	-10.136000	26.326182	0.000170	20.995106
1954.545506	-2.995500	3.359800	-10.064000	26.251300	0.000168	20.984339
1955.546881	-3.017500	3.358600	-10.134000	26.270115	0.000171	20.978117
1956.528692	-2.987200	3.360000	-10.036000	26.306341	0.000168	20.998399
1957.531429	-2.976500	3.359500	-9.998500	26.332710	0.000168	20.995502
1958.544426	-2.994200	3.357900	-10.053000	26.303277	0.000168	21.003380
1959.550431	-2.996400	3.358400	-10.062000	26.313134	0.000169	20.972039
1960.533482	-2.991500	3.357900	-10.045000	26.257724	0.000167	21.010705
1961.547477	-2.993700	3.358600	-10.053000	26.218374	0.000168	21.003880
1962.529940	-3.000000	3.356300	-10.068000	26.260549	0.000168	21.014965
1963.532939	-2.993900	3.356400	-10.047000	26.260213	0.000165	21.010361
1964.559021	-2.984000	3.357300	-10.016000	26.241049	0.000170	21.013861
1965.549681	-2.996800	3.355700	-10.056000	26.234553	0.000163	21.001646
1966.533518	-2.995800	3.355000	-10.050000	26.245567	0.000166	20.992327
1967.532162	-3.009600	3.355200	-10.097000	26.302314	0.000163	20.992456
1968.532162	-3.010500	3.355500	-10.100000	26.289782	0.000167	20.993138
1969.549859	-3.007000	3.353900	-10.084000	26.287637	0.000160	20.999042
1970.532859	-2.997600	3.354700	-10.056000	26.264621	0.000165	21.003886
1971.534343	-2.991400	3.354400	-10.033000	26.282369	0.000164	20.981423
1972.532365	-3.023600	3.354200	-10.140000	26.272984	0.000166	20.994275
1973.533701	-3.012500	3.352900	-10.099000	26.350153	0.000164	20.995489
1974.533932	-2.982300	3.353500	-10.001000	26.348997	0.000164	20.987216
1975.536122	-2.995100	3.353000	-10.041000	26.378014	0.000164	20.988878
1976.536120	-3.008700	3.352000	-10.084000	26.397880	0.000164	20.988930
1977.533208	-2.986200	3.352700	-10.011000	26.358406	0.000165	20.975812
1978.537298	-2.998300	3.352500	-10.051000	26.403206	0.000164	20.971526
1979.536872	-2.993600	3.352300	-10.034000	26.404983	0.000162	20.957667
1980.551876	-3.003400	3.351600	-10.065000	26.389337	0.000159	20.968967
1981.561058	-3.022300	3.350200	-10.126000	26.356681	0.000162	20.986404
1982.535223	-2.986300	3.350600	-10.004000	26.291915	0.000161	20.956407
1983.533437	-2.997500	3.351200	-10.045000	26.326228	0.000161	20.979507
1984.536438	-3.015500	3.349600	-10.100000	26.358070	0.000161	20.978319
1985.555494	-3.003500	3.350300	-10.061000	26.430593	0.000161	20.971552
1986.552582	-3.010400	3.350000	-10.084000	26.454045	0.000160	20.951030
1987.556641	-2.982000	3.348400	-9.984400	26.374996	0.000163	20.954082
1988.537637	-3.006100	3.348500	-10.064000	26.404879	0.000161	20.961830
1989.535634	-3.007500	3.348800	-10.071000	26.350864	0.000158	20.950692
1990.558250	-3.013200	3.348400	-10.087000	26.340065	0.000160	20.956433
1991.553279	-3.016900	3.348400	-10.101000	26.361030	0.000159	20.945262
1992.553952	-2.996000	3.348600	-10.032000	26.342211	0.000157	20.944840
1993.536610	-2.978700	3.347400	-9.970100	26.329556	0.000158	20.959148
1994.537864	-3.002700	3.348200	-10.053000	26.312358	0.000158	20.960830
1995.539490	-3.007000	3.347200	-10.064000	26.268803	0.000156	20.955939
1996.558671	-3.005600	3.345900	-10.056000	26.308823	0.000157	20.959174
1997.559482	-3.001100	3.345600	-10.040000	26.378467	0.000154	20.946191
1998.564841	-3.008400	3.345200	-10.063000	26.443770	0.000155	20.956348
1999.555707	-2.998000	3.346900	-10.033000	26.490737	0.000157	20.947133
2000.557706	-2.991500	3.344600	-10.004000	26.499054	0.000157	20.956439
2001.565149	-3.001300	3.344400	-10.037000	26.487726	0.000155	20.938891
2002.567538	-3.006700	3.343400	-10.051000	26.498194	0.000156	20.954154
2003.558711	-2.988800	3.343400	-9.992000	26.535446	0.000156	20.953192
2004.565387	-2.988600	3.344100	-9.993100	26.524261	0.000157	20.950484
2005.542997	-2.981400	3.344900	-9.971500	26.567470	0.000154	20.952192
2006.544996	-3.015600	3.342700	-10.078000	26.576206	0.000155	20.942483
2007.543277	-2.979200	3.343700	-9.961000	26.585039	0.000156	20.941879
2008.546425	-3.018100	3.342100	-10.085000	26.570779	0.000154	20.959310
2009.546425	-3.003000	3.342100	-10.035000	26.562631	0.000156	20.947802
2010.562427	-3.009000	3.343400	-10.059000	26.539543	0.000153	20.952095
2011.563065	-3.000300	3.341600	-10.025000	26.551181	0.000153	20.944353
2012.567700	-2.986600	3.342600	-9.982300	26.525211	0.000152	20.940535
2013.562974	-2.985500	3.340300	-9.971200	26.515098	0.000154	20.943646
2014.559974	-2.999000	3.340200	-10.017000	26.472333	0.000152	20.930059
2015.545030	-2.986800	3.341100	-9.977800	26.457709	0.000150	20.937645
2016.548156	-3.029000	3.338500	-10.111000	26.407865	0.000151	20.920265
2017.548304	-2.984600	3.339800	-9.966700	26.397008	0.000150	20.965772
2018.569304	-3.004400	3.339000	-10.030000	26.409171	0.000152	20.954764
2019.547365	-3.008700	3.338800	-10.045000	26.415911	0.000150	20.938307
2020.548072	-2.989500	3.339200	-9.980900	26.414703	0.000151	20.927611
2021.549037	-3.003500	3.337800	-10.024000	26.424060	0.000149	20.946971
2022.549898	-2.994900	3.338300	-9.996800	26.454252	0.000149	20.942230
2023.566330	-3.016100	3.336900	-10.064000	26.482899	0.000149	20.932144
2024.568712	-2.992200	3.339100	-9.990400	26.510911	0.000151	20.933748
2025.566710	-2.983500	3.339100	-9.960500	26.529657	0.000147	20.931254
2026.568844	-3.020100	3.336500	-10.076000	26.564291	0.000149	20.928137
2027.568701	-3.001100	3.337200	-10.014000	26.480695	0.000149	20.941782
2028.568623	-2.990400	3.337700	-9.980600	26.474485	0.000147	20.925585
2029.568672	-2.996100	3.336900	-9.997100	26.503131	0.000147	20.923558
2030.569271	-2.988100	3.336900	-9.970100	26.547549	0.000148	20.923636
2031.553751	-3.018800	3.334000	-10.064000	26.496495	0.000147	20.942964
2032.571585	-3.010400	3.335400	-10.040000	26.542283	0.000147	20.914550
2033.554182	-2.985200	3.335600	-9.956400	26.558004	0.000145	20.939833
2034.571239	-2.982500	3.335100	-9.946100	26.511486	0.000146	20.926740
2035.568290	-2.997200	3.335200	-9.994900	26.464895	0.000145	20.920688
2036.576293	-3.019800	3.333800	-10.067000	26.501109	0.000145	20.951393
2037.571567	-3.010800	3.333600	-10.036000	26.553158	0.000145	20.934963
2038.554844	-2.980200	3.333200	-9.933200	26.524572	0.000145	20.928514
2039.554951	-2.986800	3.332100	-9.951700	26.477051	0.000143	20.920577
2040.572953	-3.006100	3.331500	-10.014000	26.489160	0.000144	20.934170
2041.573090	-3.008800	3.331800	-10.024000	26.452966	0.000143	20.928137
2042.556620	-2.998000	3.333300	-9.991800	26.466905	0.000142	20.915596
2043.555665	-2.993600	3.332100	-9.974600	26.465994	0.000143	20.917051
2044.554449	-3.011400	3.331100	-10.031000	26.486408	0.000142	20.938989
2045.554457	-3.000900	3.332400	-9.999600	26.433554	0.000141	20.937547
2046.554464	-3.012700	3.329800	-10.031000	26.397099	0.000142	20.922721
2047.572459	-3.001400	3.330400	-9.995400	26.400472	0.000143	20.924688
2048.580929	-2.999400	3.331100	-9.990700	26.448960	0.000141	20.920317
2049.581152	-3.007400	3.330300	-10.015000	26.531537	0.000143	20.933618
2050.558342	-2.978300	3.329500	-9.915300	26.602763	0.000141	20.934092
2051.576316	-3.007500	3.329300	-10.012000	26.622289	0.000140	20.915791
2052.558704	-2.977900	3.329800	-9.915700	26.632743	0.000139	20.905438
2053.558342	-2.989900	3.329300	-9.953800	26.630068	0.000139	20.935463
2054.556397	-2.997800	3.327400	-9.974400	26.592386	0.000139	20.923662
2055.560394	-2.986800	3.328200	-9.939900	26.591733	0.000139	20.930118
2056.561602	-2.989000	3.327800	-9.945800	26.591074	0.000138	20.924240
2057.558763	-3.024300	3.327300	-10.062000	26.605541	0.000137	20.925032
2058.577109	-3.016100	3.327500	-10.035000	26.640761	0.000138	20.902594
2059.581628	-2.981300	3.327800	-9.920500	26.654665	0.000139	20.908510
2060.560007	-3.000200	3.325000	-9.974900	26.640935	0.000137	20.933586
2061.577137	-3.005300	3.326900	-9.997500	26.661139	0.000138	20.920233
2062.586138	-2.982600	3.326500	-9.921200	26.651861	0.000135	20.916596
2063.581137	-3.014200	3.325000	-10.022000	26.626501	0.000136	20.930929
2064.583297	-3.017500	3.324800	-10.032000	26.617010	0.000136	20.923285
2065.587000	-2.983500	3.325900	-9.921300	26.604197	0.000135	20.916570
2066.561549	-3.000200	3.323700	-9.971100	26.555827	0.000136	20.904932
2067.563828	-3.003500	3.323600	-9.980500	26.521754	0.000135	20.925682
2068.578302	-3.010300	3.323300	-10.003000	26.551859	0.000136	20.931761
2069.588357	-2.996300	3.323200	-9.956600	26.576329	0.000135	20.923642
2070.589357	-3.002900	3.323100	-9.977900	26.580296	0.000135	20.917200
2071.578412	-3.009600	3.322500	-9.997900	26.614471	0.000135	20.906036
2072.583886	-2.998300	3.321200	-9.957100	26.625552	0.000134	20.932345
2073.588926	-2.988100	3.323100	-9.928800	26.634849	0.000136	20.928416
2074.587994	-3.022100	3.320900	-10.035000	26.640884	0.000133	20.915044
2075.579993	-3.017800	3.321700	-10.023000	26.656028	0.000131	20.917466
2076.564116	-3.004300	3.321300	-9.977700	26.643946	0.000134	20.917174
2077.580271	-3.002900	3.322100	-9.975100	26.613521	0.000133	20.894650
2078.565650	-2.990400	3.321400	-9.931400	26.685710	0.000134	20.907477
2079.583486	-2.996700	3.319800	-9.947500	26.696137	0.000132	20.908004
2080.565295	-2.977000	3.319600	-9.881300	26.705777	0.000132	20.913901
2081.566952	-3.004400	3.320800	-9.976200	26.759283	0.000133	20.912219
2082.566840	-2.992400	3.318400	-9.929400	26.722994	0.000131	20.925045
2083.565825	-3.001000	3.319600	-9.961300	26.683345	0.000131	20.931650
2084.563066	-2.986500	3.319200	-9.912300	26.613857	0.000129	20.935287
2085.565065	-3.001500	3.318100	-9.958300	26.590854	0.000129	20.921175
2086.564976	-3.001900	3.318000	-9.959300	26.574106	0.000129	20.908133
2087.570410	-3.001600	3.317100	-9.956000	26.619652	0.000130	20.906977
2088.567632	-3.000600	3.317500	-9.953900	26.641207	0.000130	20.910153
2089.565633	-3.007200	3.317600	-9.975200	26.643158	0.000128	20.913063
2090.567300	-2.997800	3.315500	-9.938700	26.657482	0.000127	20.902808
2091.566522	-3.021300	3.316100	-10.019000	26.673499	0.000128	20.912745
2092.598521	-3.007300	3.315200	-9.968600	26.686550	0.000127	20.894573
2093.569519	-2.990600	3.315900	-9.916400	26.665797	0.000127	20.908322
2094.567910	-2.989300	3.315100	-9.908200	26.622140	0.000127	20.905211
2095.569910	-2.991000	3.316000	-9.916500	26.589155	0.000126	20.898606
2096.583914	-2.957900	3.315900	-9.806800	26.648475	0.000125	20.898021
2097.594911	-2.985900	3.314100	-9.894400	26.697972	0.000127	20.884246
2098.572023	-3.013000	3.314300	-9.984100	26.681155	0.000127	20.902425
2099.586929	-2.994000	3.314500	-9.921900	26.663187	0.000127	20.909017
2100.584938	-2.990400	3.312400	-9.903800	26.672879	0.000126	20.892683
2101.588066	-3.029100	3.312300	-10.032000	26.651551	0.000126	20.909647
2102.592087	-2.980300	3.313900	-9.875800	26.645788	0.000125	20.903379
2103.570172	-2.974100	3.312700	-9.851400	26.702986	0.000126	20.916310
2104.575170	-3.001700	3.310000	-9.934800	26.713174	0.000125	20.908062
2105.574210	-3.012000	3.311500	-9.972600	26.701707	0.000125	20.909809
2106.590551	-2.990100	3.311300	-9.900400	26.732673	0.000124	20.915336
2107.598280	-2.984900	3.311800	-9.884700	26.793251	0.000126	20.921714
2108.573280	-3.028300	3.309800	-10.021000	26.784601	0.000123	20.894053
2109.591601	-3.019500	3.310400	-9.995100	26.751065	0.000124	20.903009
2110.577919	-3.027500	3.309900	-10.019000	26.706423	0.000124	20.913128
2111.591400	-2.996300	3.309800	-9.916500	26.720701	0.000123	20.910413
2112.573398	-2.996300	3.308700	-9.913500	26.766990	0.000124	20.904795
2113.592910	-2.987700	3.308800	-9.885600	26.778851	0.000121	20.905815
2114.590489	-3.000100	3.309700	-9.928300	26.769142	0.000123	20.899846
2115.596487	-2.983700	3.307600	-9.868400	26.796966	0.000123	20.893683
2116.591537	-3.010700	3.307300	-9.955700	26.816036	0.000119	20.910959
2117.575537	-2.999700	3.308800	-9.924900	26.828904	0.000119	20.895924
2118.576574	-3.018400	3.307100	-9.981400	26.828374	0.000120	20.905821
2119.576575	-2.998400	3.307600	-9.916800	26.851016	0.000120	20.898242
2120.600577	-2.996600	3.306700	-9.908000	26.905529	0.000121	20.883356
2121.593804	-2.980300	3.307000	-9.854500	26.874304	0.000121	20.890364
2122.604028	-2.998000	3.306100	-9.910500	26.868781	0.000119	20.898086
2123.603034	-2.999900	3.306000	-9.916700	26.869297	0.000119	20.923259
2124.576221	-2.974600	3.305300	-9.831400	26.798355	0.000119	20.905036
2125.597801	-2.998300	3.304600	-9.906700	26.779853	0.000120	20.898288
2126.594182	-2.982900	3.305000	-9.857400	26.829266	0.000117	20.893917
2127.598241	-2.998000	3.303100	-9.902200	26.819259	0.000119	20.887649
2128.577814	-3.002600	3.303100	-9.917000	26.804847	0.000118	20.903503
2129.578263	-2.993500	3.303700	-9.889000	26.812160	0.000119	20.893787
2130.598670	-3.022900	3.302200	-9.979900	26.803536	0.000117	20.881323
2131.577676	-3.010600	3.303200	-9.943300	26.818336	0.000117	20.892410
2132.579846	-3.001200	3.302800	-9.911400	26.852108	0.000117	20.902184
2133.607440	-2.999100	3.302300	-9.902800	26.857011	0.000118	20.910907
2134.582538	-2.989500	3.301700	-9.869500	26.877760	0.000116	20.903795
2135.598479	-2.973100	3.301600	-9.814400	26.931089	0.000117	20.881557
2136.581698	-2.976300	3.302900	-9.829700	26.928654	0.000118	20.896177
2137.578698	-3.009700	3.300000	-9.931400	26.889154	0.000115	20.906718
2138.596700	-2.974800	3.300600	-9.817300	26.838982	0.000115	20.911270
2139.582788	-3.006700	3.300800	-9.923900	26.795854	0.000114	20.888299
2140.580195	-3.003200	3.298800	-9.906200	26.831643	0.000114	20.894884
2141.580231	-3.012600	3.299200	-9.938100	26.851003	0.000115	20.896807
2142.591264	-3.012000	3.300200	-9.939600	26.890168	0.000115	20.886876
2143.582562	-3.016400	3.298500	-9.949000	26.917673	0.000114	20.888454
2144.600245	-3.011200	3.297900	-9.929100	26.946462	0.000114	20.892273
2145.597378	-2.994600	3.297600	-9.873400	26.902758	0.000113	20.886259
2146.601381	-3.009100	3.297100	-9.919700	26.934357	0.000114	20.884843
2147.599922	-3.028500	3.297100	-9.984500	26.949130	0.000116	20.877887
2148.583550	-2.997400	3.297200	-9.882400	26.911323	0.000112	20.885389
2149.602489	-3.015000	3.297400	-9.941400	26.882591	0.000113	20.884473
2150.599057	-2.994200	3.296000	-9.868300	26.865060	0.000113	20.873484
2151.583040	-2.993700	3.296200	-9.866800	26.819233	0.000113	20.872451
2152.587038	-3.004300	3.296400	-9.903100	26.814421	0.000111	20.874250
2153.602039	-2.963700	3.296100	-9.767400	26.824421	0.000110	20.883356
2154.612038	-3.007700	3.293500	-9.904000	26.781086	0.000110	20.873451
2155.600078	-3.005100	3.294700	-9.900000	26.821275	0.000109	20.874978
2156.609552	-3.002000	3.294500	-9.888800	26.838000	0.000111	20.871880
2157.612648	-2.984500	3.294800	-9.832300	26.861888	0.000108	20.877881
2158.602705	-2.997000	3.294100	-9.871700	26.838277	0.000110	20.866943
2159.586764	-2.988700	3.293000	-9.840700	26.853794	0.000107	20.868320
2160.602766	-3.008200	3.293700	-9.907200	26.909069	0.000110	20.868424
2161.606790	-3.003100	3.292000	-9.885700	26.971097	0.000107	20.845926
2162.610831	-2.990800	3.291800	-9.843800	27.033994	0.000108	20.883570
2163.624829	-2.995300	3.292300	-9.860500	27.050780	0.000107	20.877692
2164.588883	-2.995400	3.292200	-9.859600	27.032715	0.000106	20.875173
2165.586164	-3.024300	3.290900	-9.952500	27.033652	0.000107	20.868528
2166.585956	-2.997500	3.291900	-9.866000	27.050916	0.000109	20.893001
2167.602984	-2.987600	3.291300	-9.832000	27.067178	0.000108	20.861942
2168.615984	-3.000100	3.289800	-9.869100	27.110243	0.000106	20.861157
2169.615246	-2.984800	3.289800	-9.819000	27.110953	0.000107	20.869931
2170.615252	-3.003100	3.290100	-9.879600	27.142514	0.000107	20.876069
2171.589241	-3.007300	3.288900	-9.890400	27.081678	0.000105	20.876524
2172.589881	-3.018600	3.287300	-9.922200	27.082911	0.000105	20.864489
2173.616470	-3.023900	3.287400	-9.939700	27.056657	0.000105	20.858000
2174.616472	-3.015800	3.287800	-9.915000	27.022187	0.000103	20.859371
2175.606527	-2.995000	3.288100	-9.847200	27.008941	0.000106	20.865963
2176.608738	-3.007800	3.286200	-9.884600	26.989299	0.000103	20.866600
2177.616833	-3.002000	3.286200	-9.864000	27.003593	0.000103	20.868645
2178.617126	-3.015700	3.285100	-9.905800	27.057555	0.000106	20.855584
2179.609782	-3.022100	3.285500	-9.928200	27.075788	0.000103	20.879609
2180.593352	-3.018000	3.286700	-9.918700	27.035764	0.000103	20.854532
2181.608401	-3.002900	3.285300	-9.864700	27.048752	0.000104	20.857636
2182.610456	-2.990600	3.284300	-9.821400	27.121855	0.000104	20.866671
2183.611397	-3.004300	3.284100	-9.865800	27.083932	0.000103	20.865041
2184.609789	-2.998300	3.283400	-9.844000	27.068716	0.000100	20.869652
2185.622396	-3.003700	3.284200	-9.864100	27.105251	0.000102	20.853766
2186.594893	-3.006700	3.283200	-9.871100	27.081025	0.000102	20.860696
2187.597888	-3.003300	3.283600	-9.860200	27.076808	0.000102	20.845549
2188.596889	-2.982400	3.282900	-9.789900	27.088640	0.000102	20.865508
2189.614048	-2.990600	3.282800	-9.817200	27.068444	0.000101	20.852785
2190.611321	-2.999200	3.283000	-9.845600	27.070982	9.974981E-5	20.868613
2191.612670	-2.983100	3.281400	-9.787600	27.083189	0.000102	20.855285
2192.613933	-3.003200	3.282500	-9.857500	27.091598	0.000101	20.867535
2193.610380	-2.970400	3.280900	-9.744500	27.137903	9.806669E-5	20.859104
2194.616445	-3.005200	3.281000	-9.859700	27.156005	9.879274E-5	20.852655
2195.616643	-2.998800	3.279500	-9.833400	27.138084	9.915577E-5	20.865450
2196.618998	-2.996000	3.279700	-9.825200	27.113730	9.932078E-5	20.860871
2197.596177	-2.990900	3.280100	-9.809600	27.110269	9.945279E-5	20.859286
2198.598181	-3.000300	3.279400	-9.837900	27.111922	9.816570E-5	20.842458
2199.598143	-2.988300	3.279700	-9.800100	27.081820	9.734064E-5	20.862917
2200.619192	-2.981200	3.278800	-9.774000	27.082872	9.638357E-5	20.846433
2201.614381	-2.998900	3.276600	-9.825200	27.037114	9.522848E-5	20.848303
2202.619376	-3.005800	3.277500	-9.851100	27.019190	9.767066E-5	20.837391
2203.620428	-3.002000	3.278100	-9.840300	27.015709	9.545950E-5	20.856175
2204.600366	-3.002200	3.276300	-9.835600	26.988756	9.691161E-5	20.841873
2205.600366	-2.984100	3.276300	-9.776200	26.963133	9.361137E-5	20.847400
2206.604310	-2.996800	3.275800	-9.816300	26.973067	9.664759E-5	20.848855
2207.600971	-2.993800	3.275700	-9.806000	26.995771	9.374338E-5	20.861254
2208.604404	-2.990100	3.274700	-9.790600	27.047951	9.417241E-5	20.853038
2209.606468	-3.005500	3.277000	-9.848500	27.081929	9.572352E-5	20.847855
2210.604469	-3.024100	3.275100	-9.903100	27.133989	9.572352E-5	20.859909
2211.608647	-3.010900	3.275300	-9.859600	27.117489	9.397439E-5	20.860858
2212.606261	-3.015200	3.272800	-9.867100	27.025740	9.321534E-5	20.860098
2213.604382	-2.999800	3.274700	-9.822400	27.013300	9.334735E-5	20.842373
2214.620607	-3.019400	3.273800	-9.884200	27.026638	9.374338E-5	20.824018
2215.605605	-2.984700	3.275000	-9.774500	27.078991	9.235727E-5	20.843003
2216.626841	-2.994000	3.272800	-9.797800	27.147693	9.357836E-5	20.844296
2217.621649	-2.982600	3.275100	-9.767700	27.181449	9.489846E-5	20.845056
2218.633648	-2.997500	3.271600	-9.805700	27.183309	9.298432E-5	20.825116
2219.622597	-3.004700	3.271000	-9.826700	27.212717	9.199425E-5	20.840944
2220.622537	-2.997500	3.271600	-9.806100	27.207273	9.242328E-5	20.853012
2221.625539	-3.013800	3.270400	-9.855100	27.158168	8.988209E-5	20.839184
2222.608537	-3.000600	3.270300	-9.812100	27.156567	9.219226E-5	20.846582
2223.607810	-2.970800	3.270600	-9.715700	27.202934	9.107018E-5	20.848173
2224.609776	-2.999500	3.270200	-9.807200	27.170238	9.130120E-5	20.835677
2225.608772	-2.998600	3.269000	-9.802100	27.170425	8.945306E-5	20.831124
2226.606989	-3.000300	3.269000	-9.806900	27.213111	8.981609E-5	20.853668
2227.627005	-2.999800	3.268400	-9.804000	27.234950	8.846299E-5	20.836281
2228.632228	-2.992700	3.268100	-9.779800	27.250687	9.120219E-5	20.827928
2229.609281	-3.004600	3.267500	-9.817100	27.250035	8.902403E-5	20.845289
2230.610364	-3.022700	3.266500	-9.873000	27.274728	9.229127E-5	20.820342
2231.609365	-3.010900	3.267400	-9.836400	27.246335	8.998110E-5	20.809326
2232.610402	-3.006400	3.267500	-9.823000	27.215281	8.783594E-5	20.823609
2233.627022	-3.011700	3.264600	-9.831000	27.196689	8.760493E-5	20.826720
2234.636165	-2.984500	3.266200	-9.747000	27.155281	8.737391E-5	20.813522
2235.609165	-2.996200	3.266200	-9.785300	27.189773	8.876001E-5	20.828298
2236.610876	-3.001600	3.265400	-9.800200	27.158142	8.826497E-5	20.831098
2237.609927	-2.983700	3.265200	-9.741500	27.150122	8.578979E-5	20.827772
2238.609929	-3.009700	3.264200	-9.823500	27.196030	8.925505E-5	20.843127
2239.610925	-3.003000	3.263900	-9.800900	27.193518	8.697788E-5	20.814048
2240.611554	-2.993600	3.263900	-9.769700	27.199020	8.618582E-5	20.824323
2241.630499	-2.996300	3.265000	-9.782100	27.196947	8.545977E-5	20.831247
2242.612735	-2.983900	3.262900	-9.735400	27.237721	8.588880E-5	20.848076
2243.611932	-2.994200	3.263100	-9.769200	27.268703	8.727490E-5	20.832299
2244.611932	-3.003700	3.262500	-9.798500	27.244191	8.516275E-5	20.829929
2245.612498	-2.994400	3.262100	-9.767100	27.270873	8.618582E-5	20.827370
2246.628427	-2.985300	3.260800	-9.733700	27.312928	8.740691E-5	20.830318
2247.616431	-2.986200	3.261700	-9.739000	27.362685	8.638384E-5	20.823947
2248.614431	-2.999100	3.259800	-9.775300	27.411677	8.506374E-5	20.840515
2249.630430	-2.995300	3.261400	-9.767900	27.380040	8.519575E-5	20.822914
2250.638772	-2.993500	3.261000	-9.760200	27.369174	8.578979E-5	20.831422
2251.615772	-3.010400	3.258900	-9.809300	27.325493	8.516275E-5	20.847699
2252.615775	-2.992000	3.260100	-9.752300	27.289515	8.453570E-5	20.838534
2253.642155	-3.018600	3.257500	-9.831000	27.263641	8.285258E-5	20.827681
2254.616166	-2.969000	3.258900	-9.674900	27.272933	8.321561E-5	20.823278
2255.614162	-2.963300	3.258900	-9.655900	27.320909	8.433769E-5	20.839294
2256.614162	-2.993300	3.257000	-9.748200	27.357862	8.371064E-5	20.832371
2257.616338	-3.015600	3.256600	-9.820200	27.361555	8.252256E-5	20.837508
2258.616338	-2.989800	3.255100	-9.730500	27.317112	8.361163E-5	20.843061
2259.633389	-3.038700	3.256200	-9.893700	27.301196	8.295159E-5	20.837956
2260.619373	-3.011600	3.254500	-9.800200	27.292156	8.377665E-5	20.835027
2261.619002	-3.008500	3.255200	-9.792700	27.356415	8.578979E-5	20.835657
2262.620968	-3.012300	3.254700	-9.802400	27.345523	8.298459E-5	20.856467
2263.622628	-2.994800	3.254800	-9.745600	27.318048	8.357863E-5	20.840210
2264.636631	-2.988100	3.254000	-9.722500	27.296682	8.417268E-5	20.844796
2265.621912	-3.000500	3.253800	-9.762100	27.361051	8.324861E-5	20.850277
2266.619884	-2.998500	3.251900	-9.750300	27.353639	8.116946E-5	20.824804
2267.635501	-3.001500	3.252800	-9.761900	27.364919	8.060842E-5	20.834728
2268.619549	-3.001500	3.252500	-9.761800	27.317448	8.008038E-5	20.836287
2269.619549	-2.995400	3.252000	-9.740600	27.302332	7.856227E-5	20.845737
2270.637538	-2.970800	3.253100	-9.663400	27.289321	7.899130E-5	20.820796
2271.636538	-2.952200	3.251400	-9.598400	27.275858	8.008038E-5	20.850875
2272.648709	-2.992900	3.250300	-9.726800	27.280178	8.080643E-5	20.829617
2273.638118	-2.974600	3.249900	-9.665500	27.312282	8.133447E-5	20.845315
2274.641453	-3.011000	3.250000	-9.784900	27.307543	7.849626E-5	20.851453
2275.647377	-3.014600	3.248500	-9.791500	27.258804	8.008038E-5	20.843678
2276.641870	-2.990100	3.249100	-9.714200	27.276820	7.975035E-5	20.846153
2277.620871	-3.003900	3.249700	-9.760400	27.250183	7.694515E-5	20.848283
2278.622611	-3.003200	3.247800	-9.752900	27.328799	7.694515E-5	20.848179
2279.623494	-3.003000	3.247300	-9.751100	27.293550	7.981636E-5	20.838326
2280.623493	-2.980800	3.247600	-9.680100	27.323246	7.720917E-5	20.838801
2281.624494	-2.994400	3.246200	-9.719800	27.417062	8.103745E-5	20.862527
2282.624598	-3.007000	3.247200	-9.763500	27.433848	7.701115E-5	20.839586
2283.624762	-2.986600	3.245900	-9.694400	27.405886	7.816624E-5	20.836112
2284.625733	-2.967800	3.245500	-9.631300	27.410386	7.668113E-5	20.855337
2285.641736	-2.991500	3.247000	-9.712300	27.458433	7.727517E-5	20.866690
2286.644846	-3.000300	3.244200	-9.733000	27.472178	7.869428E-5	20.835475
2287.627850	-2.985400	3.243700	-9.682900	27.472230	7.734118E-5	20.856389
2288.647071	-3.012100	3.242700	-9.766800	27.490901	7.522902E-5	20.853362
2289.643070	-2.989900	3.244300	-9.699700	27.527628	7.747319E-5	20.847166
2290.649280	-2.995500	3.243900	-9.716600	27.567052	7.694515E-5	20.880667
2291.630333	-2.991500	3.243800	-9.702700	27.550875	7.598808E-5	20.854908
2292.629839	-3.010400	3.242500	-9.760300	27.606456	7.489900E-5	20.879062
2293.628841	-3.017000	3.241800	-9.779900	27.588594	7.473399E-5	20.852083
2294.628173	-2.999000	3.242400	-9.723100	27.559170	7.506401E-5	20.874633
2295.629217	-3.007500	3.241400	-9.746700	27.551397	7.579006E-5	20.861124
2296.628434	-3.025200	3.239300	-9.798300	27.585715	7.374391E-5	20.868151
2297.627485	-3.005800	3.241300	-9.742300	27.620431	7.272084E-5	20.873685
2298.628339	-3.006500	3.239700	-9.739200	27.594797	7.308386E-5	20.868755
2299.632415	-2.993900	3.240200	-9.699700	27.594868	7.324888E-5	20.863137
2300.629412	-2.993400	3.239600	-9.695200	27.533244	7.377692E-5	20.868463
2301.631450	-2.998500	3.239000	-9.711500	27.551210	7.314987E-5	20.882745
2302.648515	-3.010400	3.239400	-9.750500	27.616274	7.433796E-5	20.867606
2303.648552	-2.982800	3.239100	-9.660400	27.594255	7.262183E-5	20.867261
2304.649516	-2.997200	3.239200	-9.707700	27.596030	7.242382E-5	20.858143
2305.649516	-2.999000	3.237300	-9.707800	27.617262	7.351290E-5	20.858643
2306.657660	-2.986100	3.237900	-9.667700	27.596108	7.351290E-5	20.874341
2307.631657	-2.992000	3.236700	-9.683600	27.563489	7.288585E-5	20.851479
2308.650662	-3.008600	3.235400	-9.733200	27.522198	6.968462E-5	20.853083
2309.636912	-3.000700	3.234600	-9.705100	27.501301	7.225880E-5	20.871886
2310.651910	-3.009200	3.234600	-9.732900	27.458026	7.367791E-5	20.872918
2311.636908	-3.014300	3.233500	-9.745900	27.440795	7.057568E-5	20.893513
2312.658960	-3.003700	3.233400	-9.711400	27.428722	7.044367E-5	20.888480
2313.660961	-2.995000	3.232800	-9.681300	27.473101	7.123573E-5	20.849206
2314.651962	-3.023400	3.232700	-9.772400	27.518616	7.110372E-5	20.867969
2315.654401	-2.986200	3.232500	-9.651800	27.526563	7.110372E-5	20.877387
2316.657402	-3.004400	3.232900	-9.712000	27.495671	7.209379E-5	20.870963
2317.651039	-2.976700	3.231700	-9.618600	27.524051	6.922258E-5	20.879127
2318.654492	-2.990500	3.232000	-9.664000	27.524529	6.803450E-5	20.873919
2319.661692	-2.999600	3.229700	-9.687000	27.501830	6.935459E-5	20.885220
2320.636735	-2.996800	3.230700	-9.680200	27.522295	6.796849E-5	20.893007
2321.656348	-2.977200	3.231600	-9.620600	27.512534	6.942060E-5	20.879394
2322.663349	-3.011300	3.228900	-9.722900	27.518480	6.829851E-5	20.880160
2323.637348	-2.987700	3.228900	-9.645900	27.561307	6.674740E-5	20.883895
2324.653346	-3.006500	3.228400	-9.705800	27.520204	7.034466E-5	20.884739
2325.657640	-3.000900	3.227200	-9.683100	27.466871	6.529529E-5	20.881342
2326.637985	-2.995400	3.231000	-9.676800	27.486472	6.859554E-5	20.893000
2327.638984	-3.015300	3.226500	-9.728100	27.531224	6.753946E-5	20.881128
2328.640472	-3.006800	3.226700	-9.701100	27.554264	6.724244E-5	20.858318
2329.660517	-2.990700	3.226400	-9.648500	27.522295	6.506428E-5	20.874516
2330.663517	-3.029100	3.226400	-9.771800	27.608870	6.856253E-5	20.891922
2331.642625	-2.970500	3.227300	-9.585400	27.635936	6.549331E-5	20.890708
2332.640010	-3.009600	3.225100	-9.704800	27.681934	6.839752E-5	20.895267
2333.642015	-2.993000	3.223600	-9.647300	27.679629	6.539430E-5	20.901008
2334.647867	-2.986600	3.224200	-9.627800	27.702014	6.536130E-5	20.911679
2335.641314	-3.003200	3.223800	-9.679600	27.707482	6.572433E-5	20.884466
2336.667314	-3.012400	3.222600	-9.706000	27.704183	6.555931E-5	20.886363
2337.664314	-2.994600	3.223800	-9.652600	27.700962	6.427222E-5	20.899242
2338.642232	-3.001100	3.224100	-9.675200	27.715782	6.549331E-5	20.901826
2339.643281	-2.994200	3.222100	-9.646600	27.750752	6.460224E-5	20.883440
2340.643482	-2.989400	3.221700	-9.630100	27.740877	6.384319E-5	20.912380
2341.642482	-2.983500	3.223000	-9.614600	27.641436	6.496527E-5	20.891500
2342.644657	-2.991400	3.220000	-9.630800	27.571216	6.285312E-5	20.894338
2343.643656	-3.006100	3.219900	-9.678700	27.589130	6.394220E-5	20.907620
2344.665657	-2.996700	3.220200	-9.648300	27.523360	6.285312E-5	20.912094
2345.660849	-2.995900	3.219700	-9.644900	27.524510	6.288612E-5	20.901398
2346.665350	-3.000600	3.219800	-9.660200	27.574224	6.476726E-5	20.902580
2347.645399	-2.980600	3.219400	-9.595100	27.558653	6.397520E-5	20.926266
2348.671399	-3.012100	3.219400	-9.696600	27.530294	6.397520E-5	20.914803
2349.646523	-3.003000	3.217200	-9.660400	27.492327	6.249009E-5	20.915959
2350.663539	-2.979100	3.217500	-9.583800	27.539061	6.324914E-5	20.892805
2351.666193	-2.973600	3.218900	-9.570700	27.583287	6.456924E-5	20.895104
2352.647191	-2.991000	3.217100	-9.621500	27.554328	6.341416E-5	20.911484
2353.665379	-2.988900	3.215400	-9.609600	27.537079	6.239108E-5	20.897923
2354.664210	-3.031200	3.214700	-9.743900	27.556575	6.394220E-5	20.925123
2355.651212	-2.985500	3.216100	-9.600700	27.614750	6.338115E-5	20.914907
2356.650210	-3.007000	3.214900	-9.666200	27.660536	6.120299E-5	20.906925
2357.672569	-3.002900	3.212800	-9.646600	27.713646	6.394220E-5	20.903470
2358.647594	-3.004300	3.213300	-9.653700	27.723753	6.298513E-5	20.929760
2359.669539	-3.005200	3.213500	-9.656500	27.670193	6.348016E-5	20.915693
2360.666476	-2.991600	3.213300	-9.612300	27.685058	6.008091E-5	20.923064
2361.665565	-2.984600	3.214100	-9.592200	27.693410	6.242408E-5	20.918193
2362.664633	-3.012900	3.210200	-9.670800	27.699194	6.070796E-5	20.922590
2363.648633	-3.017000	3.211700	-9.689000	27.720946	6.288612E-5	20.914134
2364.670630	-3.000400	3.211800	-9.636300	27.769425	6.249009E-5	20.934942
2365.676630	-3.001900	3.210600	-9.637100	27.769818	5.981689E-5	20.921590
2366.651795	-3.010800	3.211000	-9.666200	27.723695	5.895883E-5	20.949139
2367.664796	-2.977000	3.209600	-9.554200	27.694166	6.087297E-5	20.917056
2368.678797	-3.022800	3.207700	-9.695700	27.693953	6.093898E-5	20.921583
2369.679801	-2.997500	3.208800	-9.617300	27.731615	6.057595E-5	20.906853
2370.666014	-2.988100	3.206500	-9.580900	27.734442	6.103798E-5	20.932455
2371.667013	-2.980300	3.207100	-9.557500	27.798468	6.136801E-5	20.924343
2372.666013	-3.017900	3.205800	-9.674000	27.867957	6.206106E-5	20.934533
2373.667233	-2.978300	3.206900	-9.550700	27.870526	6.169803E-5	20.937118
2374.651321	-3.009000	3.205500	-9.644900	27.889970	6.050994E-5	20.918284
2375.652319	-3.026000	3.206000	-9.700200	27.932395	5.968488E-5	20.934429
2376.652319	-2.996900	3.204000	-9.601300	27.924722	5.806777E-5	20.942827
2377.653392	-2.987300	3.206000	-9.576400	27.849712	5.978389E-5	20.939878
2378.670071	-3.019600	3.203000	-9.670800	27.795583	5.819977E-5	20.934241
2379.654070	-2.975700	3.204000	-9.532500	27.759143	5.876082E-5	20.942612
2380.652070	-2.988400	3.204000	-9.574200	27.718074	5.631864E-5	20.935897
2381.652130	-2.994500	3.203000	-9.590700	27.743569	5.796876E-5	20.941638
2382.675131	-3.011300	3.201900	-9.641200	27.753489	5.823278E-5	20.951620
2383.652889	-2.998000	3.203100	-9.601900	27.769483	5.757273E-5	20.936423
2384.653924	-3.000300	3.201100	-9.603600	27.738308	5.882682E-5	20.937767
2385.654014	-2.983100	3.202700	-9.553700	27.670980	5.648365E-5	20.946827
2386.654692	-3.005200	3.199500	-9.614400	27.664900	5.800176E-5	20.958725
2387.669868	-3.001200	3.199400	-9.601500	27.672491	5.598861E-5	20.957829
2388.667462	-3.007300	3.198500	-9.617700	27.683064	5.892583E-5	20.940969
2389.672459	-3.019200	3.199700	-9.659900	27.750862	5.740772E-5	20.948029
2390.678458	-2.989200	3.197500	-9.557700	27.762403	5.526256E-5	20.946366
2391.679462	-3.007700	3.196400	-9.612600	27.743582	5.651665E-5	20.963933
2392.673649	-2.978700	3.198100	-9.524800	27.743840	5.697869E-5	20.946652
2393.677661	-3.029000	3.196500	-9.681200	27.721611	5.628563E-5	20.961738
2394.658974	-3.003100	3.197800	-9.603200	27.737663	5.384346E-5	20.956082
2395.657677	-3.008700	3.195400	-9.613000	27.811551	5.506455E-5	20.951731
2396.656906	-3.023500	3.194600	-9.658300	27.824426	5.641764E-5	20.961368
2397.660902	-3.009700	3.193200	-9.610200	27.860652	5.400847E-5	20.945671
2398.675943	-3.000300	3.194600	-9.583700	27.901193	5.806777E-5	20.963239
2399.659245	-3.010800	3.194000	-9.616000	27.938906	5.595561E-5	20.960420
2400.688416	-3.003700	3.193100	-9.590700	27.945024	5.440450E-5	20.957569
2401.679418	-3.008500	3.191600	-9.601200	27.925503	5.377745E-5	20.954517
2402.680991	-3.000500	3.192300	-9.577700	27.906214	5.559258E-5	20.943164
2403.677992	-3.007500	3.190300	-9.594100	27.913248	5.489953E-5	20.968259
2404.680210	-3.029600	3.190100	-9.663900	27.949393	5.374445E-5	20.961966
2405.681213	-3.009700	3.190200	-9.600900	27.966293	5.569159E-5	20.976130
2406.687164	-3.015000	3.190000	-9.616900	27.963099	5.341442E-5	20.973389
2407.680797	-2.984600	3.188800	-9.516000	27.923902	5.516355E-5	20.967129
2408.666859	-3.007900	3.189100	-9.590900	27.895475	5.384346E-5	20.975974
2409.663261	-2.984700	3.189800	-9.518600	27.819625	5.018019E-5	20.969811
2410.665686	-3.003200	3.188200	-9.574000	27.876495	5.305140E-5	20.977260
2411.678909	-2.980600	3.187500	-9.499600	27.849719	5.367844E-5	20.983027
2412.680148	-2.993800	3.187200	-9.541200	27.802709	5.229234E-5	20.976494
2413.691152	-2.997900	3.185500	-9.548200	27.735649	5.404147E-5	20.981553
2414.682743	-2.991800	3.184700	-9.526900	27.713769	5.027919E-5	20.976130
2415.663740	-2.986900	3.185100	-9.513100	27.753818	5.060922E-5	20.992248
2416.683743	-3.026200	3.182300	-9.629300	27.776008	5.169830E-5	20.976649
2417.679740	-2.972700	3.185100	-9.467400	27.808698	5.272137E-5	20.972091
2418.683877	-3.013800	3.182000	-9.589400	27.819748	5.275438E-5	20.995535
2419.692862	-3.004900	3.181400	-9.559100	27.888105	5.232534E-5	20.991788
2420.687973	-2.979400	3.181300	-9.477400	27.906085	5.156629E-5	20.975747
2421.682972	-3.014000	3.180700	-9.585500	27.863659	4.965215E-5	20.977617
2422.663856	-3.008600	3.180100	-9.566900	27.869752	4.985016E-5	20.982800
2423.666896	-3.013600	3.179400	-9.580600	27.867241	5.179731E-5	20.997814
2424.668898	-3.001500	3.180000	-9.544400	27.890274	5.117026E-5	20.986384
2425.664667	-3.002900	3.179000	-9.545500	27.873540	5.163229E-5	21.015056
2426.664666	-3.001600	3.177600	-9.536200	27.938506	5.077423E-5	20.977559
2427.691673	-2.992000	3.177100	-9.505200	28.010057	4.998217E-5	20.993151
2428.693171	-2.985100	3.178300	-9.486900	28.047947	4.919011E-5	20.980085
2429.667170	-2.992800	3.175800	-9.503600	28.090417	4.905810E-5	20.992963
2430.667366	-3.017000	3.175100	-9.579000	28.063485	4.796902E-5	21.001886
2431.683438	-3.006800	3.175700	-9.548100	28.036900	5.110425E-5	20.995515
2432.691764	-2.974700	3.175300	-9.444300	28.071415	5.034520E-5	20.995645
2433.684635	-2.992100	3.174700	-9.498600	28.010780	4.803503E-5	20.999094
2434.682735	-2.996800	3.174300	-9.512200	27.988402	4.750699E-5	21.011179
2435.667253	-2.969900	3.174800	-9.428000	27.972069	4.985016E-5	21.000431
2436.668429	-3.002600	3.172400	-9.524800	27.924122	4.836505E-5	21.008120
2437.667428	-3.020700	3.171500	-9.579800	27.923729	4.744099E-5	21.012465
2438.669130	-3.022300	3.170800	-9.582400	27.963429	4.727597E-5	20.997899
2439.688324	-2.996300	3.171400	-9.501500	28.036184	4.668193E-5	20.988632
2440.669825	-3.017700	3.170300	-9.566400	28.087236	4.912411E-5	21.008250
2441.669656	-3.014800	3.169100	-9.553800	28.026970	4.780401E-5	21.017284
2442.670657	-2.991000	3.168600	-9.476700	28.012419	4.618689E-5	21.005484
2443.671863	-2.973600	3.168800	-9.421200	28.034036	4.737498E-5	20.988839
2444.706731	-2.997600	3.168200	-9.496400	28.032861	4.526283E-5	21.006146
2445.670965	-3.023200	3.165800	-9.570400	27.961938	4.806803E-5	21.031954
2446.670963	-3.029700	3.165700	-9.590500	27.954401	4.552685E-5	21.021524
2447.670921	-3.001500	3.164900	-9.499000	27.980497	4.793602E-5	20.998009
2448.670136	-3.021500	3.164300	-9.560300	28.060336	4.608789E-5	21.017680
2449.671134	-2.993700	3.163800	-9.470900	28.048193	4.737498E-5	21.025843
2450.671383	-3.006000	3.163000	-9.506500	28.057923	4.691295E-5	21.018095
2451.675828	-2.998800	3.162600	-9.483400	28.027989	4.483379E-5	21.021154
2452.679596	-2.984300	3.162700	-9.437500	28.011296	4.440476E-5	21.011465
2453.676650	-2.970400	3.161900	-9.390300	27.991434	4.707796E-5	21.007120
2454.675650	-2.999600	3.159300	-9.475400	28.023021	4.546084E-5	21.025635
2455.675082	-2.970500	3.162000	-9.392000	28.018678	4.516382E-5	21.015576
2456.677082	-2.975600	3.159400	-9.400200	28.015349	4.450377E-5	21.024076
2457.694115	-3.035900	3.157900	-9.586300	28.041863	4.216060E-5	20.994346
2458.694084	-2.995300	3.158500	-9.459400	28.042676	4.341469E-5	20.979994
2459.682083	-2.997700	3.158100	-9.466500	28.046734	4.480079E-5	21.018686
2460.678162	-2.986500	3.157400	-9.429100	28.094069	4.321668E-5	21.008017
2461.677607	-3.013600	3.155800	-9.509400	28.163306	4.364571E-5	21.001854
2462.677656	-2.999600	3.155400	-9.463600	28.157448	4.361271E-5	21.003542
2463.693618	-2.997500	3.152700	-9.449400	28.173590	4.169856E-5	21.007465
2464.693951	-2.964100	3.153800	-9.347200	28.162758	4.417375E-5	20.986131
2465.698482	-2.998800	3.152500	-9.453200	28.195591	4.575786E-5	21.005906
2466.700706	-2.983900	3.151600	-9.403600	28.133079	4.291965E-5	20.971428
2467.694988	-2.996300	3.151100	-9.440800	28.080610	4.625290E-5	20.992100
2468.678983	-3.019700	3.150500	-9.512600	28.066898	4.153355E-5	20.978299
2469.697590	-2.998900	3.150500	-9.446800	28.081636	4.397573E-5	20.978910
2470.697039	-3.002800	3.149000	-9.455500	28.128317	4.245762E-5	20.979436
2471.700041	-2.988600	3.148300	-9.407700	28.162751	4.278764E-5	20.969058
2472.705038	-2.994700	3.146800	-9.422500	28.147099	4.196258E-5	20.976533
2473.702085	-3.002500	3.146900	-9.447100	28.037120	4.176457E-5	20.972981
2474.684140	-3.031500	3.144900	-9.532600	28.045495	4.011445E-5	20.974299
2475.685219	-3.001100	3.144500	-9.435500	27.994829	4.103852E-5	20.967396
2476.685220	-3.031600	3.142300	-9.525200	28.075532	4.047748E-5	20.962336
2477.683221	-3.003700	3.142700	-9.438400	28.061007	3.879435E-5	20.977585
2478.685337	-2.976400	3.142100	-9.350600	28.045044	3.895936E-5	20.965311
2479.685306	-2.997800	3.141700	-9.417600	28.091495	4.080750E-5	20.972240
2480.684308	-3.001000	3.140200	-9.422400	28.122214	4.130254E-5	20.966655
2481.699309	-3.018900	3.138500	-9.474000	28.133860	4.097251E-5	20.982644
2482.702533	-3.009100	3.139000	-9.444600	28.178965	4.209459E-5	20.969734
2483.684733	-2.988700	3.138600	-9.379300	28.239932	3.882735E-5	20.974215
2484.683702	-2.983300	3.138700	-9.362900	28.203739	4.097251E-5	20.967649
2485.703111	-3.011100	3.137000	-9.444700	28.228868	4.027946E-5	20.973981
2486.685347	-3.007500	3.136800	-9.432500	28.239797	3.770527E-5	20.962226
2487.700349	-3.012800	3.134400	-9.442700	28.245867	3.760626E-5	20.967389
2488.702348	-3.001200	3.133700	-9.404000	28.249945	4.001544E-5	20.951108
2489.701589	-3.003900	3.131400	-9.406000	28.294864	3.902537E-5	20.936593
2490.701813	-3.002400	3.132300	-9.403000	28.257351	3.806830E-5	20.965201
2491.689735	-2.973600	3.133900	-9.318800	28.231100	3.915738E-5	20.932138
2492.702739	-3.005500	3.131000	-9.409800	28.239423	3.780428E-5	20.977020
2493.704737	-2.986900	3.131200	-9.350900	28.232358	3.998244E-5	20.963746
2494.713048	-2.999600	3.130100	-9.387900	28.291961	3.955341E-5	20.969701
2495.703050	-2.968200	3.129600	-9.288300	28.215326	3.519709E-5	20.968883
2496.703047	-3.000400	3.126700	-9.380700	28.178010	3.740825E-5	20.932742
2497.713089	-2.993900	3.127300	-9.361400	28.179113	3.575813E-5	20.957557
2498.704089	-3.012600	3.125500	-9.415100	28.155932	3.645118E-5	20.960297
2499.704673	-2.983000	3.125800	-9.323800	28.215926	3.744125E-5	20.959057
2500.709733	-3.016000	3.124800	-9.423900	28.231081	3.724324E-5	20.943022
2501.709942	-3.017600	3.122900	-9.422800	28.262499	4.031246E-5	20.954738
2502.689474	-3.008300	3.123100	-9.394800	28.322932	3.684721E-5	20.949205
2503.691477	-2.995600	3.123100	-9.354000	28.332247	3.671520E-5	20.950998
2504.692535	-2.991600	3.121900	-9.338800	28.307927	3.457004E-5	20.948322
2505.691574	-2.999900	3.121300	-9.362500	28.299935	3.565912E-5	20.952128
2506.692605	-2.978000	3.118700	-9.287100	28.272569	3.671520E-5	20.971513
2507.693575	-2.987800	3.118200	-9.315300	28.283014	3.496607E-5	20.959745
2508.692680	-3.015800	3.116600	-9.397900	28.280136	3.664919E-5	20.944048
2509.692110	-2.997900	3.115700	-9.339200	28.234874	3.291992E-5	20.943048
2510.693112	-3.002000	3.115400	-9.351800	28.173907	3.301893E-5	20.955634
2511.696397	-3.009600	3.113900	-9.370500	28.162448	3.625317E-5	20.946471
2512.711817	-3.007500	3.113800	-9.363800	28.202036	3.235888E-5	20.935119
2513.709618	-2.997700	3.114100	-9.334500	28.205939	3.529610E-5	20.938574
2514.710606	-2.995300	3.111300	-9.317300	28.129479	3.516409E-5	20.954530
2515.710864	-3.007300	3.110800	-9.354500	28.057052	3.361297E-5	20.958908
2516.709942	-3.008300	3.110600	-9.356800	28.129537	3.285392E-5	20.946055
2517.712940	-2.997800	3.109800	-9.322400	28.196023	3.387699E-5	20.947555
2518.712477	-2.999000	3.108400	-9.321100	28.230171	3.463605E-5	20.956329
2519.710567	-3.031300	3.108000	-9.419100	28.304631	3.371198E-5	20.955433
2520.713566	-2.999700	3.106000	-9.315900	28.332938	3.305193E-5	20.933203
2521.696728	-2.978000	3.106800	-9.251100	28.308056	3.199585E-5	20.929962
2522.720651	-2.992900	3.103400	-9.286300	28.333821	3.390999E-5	20.941204
2523.694082	-3.023600	3.101700	-9.378100	28.367965	3.354697E-5	20.932436
2524.714096	-2.999300	3.101700	-9.302000	28.345362	3.229287E-5	20.955667
2525.695094	-2.998000	3.100800	-9.295500	28.304837	3.225987E-5	20.936677
2526.695096	-2.993800	3.100300	-9.280300	28.386646	3.331595E-5	20.950296
2527.694318	-3.003900	3.098300	-9.305900	28.424993	3.219387E-5	20.936755
2528.695332	-3.014200	3.098100	-9.337900	28.467267	3.331595E-5	20.950400
2529.694356	-2.991700	3.097900	-9.266300	28.448743	3.387699E-5	20.955453
2530.712882	-3.023900	3.095800	-9.360500	28.357392	3.179784E-5	20.935541
2531.699742	-2.976200	3.096000	-9.212800	28.327551	3.166583E-5	20.929676
2532.697712	-2.995000	3.094500	-9.267300	28.260989	3.232588E-5	20.942314
2533.698627	-3.003700	3.093800	-9.291900	28.204501	3.051074E-5	20.954193
2534.699799	-2.994800	3.092000	-9.258600	28.228526	3.173183E-5	20.931443
2535.698789	-3.002600	3.091400	-9.280800	28.264370	3.047774E-5	20.941451
2536.715185	-3.002400	3.090800	-9.279000	28.353025	3.120379E-5	20.947737
2537.722362	-3.007800	3.089600	-9.292100	28.419975	3.093978E-5	20.933125
2538.717362	-3.026600	3.087100	-9.341600	28.367210	3.097278E-5	20.936891
2539.717412	-2.983500	3.089200	-9.215700	28.325906	2.909164E-5	20.946036
2540.717521	-2.979900	3.086300	-9.195800	28.315836	2.935566E-5	20.956284
2541.728965	-3.039500	3.083000	-9.369000	28.264389	3.070876E-5	20.930566
2542.720204	-3.000400	3.084400	-9.253300	28.241758	3.113779E-5	20.927695
2543.723856	-2.969000	3.083400	-9.153600	28.257931	2.994970E-5	20.937340
2544.703526	-3.023800	3.082700	-9.320800	28.337485	2.965268E-5	20.935885
2545.723571	-2.987100	3.081500	-9.203900	28.314262	3.117079E-5	20.955647
2546.700593	-2.990000	3.080700	-9.210700	28.238597	2.935566E-5	20.943951
2547.703588	-3.011000	3.078300	-9.267900	28.249319	2.915764E-5	20.937203
2548.702621	-2.982900	3.077200	-9.178100	28.309153	3.001571E-5	20.936281
2549.721639	-3.006500	3.075800	-9.246700	28.374377	2.856360E-5	20.941262
2550.728706	-2.982400	3.075800	-9.172300	28.419085	2.985070E-5	20.922272
2551.726710	-3.006300	3.074900	-9.242900	28.461166	2.856360E-5	20.940464
2552.728768	-3.004700	3.073900	-9.235500	28.492744	3.084077E-5	20.933859
2553.703993	-2.985100	3.072600	-9.170700	28.559808	3.084077E-5	20.932644
2554.705990	-3.039500	3.070500	-9.331500	28.610602	2.935566E-5	20.936385
2555.704545	-2.983400	3.070100	-9.158200	28.631052	2.876162E-5	20.939437
2556.731597	-3.021800	3.067400	-9.267700	28.643892	2.971869E-5	20.941464
2557.728907	-3.005200	3.068400	-9.220100	28.557086	3.212786E-5	20.934170
2558.720772	-3.019000	3.065600	-9.254500	28.436365	2.849760E-5	20.935404
2559.733933	-2.997100	3.066100	-9.188500	28.374074	2.773854E-5	20.930053
2560.706865	-3.012100	3.065400	-9.232600	28.413151	2.843159E-5	20.941899
2561.705084	-2.998300	3.062800	-9.182300	28.446795	2.942166E-5	20.918408
2562.705084	-2.987900	3.063200	-9.151600	28.417808	2.909164E-5	20.916720
2563.723181	-2.996600	3.061700	-9.174400	28.421175	2.823358E-5	20.944763
2564.726407	-2.985900	3.059700	-9.134900	28.424813	2.879462E-5	20.937996
2565.733406	-3.022500	3.058900	-9.244000	28.451652	2.912464E-5	20.927092
2566.709404	-2.981000	3.058100	-9.115000	28.481316	2.556038E-5	20.938944
2567.711637	-2.975500	3.056200	-9.092700	28.482567	2.892663E-5	20.943523
2568.729127	-2.998400	3.055700	-9.161500	28.514951	2.866261E-5	20.933463
2569.726347	-2.982500	3.054400	-9.109000	28.529308	2.912464E-5	20.928482
2570.710346	-2.999300	3.052400	-9.153900	28.546258	2.777154E-5	20.932274
2571.710565	-3.010000	3.052100	-9.185500	28.584309	2.942166E-5	20.934561
2572.711609	-3.017200	3.050600	-9.203300	28.556512	2.823358E-5	20.916051
2573.711692	-2.987900	3.050600	-9.113500	28.599452	2.866261E-5	20.952180
2574.727880	-3.033900	3.047300	-9.243400	28.646511	2.796956E-5	20.904750
2575.728014	-3.007900	3.046200	-9.162200	28.655165	3.084077E-5	20.928638
2576.712341	-2.984300	3.045800	-9.089300	28.703937	2.780454E-5	20.953102
2577.714365	-3.018900	3.044000	-9.188500	28.713165	2.948767E-5	20.921624
2578.713517	-3.000700	3.043100	-9.130900	28.696617	2.612142E-5	20.928664
2579.713751	-3.003900	3.042100	-9.137300	28.650270	2.711149E-5	20.936035
2580.713058	-2.996400	3.041300	-9.111800	28.590139	2.945467E-5	20.918623
2581.719058	-3.005500	3.038600	-9.131600	28.534945	2.790355E-5	20.927521
2582.733885	-2.993600	3.038300	-9.094900	28.480516	2.602241E-5	20.936717
2583.729881	-2.983100	3.037200	-9.059400	28.456812	2.757353E-5	20.929443
2584.733101	-2.981000	3.036100	-9.049700	28.454794	2.810157E-5	20.917454
2585.716277	-3.024100	3.034400	-9.175200	28.465959	2.737551E-5	20.938652
2586.732336	-3.000700	3.033700	-9.102500	28.460650	2.721050E-5	20.948953
2587.732902	-3.014000	3.031500	-9.136100	28.527516	2.942166E-5	20.926676
2588.732124	-2.975800	3.031800	-9.020800	28.567296	2.542837E-5	20.898464
2589.737863	-3.006700	3.029500	-9.108200	28.602445	2.589040E-5	20.928644
2590.718094	-3.014000	3.028700	-9.127900	28.628267	2.737551E-5	20.904393
2591.721539	-2.994800	3.026100	-9.061700	28.636812	2.688048E-5	20.924377
2592.745498	-2.990000	3.025500	-9.045800	28.712817	2.803556E-5	20.917006
2593.738559	-2.998300	3.024100	-9.066500	28.747909	2.942166E-5	20.909206
2594.736595	-2.986600	3.023200	-9.027900	28.757794	2.744152E-5	20.907310
2595.719814	-3.001100	3.021800	-9.067700	28.766712	2.843159E-5	20.922929
2596.736815	-3.015800	3.021100	-9.110100	28.739565	2.615442E-5	20.912655
2597.736856	-3.006700	3.017800	-9.072400	28.690982	2.602241E-5	20.915876
2598.736858	-3.008500	3.018000	-9.079400	28.675911	2.790355E-5	20.905913
2599.737530	-2.995200	3.016100	-9.032800	28.663123	2.513135E-5	20.940919
2600.744529	-3.010700	3.015700	-9.078900	28.608197	2.661646E-5	20.917370
2601.743893	-3.016600	3.012600	-9.086500	28.622011	2.565939E-5	20.912791
2602.739252	-2.987600	3.011600	-8.996700	28.586025	2.803556E-5	20.917798
2603.743899	-2.988900	3.012000	-9.001100	28.589662	2.615442E-5	20.929521
2604.741903	-2.994200	3.009700	-9.010400	28.600671	2.899263E-5	20.922591
2605.724149	-2.997800	3.008400	-9.018100	28.676233	2.839859E-5	20.907660
2606.740775	-2.989500	3.007900	-8.991800	28.708851	2.589040E-5	20.917753
2607.743775	-2.997100	3.005200	-9.006400	28.755034	2.757353E-5	20.912115
2608.724291	-2.960900	3.004700	-8.896000	28.679664	2.490033E-5	20.917753
2609.724836	-2.967300	3.003800	-8.912200	28.622076	2.717750E-5	20.901003
2610.726334	-3.000800	3.000900	-9.004500	28.646079	2.542837E-5	20.918539
2611.752298	-3.008100	3.001000	-9.026700	28.592177	2.476832E-5	20.915460
2612.741330	-2.996400	2.998600	-8.984500	28.645718	2.691348E-5	20.921020
2613.726377	-3.021400	2.998000	-9.057300	28.649671	2.767254E-5	20.898451
2614.726602	-3.015500	2.996000	-9.033200	28.708360	2.473532E-5	20.906355
2615.749603	-2.991800	2.995600	-8.961300	28.692045	2.631944E-5	20.912680
2616.743802	-3.021100	2.993700	-9.042800	28.725307	2.506534E-5	20.925319
2617.746723	-2.992800	2.992100	-8.954200	28.747096	2.628643E-5	20.903172
2618.746068	-3.008100	2.990600	-8.995000	28.744504	2.265617E-5	20.909569
2619.753068	-2.990600	2.989800	-8.940300	28.732187	2.767254E-5	20.901432
2620.754620	-2.979900	2.987800	-8.901900	28.761579	2.691348E-5	20.906855
2621.752922	-2.995300	2.986900	-8.946200	28.717988	2.605542E-5	20.920318
2622.730920	-3.044700	2.984100	-9.084800	28.670836	2.539537E-5	20.896535
2623.754917	-2.999600	2.984500	-8.951400	28.646459	2.486733E-5	20.898535
2624.762915	-3.002800	2.980900	-8.950300	28.696875	2.810157E-5	20.911856
2625.732027	-3.008600	2.981100	-8.968400	28.698113	2.757353E-5	20.872803
2626.755028	-2.994700	2.979500	-8.922100	28.724417	2.295319E-5	20.902614
2627.757029	-3.001300	2.977800	-8.936800	28.787132	2.556038E-5	20.894664
2628.732803	-3.030600	2.976300	-9.019300	28.849522	2.750752E-5	20.910570
2629.733622	-3.021400	2.974000	-8.984000	28.882965	2.480132E-5	20.889735
2630.751591	-3.012300	2.972200	-8.952500	28.868458	2.612142E-5	20.890767
2631.734230	-3.007800	2.971300	-8.936400	28.880664	2.777154E-5	20.920604
2632.735664	-3.015600	2.971200	-8.959400	28.931494	2.770554E-5	20.900217
2633.735034	-2.975300	2.968500	-8.831300	28.903539	2.539537E-5	20.900029
2634.753408	-3.021400	2.968200	-8.967100	28.873836	2.542837E-5	20.890969
2635.746460	-2.987700	2.966700	-8.862600	28.840444	2.579140E-5	20.916123
2636.753458	-2.988400	2.965300	-8.860900	28.788570	2.338222E-5	20.914603
2637.753153	-2.992600	2.964800	-8.871100	28.729408	2.565939E-5	20.903848
2638.740982	-2.994700	2.962300	-8.869600	28.744420	2.539537E-5	20.889098
2639.737036	-3.028700	2.960800	-8.966900	28.707967	2.529636E-5	20.894106
2640.738400	-3.007500	2.958600	-8.897600	28.764609	2.717750E-5	20.888572
2641.738570	-2.974700	2.958500	-8.799800	28.783909	2.602241E-5	20.892365
2642.742132	-3.006300	2.956600	-8.888000	28.831920	2.717750E-5	20.885728
2643.740129	-2.965700	2.955700	-8.764000	28.842320	2.655045E-5	20.873920
2644.755131	-2.997400	2.953300	-8.851000	28.808224	2.631944E-5	20.888410
2645.739516	-2.984200	2.951900	-8.807900	28.862952	2.862961E-5	20.889962
2646.757515	-3.040400	2.948300	-8.962600	28.818528	2.565939E-5	20.889306
2647.759516	-3.005600	2.949300	-8.863600	28.798939	2.612142E-5	20.874790
2648.744517	-2.999800	2.947100	-8.839500	28.800267	2.384425E-5	20.889878
2649.757515	-2.991700	2.944400	-8.808200	28.802576	2.585740E-5	20.901685
2650.741516	-2.994800	2.943400	-8.814300	28.777054	2.704549E-5	20.875031
2651.759425	-3.002800	2.941300	-8.831700	28.815665	2.869561E-5	20.897802
2652.744514	-3.009300	2.940200	-8.846400	28.832436	2.437229E-5	20.886247
2653.760490	-3.008900	2.938900	-8.842400	28.832436	2.740852E-5	20.894307
2654.759744	-2.987900	2.937900	-8.777800	28.772844	2.598941E-5	20.879798
2655.769931	-3.014800	2.934700	-8.846600	28.722218	2.641844E-5	20.899451
2656.760930	-3.004000	2.934300	-8.813800	28.697991	2.470232E-5	20.889748
2657.766148	-2.978400	2.933600	-8.736400	28.675685	2.414128E-5	20.890988
2658.745149	-3.007300	2.930600	-8.812200	28.705865	2.232614E-5	20.883929
2659.745301	-3.037800	2.927800	-8.892400	28.775481	2.457031E-5	20.894781
2660.746300	-2.973800	2.929300	-8.709800	28.788197	2.496634E-5	20.893365
2661.745776	-2.993400	2.925400	-8.756200	28.791227	2.443830E-5	20.882669
2662.748833	-2.972100	2.925400	-8.694100	28.781710	2.546137E-5	20.866444
2663.769830	-2.991000	2.922200	-8.739400	28.777422	2.496634E-5	20.858806
2664.747178	-2.974000	2.921300	-8.687100	28.816200	2.480132E-5	20.882220
2665.745500	-2.977500	2.920200	-8.693600	28.835634	2.433929E-5	20.878564
2666.767500	-2.983800	2.917500	-8.704400	28.814266	2.288718E-5	20.861307
2667.762770	-2.996400	2.916200	-8.737000	28.817070	2.506534E-5	20.897795
2668.762489	-2.978800	2.915500	-8.683200	28.844654	2.338222E-5	20.887176
2669.761538	-2.981300	2.913500	-8.685000	28.879664	2.770554E-5	20.861281
2670.762539	-2.989300	2.911600	-8.702800	28.889032	2.453730E-5	20.885416
2671.767545	-2.992200	2.909200	-8.703300	28.872372	2.407527E-5	20.876219
2672.763541	-2.991300	2.908700	-8.699600	28.789821	2.374525E-5	20.878408
2673.763860	-2.998600	2.905500	-8.711200	28.823737	2.437229E-5	20.872270
2674.782863	-3.008700	2.903800	-8.736100	28.797436	2.325021E-5	20.855260
2675.747862	-2.987700	2.903500	-8.673900	28.839844	2.433929E-5	20.860995
2676.764864	-3.019300	2.901300	-8.759100	28.938425	2.777154E-5	20.868321
2677.780399	-3.006100	2.898700	-8.712500	28.997543	2.579140E-5	20.849648
2678.747483	-3.028400	2.895800	-8.769000	29.017805	2.414128E-5	20.870536
2679.746482	-3.011200	2.894500	-8.715200	29.069203	2.684747E-5	20.862580
2680.748968	-2.981300	2.894400	-8.628300	29.079633	2.608842E-5	20.861235
2681.748450	-2.961700	2.893100	-8.568000	29.041232	2.697948E-5	20.870432
2682.748140	-2.990700	2.890100	-8.641600	29.000129	2.585740E-5	20.872640
2683.747138	-2.999400	2.887500	-8.659900	29.014543	2.466931E-5	20.861560
2684.750412	-2.971300	2.886900	-8.577200	29.061100	2.397626E-5	20.871484
2685.748281	-3.011200	2.884300	-8.684700	29.081548	2.374525E-5	20.868380
2686.748279	-2.990300	2.881300	-8.614300	29.082070	2.645145E-5	20.879336
2687.764430	-2.994400	2.880400	-8.624000	29.100480	2.711149E-5	20.839568
2688.751627	-3.017200	2.878600	-8.684500	29.104374	2.572539E-5	20.864827
2689.753684	-2.994100	2.876600	-8.611600	29.179532	2.348123E-5	20.864697
2690.765202	-3.009200	2.874900	-8.650000	29.202330	2.503234E-5	20.844998
2691.749201	-2.998600	2.872900	-8.613400	29.224806	2.556038E-5	20.850577
2692.749689	-3.022400	2.870600	-8.675200	29.226011	2.529636E-5	20.861748
2693.766907	-3.006600	2.869800	-8.627100	29.159145	2.262316E-5	20.865015
2694.774137	-3.027900	2.867300	-8.680500	29.079665	2.133607E-5	20.841354
2695.750369	-2.965000	2.867000	-8.499400	29.021654	2.414128E-5	20.850707
2696.780617	-3.011100	2.864100	-8.622800	29.053577	2.674847E-5	20.850155
2697.768049	-3.001400	2.862700	-8.590400	29.122461	2.450430E-5	20.869302
2698.753050	-3.019600	2.860200	-8.635000	29.086595	2.503234E-5	20.843595
2699.752842	-3.005600	2.858000	-8.588700	29.050857	2.532936E-5	20.844569
2700.754841	-2.945700	2.858300	-8.419100	29.031562	2.608842E-5	20.839828
2701.774259	-2.991700	2.855100	-8.540400	29.029628	2.480132E-5	20.834086
2702.759440	-2.972600	2.854600	-8.483200	29.100216	2.526336E-5	20.827923
2703.756453	-3.000300	2.850500	-8.551100	29.190065	2.460331E-5	20.862982
2704.772893	-3.000500	2.849000	-8.547800	29.239018	2.427329E-5	20.841666
2705.778894	-2.992500	2.846800	-8.518400	29.180261	2.371224E-5	20.845518
2706.756364	-2.998600	2.844000	-8.527500	29.140471	2.377825E-5	20.847148
2707.773448	-3.013600	2.842500	-8.564800	29.118097	2.506534E-5	20.842621
2708.756788	-3.006000	2.840200	-8.536900	29.094672	2.542837E-5	20.838457
2709.773398	-3.034600	2.838700	-8.613600	29.063247	2.354723E-5	20.850889
2710.773393	-3.029700	2.835100	-8.589000	29.083192	2.404227E-5	20.838743
2711.772788	-3.004000	2.833700	-8.511500	29.087272	2.582440E-5	20.860398
2712.770790	-2.959400	2.832900	-8.383100	29.137203	2.374525E-5	20.838639
2713.757782	-3.014300	2.828800	-8.525600	29.217954	2.384425E-5	20.852207
2714.776979	-2.980500	2.827200	-8.425500	29.271431	2.684747E-5	20.841140
2715.773977	-2.978900	2.825800	-8.417400	29.287698	2.542837E-5	20.850895
2716.773000	-3.012600	2.821500	-8.499400	29.226159	2.443830E-5	20.828708
2717.774999	-2.985400	2.820900	-8.420600	29.216904	2.493333E-5	20.836925
2718.758026	-3.009700	2.817900	-8.480200	29.271901	2.595641E-5	20.834502
2719.757028	-2.989400	2.815400	-8.415500	29.254287	2.377825E-5	20.845199
2720.758026	-3.028400	2.812800	-8.516700	29.237007	2.499934E-5	20.837743
2721.777026	-2.996500	2.810800	-8.421800	29.219553	2.424028E-5	20.859508
2722.775026	-3.017700	2.807200	-8.470000	29.241377	2.272217E-5	20.863483
2723.775758	-3.015900	2.805700	-8.461000	29.211522	2.569239E-5	20.827708
2724.783754	-2.989100	2.802500	-8.375900	29.177644	2.450430E-5	20.850467
2725.788822	-3.025900	2.801000	-8.474400	29.169071	2.493333E-5	20.847518
2726.776849	-3.002400	2.798000	-8.400000	29.168781	2.562638E-5	20.857657
2727.776865	-2.993600	2.795300	-8.366600	29.228647	2.199612E-5	20.854922
2728.785865	-3.017100	2.792400	-8.424100	29.226340	2.414128E-5	20.832209
2729.760121	-3.005500	2.790200	-8.385500	29.189491	2.391026E-5	20.843439
2730.785589	-3.008800	2.787700	-8.387300	29.310874	2.466931E-5	20.818303
2731.764639	-3.001900	2.786000	-8.362300	29.308657	2.493333E-5	20.848785
2732.762636	-2.969200	2.783800	-8.265200	29.312337	2.430629E-5	20.840640
2733.765420	-2.980100	2.781200	-8.287200	29.275949	2.410827E-5	20.846167
2734.764534	-3.018000	2.775400	-8.375300	29.268969	2.371224E-5	20.849090
2735.767495	-3.004500	2.774600	-8.335400	29.280602	2.328321E-5	20.861287
2736.764038	-2.968700	2.772000	-8.228300	29.263851	2.338222E-5	20.830183
2737.766349	-2.989900	2.768500	-8.276300	29.199127	2.354723E-5	20.840822
2738.765543	-3.013900	2.766100	-8.334600	29.222808	2.575839E-5	20.859469
2739.765542	-3.011200	2.763000	-8.319100	29.235222	2.361324E-5	20.823142
2740.766263	-2.981400	2.760200	-8.228400	29.294182	2.717750E-5	20.852214
2741.784229	-3.025400	2.755400	-8.334200	29.363295	2.311820E-5	20.844583
2742.766354	-3.002200	2.753700	-8.265800	29.432636	2.443830E-5	20.821538
2743.790351	-2.990200	2.751000	-8.224000	29.491430	2.622043E-5	20.851402
2744.792831	-2.992300	2.747500	-8.220900	29.440079	2.572539E-5	20.851324
2745.766370	-2.995200	2.745600	-8.222500	29.420540	2.285418E-5	20.852019
2746.767613	-3.011200	2.741500	-8.254400	29.365254	2.433929E-5	20.861729
2747.792613	-3.014600	2.737500	-8.251500	29.266719	2.562638E-5	20.859151
2748.783840	-3.008100	2.733900	-8.223100	29.204741	2.344822E-5	20.840315
2749.767935	-3.014300	2.730000	-8.227900	29.300124	2.740852E-5	20.839237
2750.793461	-3.001500	2.726600	-8.182800	29.386534	2.655045E-5	20.839555
2751.787618	-2.997100	2.724000	-8.163600	29.436657	2.760653E-5	20.840289
2752.787768	-2.977300	2.721000	-8.100500	29.470127	2.381125E-5	20.855059
2753.789997	-3.005200	2.716900	-8.163700	29.503403	2.341522E-5	20.838815
2754.795396	-2.989000	2.712200	-8.105700	29.533217	2.579140E-5	20.843264
2755.771396	-3.004700	2.709000	-8.139200	29.612965	2.711149E-5	20.853007
2756.775116	-3.007700	2.705200	-8.135100	29.553804	2.526336E-5	20.862593
2757.773214	-3.030000	2.701800	-8.185500	29.486907	2.483433E-5	20.835938
2758.776234	-2.999600	2.698100	-8.092500	29.413362	2.466931E-5	20.842413
2759.775329	-2.990800	2.694700	-8.058700	29.415114	2.651745E-5	20.870731
2760.776499	-3.005000	2.690300	-8.083200	29.485825	2.430629E-5	20.841011
2761.793524	-2.997300	2.686400	-8.051100	29.501244	2.787055E-5	20.844700
2762.776572	-3.038100	2.681500	-8.145400	29.516084	2.651745E-5	20.851597
2763.791339	-2.970500	2.679000	-7.956700	29.606548	2.361324E-5	20.863607
2764.805624	-2.964200	2.674800	-7.927800	29.656088	2.562638E-5	20.861866
2765.792624	-3.013500	2.670400	-8.046100	29.726137	2.457031E-5	20.845245
2766.792627	-3.007200	2.666800	-8.018000	29.658961	2.457031E-5	20.851487
2767.792627	-3.030400	2.660900	-8.063200	29.659735	2.437229E-5	20.867439
2768.799752	-2.995900	2.657400	-7.960000	29.703241	2.674847E-5	20.846817
2769.797269	-3.018800	2.651900	-8.004400	29.729546	2.407527E-5	20.860535
2770.799093	-3.009500	2.647000	-7.965300	29.609461	2.443830E-5	20.856586
2771.801153	-2.985200	2.644500	-7.893800	29.584681	2.552738E-5	20.852468
2772.777175	-2.998600	2.638700	-7.911600	29.614184	2.618743E-5	20.868459
2773.796174	-2.968400	2.635400	-7.821700	29.625891	2.595641E-5	20.863665
2774.803279	-2.970500	2.630100	-7.812100	29.579108	2.532936E-5	20.855859
2775.796253	-2.978100	2.623600	-7.812600	29.629415	2.595641E-5	20.874330
2776.796914	-2.997000	2.618900	-7.848400	29.622592	2.506534E-5	20.874090
2777.779405	-2.957000	2.615900	-7.734300	29.561524	2.602241E-5	20.878435
2778.801405	-3.036200	2.608200	-7.917800	29.513907	2.549438E-5	20.863153
2779.800458	-2.983300	2.603800	-7.766900	29.588380	2.572539E-5	20.879903
2780.811510	-2.982500	2.599700	-7.753300	29.627083	2.704549E-5	20.865816
2781.804543	-3.009100	2.592100	-7.799300	29.596324	2.374525E-5	20.873687
2782.801984	-2.982000	2.589400	-7.720400	29.629222	2.688048E-5	20.868920
2783.810200	-2.974700	2.581800	-7.679300	29.672382	2.549438E-5	20.866439
2784.783199	-2.996000	2.575900	-7.715900	29.677581	2.763953E-5	20.874051
2785.802828	-2.999100	2.572800	-7.713900	29.735280	2.569239E-5	20.877220
2786.800396	-2.992300	2.566000	-7.677000	29.703113	2.579140E-5	20.870395
2787.803433	-2.997800	2.559300	-7.671700	29.630736	2.905864E-5	20.860016
2788.803401	-3.018000	2.553200	-7.704800	29.598025	2.552738E-5	20.875402
2789.802125	-2.990700	2.547500	-7.617600	29.625015	2.661646E-5	20.865627
2790.785123	-3.003300	2.542400	-7.634400	29.640297	2.678147E-5	20.871077
2791.806155	-3.013100	2.535600	-7.639300	29.695086	2.536237E-5	20.865621
2792.791154	-2.971600	2.531000	-7.520300	29.732535	2.744152E-5	20.890574
2793.786048	-2.986800	2.523200	-7.535000	29.767490	2.658346E-5	20.877454
2794.803271	-2.997000	2.518000	-7.545500	29.783583	2.714450E-5	20.890834
2795.786270	-2.975700	2.513500	-7.479000	29.832180	2.400927E-5	20.882936
2796.789710	-3.013200	2.506600	-7.552000	29.868040	2.823358E-5	20.875948
2797.789711	-3.039200	2.498100	-7.591000	29.876246	2.598941E-5	20.897971
