LabVIEW Measurement	
Writer_Version	2
Reader_Version	2
Separator	Tab
Decimal_Separator	.
Multi_Headings	No
X_Columns	One
Time_Pref	Absolute
Operator	admin
Description	Clolumns are: time, Current, Voltage, Power, Battery Temp, and Chamber Temp
Date	2024/08/16
Time	13:07:17.8513970375061035156
***End_of_Header***	
	
Channels	6						
Samples	1	1	1	1	1	1	
Date	2024/09/15	2024/09/15	2024/09/15	2024/09/15	2024/09/15	2024/09/15	
Time	02:45:07.6186909675598144531	02:45:07.6266794204711914062	02:45:07.6326823234558105469	02:45:07.6022343635559082031	02:45:07.6022343635559082031	02:45:07.6022343635559082031	
X_Dimension	Time	Time	Time	Time	Time	Time	
X0	0.0000000000000000E+0	0.0000000000000000E+0	0.0000000000000000E+0	0.0000000000000000E+0	0.0000000000000000E+0	0.0000000000000000E+0	
Delta_X	1.000000	1.000000	1.000000	1.000000	1.000000	1.000000	
***End_of_Header***							
X_Value	Untitled	Untitled 1	Untitled 2	Untitled 3	Untitled 4	Untitled 5	Comment
0.000000	0.025932	4.088800	0.106250	20.848204	0.000474	20.861954
1.005065	-2.994200	3.914900	-11.721000	20.843686	0.000474	20.850798
2.002188	-2.994900	3.909600	-11.708000	20.847105	0.000472	20.872234
3.002666	-2.992200	3.906100	-11.688000	20.858808	0.000472	20.874928
4.001379	-2.991300	3.900900	-11.667000	20.850546	0.000471	20.873778
5.008302	-3.003300	3.899200	-11.710000	20.864418	0.000469	20.881486
6.002522	-3.015700	3.895000	-11.745000	20.854138	0.000470	20.864569
7.005059	-3.011100	3.894000	-11.725000	20.867044	0.000467	20.876526
8.004570	-2.997600	3.892000	-11.665000	20.874849	0.000468	20.866314
9.009645	-2.984000	3.891800	-11.611000	20.891992	0.000467	20.878717
10.007574	-2.985700	3.888400	-11.609000	20.868286	0.000468	20.867812
11.014120	-2.988300	3.886300	-11.612000	20.905964	0.000468	20.880836
12.009662	-3.023500	3.885200	-11.747000	20.906736	0.000466	20.853161
13.003659	-2.993000	3.885500	-11.628000	20.909254	0.000467	20.852360
14.005072	-2.986300	3.883500	-11.596000	20.910903	0.000466	20.873448
15.012209	-3.012700	3.882000	-11.695000	20.931936	0.000467	20.859870
16.010725	-2.999000	3.880700	-11.637000	20.935129	0.000466	20.846943
17.005119	-3.004100	3.879200	-11.652000	20.944611	0.000464	20.866857
18.006309	-2.973500	3.881500	-11.540000	20.940117	0.000463	20.851932
19.006211	-3.008800	3.877200	-11.665000	20.945781	0.000463	20.854752
20.005186	-3.000800	3.876900	-11.632000	20.959878	0.000466	20.841825
21.008043	-2.991900	3.877700	-11.601000	20.963692	0.000463	20.849432
22.005130	-2.996900	3.877800	-11.621000	20.975570	0.000463	20.842345
23.006539	-2.990000	3.875400	-11.586000	20.981661	0.000464	20.865032
24.005634	-2.989300	3.875400	-11.584000	20.996555	0.000461	20.851954
25.005308	-2.981900	3.873600	-11.550000	21.007329	0.000463	20.842816
26.004875	-2.988000	3.874600	-11.576000	20.992460	0.000462	20.853074
27.007036	-2.991100	3.872300	-11.581000	21.004761	0.000461	20.869644
28.011231	-2.999100	3.871700	-11.611000	21.019956	0.000459	20.842643
29.011693	-2.995100	3.872600	-11.598000	21.027365	0.000460	20.834881
30.012343	-3.001000	3.870600	-11.614000	21.042690	0.000460	20.872018
31.009368	-3.018200	3.869900	-11.679000	21.056380	0.000459	20.854892
32.009264	-2.999600	3.870500	-11.609000	21.082305	0.000459	20.851426
33.008296	-3.007300	3.869800	-11.636000	21.091412	0.000460	20.854845
34.010558	-3.000100	3.868600	-11.605000	21.084301	0.000459	20.845363
35.012813	-3.009200	3.869000	-11.641000	21.096777	0.000459	20.849307
36.013087	-2.993400	3.868700	-11.578000	21.109874	0.000458	20.839174
37.011220	-3.005100	3.867900	-11.623000	21.098698	0.000458	20.839849
38.010634	-3.007000	3.867600	-11.628000	21.109202	0.000457	20.825700
39.013459	-2.995400	3.866000	-11.579000	21.136742	0.000459	20.844712
40.012353	-3.010200	3.867300	-11.641000	21.143928	0.000456	20.847633
41.010841	-3.010300	3.865800	-11.636000	21.128163	0.000458	20.838976
42.019772	-3.002300	3.867600	-11.610000	21.147544	0.000457	20.838922
43.025222	-2.995300	3.865800	-11.577000	21.156378	0.000458	20.854870
44.011657	-3.013900	3.864900	-11.647000	21.163811	0.000457	20.831487
45.023425	-2.992000	3.866500	-11.567000	21.179755	0.000456	20.846013
46.016024	-3.023000	3.864600	-11.682000	21.189734	0.000454	20.841297
47.012056	-3.031300	3.864600	-11.714000	21.197792	0.000457	20.825650
48.015186	-2.999400	3.863700	-11.588000	21.201885	0.000455	20.832116
49.012648	-3.009900	3.863900	-11.629000	21.198316	0.000456	20.850830
50.010821	-2.994100	3.864900	-11.571000	21.210241	0.000459	20.823405
51.013479	-3.000100	3.863200	-11.589000	21.233567	0.000454	20.846264
52.018028	-3.007300	3.863300	-11.617000	21.240177	0.000455	20.830118
53.011680	-3.001300	3.863700	-11.595000	21.242824	0.000458	20.847938
54.019573	-2.997800	3.863800	-11.582000	21.263082	0.000454	20.827428
55.013506	-2.998800	3.862900	-11.583000	21.269965	0.000456	20.834314
56.016824	-3.004400	3.861700	-11.601000	21.279495	0.000456	20.821562
57.012818	-2.999800	3.862300	-11.585000	21.261858	0.000454	20.808660
58.016447	-3.006600	3.861600	-11.609000	21.298754	0.000454	20.821390
59.018951	-2.990500	3.861800	-11.548000	21.289326	0.000456	20.832346
60.013994	-2.994300	3.861300	-11.561000	21.301099	0.000454	20.842701
61.013916	-2.998800	3.862300	-11.582000	21.320858	0.000454	20.841606
62.015006	-3.013700	3.860800	-11.634000	21.329888	0.000454	20.834993
63.013892	-3.004100	3.860500	-11.597000	21.356654	0.000454	20.843280
64.014429	-2.987900	3.861600	-11.538000	21.339592	0.000453	20.828107
65.027590	-2.979500	3.861500	-11.504000	21.365859	0.000454	20.838739
66.017456	-2.997800	3.859500	-11.568000	21.348999	0.000456	20.839889
67.015200	-3.010300	3.859200	-11.617000	21.375988	0.000454	20.843657
68.016774	-3.015200	3.859300	-11.635000	21.376462	0.000456	20.847450
69.016322	-3.018900	3.860000	-11.652000	21.401780	0.000454	20.824892
70.015591	-3.001600	3.858700	-11.581000	21.392054	0.000454	20.836024
71.024450	-2.997900	3.859500	-11.569000	21.383524	0.000452	20.836972
72.016149	-3.000400	3.857900	-11.574000	21.428771	0.000454	20.829138
73.019077	-3.000900	3.859300	-11.580000	21.413832	0.000454	20.836003
74.020216	-2.986700	3.859600	-11.527000	21.444409	0.000455	20.839095
75.021587	-3.009400	3.857400	-11.607000	21.456730	0.000454	20.831509
76.023090	-2.998500	3.858300	-11.568000	21.438252	0.000454	20.817288
77.020009	-2.991600	3.858200	-11.541000	21.461100	0.000453	20.828768
78.020075	-3.000400	3.858600	-11.576000	21.479581	0.000455	20.819760
79.022929	-3.024300	3.857900	-11.666000	21.490853	0.000455	20.827720
80.020955	-2.990700	3.858500	-11.539000	21.480705	0.000454	20.844117
81.023663	-3.019100	3.856700	-11.642000	21.496963	0.000454	20.819135
82.022831	-3.009200	3.856900	-11.604000	21.511901	0.000452	20.814641
83.028391	-3.013900	3.856500	-11.623000	21.529710	0.000454	20.836254
84.025715	-3.015400	3.855900	-11.626000	21.523424	0.000455	20.844663
85.025042	-3.018200	3.855600	-11.635000	21.538537	0.000455	20.845087
86.023210	-3.015200	3.856000	-11.626000	21.539061	0.000456	20.827594
87.022460	-3.020500	3.855900	-11.646000	21.537514	0.000456	20.823201
88.025067	-2.987100	3.855300	-11.515000	21.538437	0.000455	20.836452
89.023398	-3.002000	3.855700	-11.574000	21.559357	0.000455	20.828463
90.024172	-2.978700	3.856600	-11.487000	21.566914	0.000455	20.822274
91.025286	-2.976800	3.855600	-11.475000	21.576940	0.000455	20.841315
92.029488	-2.986600	3.854800	-11.512000	21.582924	0.000456	20.831656
93.022366	-2.988900	3.857200	-11.528000	21.595692	0.000455	20.815984
94.027576	-3.005800	3.855400	-11.588000	21.608506	0.000456	20.815532
95.028235	-3.002100	3.854800	-11.571000	21.624243	0.000457	20.823693
96.025918	-3.016000	3.854400	-11.624000	21.637858	0.000455	20.824041
97.023869	-3.000500	3.854200	-11.563000	21.658282	0.000456	20.831204
98.028078	-3.006200	3.855400	-11.589000	21.647879	0.000458	20.824587
99.048395	-3.027000	3.852900	-11.660000	21.653368	0.000456	20.838614
100.025662	-3.008300	3.855200	-11.597000	21.657976	0.000457	20.822363
101.027147	-3.004600	3.853100	-11.576000	21.662341	0.000456	20.813455
102.026042	-2.983100	3.854900	-11.499000	21.683113	0.000457	20.799630
103.049065	-3.033400	3.853600	-11.689000	21.681591	0.000455	20.797158
104.052992	-3.020600	3.852700	-11.636000	21.719669	0.000456	20.821516
105.050573	-3.020700	3.853900	-11.640000	21.709842	0.000456	20.795086
106.048391	-2.998400	3.853100	-11.551000	21.701734	0.000457	20.815894
107.046010	-2.999900	3.851400	-11.553000	21.710265	0.000456	20.814950
108.047338	-3.002600	3.853100	-11.568000	21.734022	0.000457	20.815966
109.047866	-2.979400	3.852100	-11.476000	21.725896	0.000459	20.788393
110.044567	-2.998600	3.852600	-11.551000	21.742676	0.000458	20.826049
111.044956	-2.967000	3.852500	-11.429000	21.770053	0.000459	20.806508
112.048557	-2.983500	3.853800	-11.497000	21.793116	0.000462	20.830064
113.052181	-3.010800	3.851000	-11.593000	21.775139	0.000459	20.813495
114.058456	-2.993900	3.851300	-11.529000	21.781125	0.000460	20.828495
115.048732	-3.010800	3.853400	-11.601000	21.797405	0.000461	20.804486
116.053323	-2.984300	3.852500	-11.497000	21.812866	0.000462	20.806210
117.043989	-3.003400	3.851600	-11.567000	21.817876	0.000461	20.805535
118.050097	-2.999800	3.851200	-11.551000	21.804414	0.000461	20.810079
119.056155	-3.003700	3.849500	-11.562000	21.825460	0.000460	20.803168
120.044741	-3.001300	3.852000	-11.559000	21.809453	0.000461	20.808010
121.049227	-3.010700	3.851800	-11.595000	21.838049	0.000461	20.793009
122.057520	-3.000900	3.851300	-11.556000	21.857798	0.000461	20.800923
123.052214	-3.003600	3.849100	-11.560000	21.851242	0.000459	20.806688
124.029440	-3.000200	3.849100	-11.547000	21.875003	0.000462	20.804867
125.035108	-3.015900	3.849200	-11.608000	21.876327	0.000460	20.786278
126.058148	-2.988400	3.850500	-11.506000	21.867621	0.000462	20.812176
127.048280	-2.989700	3.849000	-11.507000	21.896693	0.000462	20.809508
128.075029	-3.014300	3.848100	-11.598000	21.886074	0.000462	20.814052
129.032999	-2.998800	3.849400	-11.542000	21.893180	0.000461	20.798405
130.053283	-2.984300	3.849000	-11.485000	21.913075	0.000462	20.797456
131.056515	-2.996900	3.848500	-11.532000	21.944338	0.000463	20.797456
132.052484	-2.998800	3.848200	-11.539000	21.953611	0.000463	20.793462
133.052978	-3.014700	3.849800	-11.605000	21.961986	0.000463	20.818441
134.035540	-3.013500	3.847200	-11.593000	21.963756	0.000462	20.803617
135.040146	-3.025500	3.846600	-11.637000	21.986068	0.000461	20.812202
136.051132	-2.986400	3.848300	-11.491000	21.987963	0.000464	20.812202
137.057871	-3.008000	3.848000	-11.574000	22.007555	0.000465	20.800046
138.064060	-2.994300	3.847100	-11.519000	21.997633	0.000462	20.806235
139.059772	-2.986700	3.846900	-11.489000	22.008901	0.000463	20.794755
140.066040	-2.984300	3.847000	-11.479000	22.057937	0.000463	20.806860
141.055776	-3.009500	3.847500	-11.577000	22.003837	0.000463	20.787316
142.054882	-2.985400	3.846900	-11.484000	22.034377	0.000468	20.788490
143.057925	-2.995200	3.847000	-11.522000	22.057984	0.000468	20.795527
144.071722	-2.993400	3.847600	-11.517000	22.042476	0.000467	20.794227
145.040959	-3.006600	3.846400	-11.564000	22.012238	0.000466	20.799518
146.041540	-3.014500	3.846100	-11.593000	22.049354	0.000466	20.794000
147.038088	-2.978200	3.846700	-11.455000	22.051324	0.000465	20.784593
148.039736	-3.006400	3.846900	-11.564000	22.059774	0.000464	20.755119
149.043266	-2.986200	3.847000	-11.487000	22.063237	0.000466	20.781345
150.041008	-2.998400	3.845500	-11.528000	22.075203	0.000468	20.780049
151.057347	-2.987100	3.845200	-11.485000	22.094022	0.000468	20.782768
152.057384	-2.996400	3.845200	-11.521000	22.093046	0.000468	20.775627
153.066226	-3.022900	3.843500	-11.617000	22.138240	0.000469	20.804751
154.063015	-3.005700	3.846300	-11.560000	22.107104	0.000469	20.797287
155.067545	-2.996100	3.844800	-11.518000	22.114858	0.000466	20.791299
156.047680	-3.002500	3.845200	-11.544000	22.116702	0.000468	20.768489
157.043069	-2.981800	3.845000	-11.464000	22.113383	0.000470	20.786029
158.043603	-2.985700	3.844400	-11.477000	22.139629	0.000467	20.772950
159.045036	-2.997300	3.845000	-11.523000	22.128061	0.000469	20.786974
160.045322	-2.984400	3.844800	-11.474000	22.134444	0.000469	20.790519
161.045415	-3.003400	3.843900	-11.544000	22.158669	0.000468	20.780160
162.046035	-2.998100	3.844700	-11.525000	22.145983	0.000471	20.785950
163.048669	-2.998300	3.842800	-11.520000	22.189779	0.000470	20.746821
164.043881	-3.011000	3.842500	-11.569000	22.215201	0.000470	20.777965
165.045105	-2.999400	3.842400	-11.524000	22.206078	0.000472	20.774046
166.048059	-3.014000	3.842200	-11.579000	22.231421	0.000471	20.787092
167.044690	-3.000200	3.842600	-11.527000	22.217339	0.000472	20.766829
168.046263	-2.995500	3.844700	-11.516000	22.229978	0.000472	20.764785
169.066104	-2.985200	3.842900	-11.470000	22.230725	0.000475	20.774542
170.066140	-2.986300	3.843200	-11.475000	22.234068	0.000473	20.775993
171.046704	-3.009900	3.840700	-11.559000	22.225146	0.000474	20.758524
172.047045	-2.989000	3.842400	-11.484000	22.239051	0.000473	20.773870
173.044977	-3.012800	3.841600	-11.573000	22.232522	0.000473	20.779660
174.048439	-3.008400	3.841200	-11.555000	22.221332	0.000475	20.774147
175.047782	-3.015700	3.841900	-11.585000	22.243841	0.000475	20.750690
176.049284	-3.001400	3.841100	-11.527000	22.231980	0.000475	20.767738
177.047098	-2.985800	3.841800	-11.469000	22.260591	0.000474	20.758927
178.047977	-2.991100	3.840900	-11.487000	22.270916	0.000478	20.763575
179.049389	-3.012800	3.840600	-11.569000	22.309846	0.000476	20.767469
180.066187	-2.977300	3.840900	-11.434000	22.301273	0.000474	20.782592
181.065045	-2.999200	3.839000	-11.512000	22.303569	0.000473	20.776356
182.069806	-2.975300	3.841000	-11.427000	22.331682	0.000474	20.752350
183.067176	-2.993400	3.840000	-11.494000	22.359695	0.000475	20.757641
184.071718	-2.985400	3.840000	-11.463000	22.353141	0.000479	20.771941
185.049515	-2.992600	3.838500	-11.487000	22.359649	0.000477	20.764233
186.068572	-3.008300	3.838900	-11.548000	22.354193	0.000478	20.771097
187.062630	-2.969200	3.839200	-11.399000	22.346067	0.000477	20.776712
188.071702	-3.005800	3.837900	-11.535000	22.379686	0.000479	20.761064
189.073956	-3.031900	3.836600	-11.632000	22.368670	0.000477	20.796501
190.077208	-2.999200	3.838400	-11.512000	22.382183	0.000478	20.766884
191.067954	-3.009300	3.838500	-11.549000	22.394993	0.000476	20.759322
192.074122	-2.994400	3.838900	-11.494000	22.357834	0.000477	20.774269
193.075672	-2.998400	3.838200	-11.508000	22.380164	0.000483	20.778612
194.050173	-3.021100	3.838000	-11.595000	22.415981	0.000479	20.768960
195.051269	-3.016800	3.837500	-11.576000	22.419618	0.000479	20.753162
196.049425	-3.003900	3.837600	-11.527000	22.432875	0.000480	20.773077
197.050056	-2.991300	3.838300	-11.481000	22.410173	0.000481	20.764567
198.085216	-3.011000	3.836200	-11.549000	22.408975	0.000484	20.765738
199.088083	-3.009000	3.836800	-11.544000	22.429661	0.000482	20.744253
200.074950	-3.008800	3.835000	-11.538000	22.444117	0.000483	20.752565
201.053287	-3.002200	3.836700	-11.518000	22.453356	0.000482	20.786475
202.067144	-2.997500	3.837600	-11.502000	22.468138	0.000482	20.756233
203.052650	-3.012800	3.836100	-11.556000	22.451965	0.000485	20.775598
204.075018	-3.009000	3.836700	-11.544000	22.483389	0.000484	20.762024
205.069138	-3.024500	3.836000	-11.601000	22.467317	0.000483	20.767739
206.075103	-2.972000	3.837000	-11.403000	22.479028	0.000483	20.768561
207.068448	-2.995800	3.835900	-11.491000	22.490814	0.000486	20.767563
208.057997	-3.005500	3.834500	-11.524000	22.482367	0.000485	20.748197
209.054899	-3.006800	3.835400	-11.532000	22.505218	0.000485	20.737891
210.076590	-2.992500	3.835100	-11.475000	22.514985	0.000486	20.766165
211.074991	-3.021500	3.833100	-11.581000	22.516581	0.000486	20.764919
212.079204	-3.015500	3.833500	-11.559000	22.549650	0.000485	20.751096
213.083492	-2.997800	3.835300	-11.496000	22.544840	0.000486	20.750547
214.073698	-3.007700	3.834000	-11.530000	22.564674	0.000486	20.770411
215.062957	-3.011000	3.833400	-11.541000	22.585604	0.000487	20.755339
216.054720	-2.989800	3.833700	-11.461000	22.590066	0.000488	20.763601
217.058768	-3.028000	3.833700	-11.607000	22.614604	0.000484	20.769212
218.055908	-2.999900	3.833600	-11.498000	22.625890	0.000488	20.769136
219.057693	-2.996300	3.833600	-11.485000	22.623577	0.000487	20.776303
220.057568	-2.993000	3.833500	-11.471000	22.621433	0.000488	20.777948
221.060046	-3.004100	3.832300	-11.512000	22.641114	0.000489	20.748822
222.058637	-2.991400	3.832100	-11.462000	22.649137	0.000487	20.773928
223.059166	-3.008100	3.831500	-11.524000	22.640566	0.000489	20.775300
224.059503	-3.016900	3.831300	-11.558000	22.650389	0.000488	20.745784
225.075707	-2.998800	3.831200	-11.488000	22.661846	0.000489	20.761528
226.077536	-2.986100	3.832600	-11.443000	22.657859	0.000489	20.770336
227.078658	-3.032400	3.830600	-11.614000	22.661294	0.000490	20.756707
228.080532	-3.003600	3.832100	-11.510000	22.643456	0.000489	20.781989
229.076272	-2.984300	3.832300	-11.435000	22.673803	0.000491	20.777772
230.061026	-2.975500	3.832200	-11.401000	22.654000	0.000490	20.756513
231.061617	-2.994000	3.830700	-11.467000	22.654319	0.000492	20.748772
232.058690	-2.972100	3.831200	-11.386000	22.681075	0.000492	20.772254
233.060392	-2.991200	3.830800	-11.458000	22.713641	0.000491	20.764096
234.066511	-2.999600	3.830200	-11.488000	22.688151	0.000490	20.776496
235.062366	-2.988900	3.828800	-11.443000	22.726045	0.000493	20.764668
236.083649	-2.992600	3.829600	-11.459000	22.755565	0.000493	20.752986
237.081776	-2.957300	3.830800	-11.328000	22.757982	0.000492	20.770580
238.062892	-3.009600	3.830200	-11.526000	22.778113	0.000494	20.782212
239.083437	-2.991600	3.829100	-11.455000	22.773903	0.000493	20.768037
240.083334	-3.008500	3.828600	-11.518000	22.774871	0.000493	20.755730
241.088610	-3.008000	3.827400	-11.512000	22.777890	0.000495	20.779618
242.081050	-2.994600	3.828300	-11.463000	22.773874	0.000494	20.762792
243.063996	-2.996700	3.828400	-11.472000	22.753894	0.000493	20.759373
244.089447	-2.974300	3.829500	-11.389000	22.784488	0.000494	20.783383
245.062309	-3.000000	3.827100	-11.480000	22.790964	0.000495	20.756204
246.062495	-2.999100	3.828500	-11.481000	22.807233	0.000497	20.773450
247.065570	-3.011000	3.826200	-11.519000	22.787353	0.000496	20.765389
248.065374	-3.005800	3.826600	-11.501000	22.792782	0.000497	20.777466
249.066848	-2.986500	3.828100	-11.431000	22.803765	0.000501	20.774244
250.065774	-2.995600	3.827500	-11.464000	22.795124	0.000499	20.777441
251.067862	-3.015800	3.825900	-11.537000	22.779601	0.000498	20.770900
252.087430	-2.990500	3.825900	-11.441000	22.814006	0.000498	20.772175
253.097205	-2.993200	3.825900	-11.451000	22.837844	0.000498	20.771399
254.085070	-2.985400	3.825700	-11.420000	22.832663	0.000498	20.805563
255.090024	-2.996200	3.826000	-11.462000	22.854481	0.000499	20.789489
256.098387	-3.007600	3.824700	-11.502000	22.824114	0.000497	20.789413
257.090571	-3.029900	3.825300	-11.590000	22.829497	0.000498	20.783900
258.088679	-2.999900	3.824400	-11.472000	22.845991	0.000500	20.791889
259.094358	-2.986000	3.825600	-11.422000	22.865195	0.000500	20.781730
260.094232	-3.002600	3.825000	-11.484000	22.896977	0.000501	20.787492
261.100224	-3.002200	3.825300	-11.483000	22.855801	0.000499	20.782750
262.070059	-3.010900	3.823600	-11.512000	22.894284	0.000500	20.783846
263.073231	-2.984300	3.823700	-11.410000	22.909902	0.000503	20.784794
264.071589	-2.989900	3.824200	-11.433000	22.920218	0.000502	20.778533
265.096267	-2.995900	3.823900	-11.455000	22.920763	0.000500	20.795674
266.073638	-2.976300	3.822900	-11.377000	22.911247	0.000501	20.797995
267.075719	-3.002800	3.823100	-11.478000	22.891419	0.000502	20.794726
268.104990	-3.014300	3.822200	-11.520000	22.917027	0.000503	20.775810
269.093330	-2.965900	3.822900	-11.337000	22.936925	0.000503	20.778676
270.097528	-2.990000	3.822200	-11.427000	22.947911	0.000504	20.792054
271.094195	-3.005400	3.823000	-11.488000	22.970530	0.000504	20.792431
272.104027	-2.990300	3.823000	-11.431000	22.963256	0.000504	20.793677
273.091952	-2.996400	3.822300	-11.451000	22.969286	0.000505	20.795452
274.075757	-3.002300	3.821700	-11.472000	22.946742	0.000504	20.795624
275.077267	-2.997700	3.821700	-11.455000	22.979572	0.000504	20.790110
276.076035	-2.987200	3.821600	-11.416000	22.992124	0.000505	20.798419
277.080194	-3.014400	3.820600	-11.516000	22.989880	0.000505	20.796644
278.080486	-3.002900	3.820600	-11.472000	23.033320	0.000505	20.802711
279.076136	-2.985900	3.820300	-11.406000	23.046420	0.000505	20.787387
280.075860	-2.979700	3.821300	-11.386000	23.061090	0.000507	20.795922
281.080230	-2.974300	3.821400	-11.365000	23.064649	0.000504	20.790480
282.094993	-3.000500	3.820300	-11.462000	23.050331	0.000506	20.804583
283.096154	-3.009400	3.819000	-11.492000	23.071371	0.000506	20.801483
284.091656	-3.017200	3.818400	-11.520000	23.092296	0.000508	20.804906
285.094705	-2.990400	3.819600	-11.420000	23.044079	0.000509	20.802111
286.093420	-2.990000	3.819200	-11.419000	23.087288	0.000508	20.809371
287.099751	-3.007400	3.818700	-11.484000	23.087836	0.000508	20.808498
288.098828	-3.003300	3.817200	-11.463000	23.085098	0.000507	20.801960
289.111994	-3.010200	3.818200	-11.492000	23.077426	0.000507	20.780049
290.081145	-2.992800	3.819000	-11.429000	23.078821	0.000512	20.786188
291.084423	-2.997900	3.817100	-11.442000	23.106840	0.000509	20.807625
292.080542	-3.000100	3.817100	-11.450000	23.110944	0.000510	20.814109
293.085211	-3.013400	3.816700	-11.501000	23.149297	0.000509	20.809392
294.081300	-2.992200	3.818000	-11.423000	23.152738	0.000509	20.791504
295.082414	-3.002200	3.816500	-11.458000	23.146910	0.000512	20.807000
296.084420	-3.002900	3.816400	-11.459000	23.151491	0.000509	20.798314
297.086423	-3.023500	3.814800	-11.533000	23.155423	0.000510	20.813634
298.099852	-3.028700	3.816200	-11.557000	23.184910	0.000513	20.822794
299.102699	-2.998500	3.817200	-11.444000	23.171016	0.000511	20.807449
300.084695	-2.994500	3.816300	-11.427000	23.169525	0.000512	20.802636
301.101300	-3.008700	3.815900	-11.480000	23.160829	0.000513	20.789180
302.102554	-3.006000	3.814400	-11.465000	23.173156	0.000511	20.795369
303.102795	-2.997800	3.816500	-11.440000	23.201220	0.000514	20.808318
304.103648	-3.017700	3.814200	-11.510000	23.185387	0.000515	20.810944
305.104472	-3.000400	3.815500	-11.447000	23.173454	0.000514	20.811788
306.117157	-2.999100	3.813200	-11.436000	23.199280	0.000516	20.820599
307.083722	-3.004000	3.814400	-11.457000	23.197015	0.000513	20.815010
308.086010	-3.029100	3.812800	-11.548000	23.194502	0.000518	20.825294
309.105391	-2.998400	3.815400	-11.439000	23.204783	0.000515	20.833699
310.119391	-3.003500	3.813200	-11.452000	23.202643	0.000515	20.835348
311.087603	-3.019400	3.811800	-11.508000	23.221321	0.000516	20.826566
312.088985	-2.986500	3.814000	-11.389000	23.219852	0.000517	20.824619
313.087066	-3.004000	3.814300	-11.457000	23.234569	0.000517	20.821824
314.087008	-3.000000	3.813700	-11.439000	23.221597	0.000517	20.821627
315.088441	-2.998800	3.812400	-11.432000	23.223390	0.000518	20.839069
316.089894	-3.016200	3.812500	-11.499000	23.219332	0.000514	20.819831
317.088443	-3.004400	3.812800	-11.453000	23.240322	0.000517	20.821900
318.089111	-3.002800	3.811400	-11.444000	23.252975	0.000518	20.830312
319.113790	-3.001600	3.811800	-11.441000	23.280642	0.000516	20.817737
320.110928	-2.993600	3.811800	-11.410000	23.299190	0.000520	20.821627
321.095419	-3.006700	3.810900	-11.458000	23.330067	0.000517	20.829813
322.099062	-3.008300	3.809500	-11.459000	23.347948	0.000519	20.835406
323.091560	-2.995300	3.809600	-11.410000	23.312240	0.000519	20.844188
324.093598	-2.991600	3.810200	-11.397000	23.329770	0.000520	20.836153
325.095015	-3.007200	3.810700	-11.459000	23.274094	0.000518	20.833933
326.094738	-3.005300	3.809100	-11.446000	23.318340	0.000522	20.814267
327.120514	-3.010200	3.809400	-11.466000	23.312169	0.000520	20.839849
328.115889	-3.002600	3.808300	-11.434000	23.337168	0.000521	20.836455
329.112643	-2.991300	3.808900	-11.393000	23.362266	0.000520	20.838376
330.117341	-3.003400	3.809500	-11.440000	23.377878	0.000521	20.841695
331.116739	-2.992700	3.809600	-11.399000	23.397077	0.000518	20.840075
332.095398	-3.008800	3.808100	-11.457000	23.412789	0.000522	20.849659
333.097119	-3.007100	3.809300	-11.454000	23.369936	0.000521	20.849382
334.099912	-3.002500	3.808700	-11.435000	23.358134	0.000520	20.841347
335.096575	-3.005400	3.807500	-11.442000	23.370560	0.000520	20.829619
336.095154	-3.003600	3.807200	-11.435000	23.377556	0.000523	20.842794
337.101779	-3.004400	3.807500	-11.438000	23.388737	0.000523	20.837881
338.095053	-3.001700	3.807600	-11.429000	23.385652	0.000524	20.842848
339.095150	-2.996200	3.807800	-11.407000	23.394393	0.000524	20.836437
340.112567	-3.006200	3.805600	-11.440000	23.416355	0.000523	20.819095
341.096292	-2.993400	3.805100	-11.390000	23.408836	0.000523	20.833369
342.098400	-2.989100	3.806600	-11.377000	23.426762	0.000524	20.857500
343.097588	-2.981600	3.807000	-11.349000	23.439312	0.000524	20.828829
344.098501	-2.987300	3.805300	-11.365000	23.462864	0.000523	20.846746
345.095857	-3.027400	3.804300	-11.516000	23.451071	0.000524	20.849623
346.103672	-2.984300	3.804400	-11.352000	23.445587	0.000524	20.860248
347.100564	-3.009300	3.804700	-11.449000	23.443201	0.000526	20.851218
348.098990	-3.006900	3.805500	-11.442000	23.465237	0.000525	20.860977
349.100899	-2.982600	3.805100	-11.348000	23.480524	0.000527	20.844059
350.105213	-2.996400	3.803900	-11.397000	23.485481	0.000525	20.857087
351.101023	-3.001200	3.803200	-11.413000	23.505695	0.000527	20.831358
352.101599	-2.989800	3.803400	-11.370000	23.532460	0.000528	20.838747
353.123365	-2.989800	3.803900	-11.372000	23.502363	0.000528	20.853147
354.121551	-3.017500	3.802400	-11.472000	23.555562	0.000525	20.868542
355.105443	-2.998800	3.802000	-11.400000	23.531120	0.000526	20.855421
356.107289	-2.986700	3.804000	-11.361000	23.538391	0.000526	20.869346
357.105444	-3.010500	3.802100	-11.445000	23.529873	0.000527	20.858438
358.108387	-2.985800	3.801500	-11.350000	23.537298	0.000527	20.877733
359.108331	-3.011800	3.802000	-11.450000	23.517457	0.000528	20.876336
360.110975	-3.000000	3.801700	-11.404000	23.513748	0.000524	20.873093
361.131802	-3.005300	3.801100	-11.422000	23.498561	0.000527	20.880628
362.133471	-3.005200	3.801400	-11.423000	23.535678	0.000529	20.852404
363.151227	-2.997000	3.799700	-11.388000	23.539939	0.000527	20.876114
364.131194	-2.971600	3.801000	-11.294000	23.578030	0.000527	20.874943
365.125409	-3.000900	3.799300	-11.400000	23.607954	0.000529	20.863689
366.116003	-2.974300	3.802300	-11.307000	23.616145	0.000530	20.870478
367.130220	-2.988800	3.800200	-11.357000	23.576167	0.000528	20.882083
368.128394	-2.992200	3.800900	-11.372000	23.562547	0.000529	20.883603
369.139966	-2.985400	3.800700	-11.345000	23.578012	0.000531	20.873977
370.116550	-3.018800	3.797800	-11.464000	23.538377	0.000529	20.875496
371.117323	-3.009500	3.799000	-11.432000	23.534823	0.000530	20.883786
372.133475	-3.001600	3.798800	-11.401000	23.570344	0.000530	20.876721
373.135487	-3.004000	3.798400	-11.410000	23.605793	0.000529	20.894238
374.133249	-2.978300	3.799300	-11.315000	23.594714	0.000532	20.868434
375.150146	-3.006700	3.797800	-11.418000	23.632928	0.000533	20.877820
376.134369	-2.996200	3.798000	-11.378000	23.621803	0.000530	20.881839
377.132189	-2.997200	3.797200	-11.380000	23.600447	0.000532	20.886035
378.138798	-3.015100	3.797600	-11.450000	23.617973	0.000532	20.894120
379.119728	-2.978900	3.798600	-11.316000	23.630614	0.000532	20.871233
380.138792	-2.999000	3.795100	-11.381000	23.636519	0.000533	20.882368
381.119780	-3.028400	3.795700	-11.494000	23.669003	0.000532	20.894070
382.119509	-3.001500	3.795800	-11.392000	23.691632	0.000531	20.886412
383.118349	-2.990000	3.796400	-11.350000	23.695663	0.000533	20.888556
384.118224	-3.005300	3.797500	-11.412000	23.700941	0.000534	20.874882
385.117732	-3.000600	3.795000	-11.387000	23.698007	0.000536	20.907973
386.118618	-3.000400	3.794400	-11.383000	23.712865	0.000534	20.877353
387.117202	-2.998400	3.795100	-11.378000	23.731392	0.000531	20.891186
388.122263	-3.020400	3.794700	-11.461000	23.743215	0.000535	20.887867
389.123258	-2.993500	3.795600	-11.361000	23.747346	0.000536	20.889164
390.139275	-3.001600	3.793900	-11.387000	23.722979	0.000534	20.875166
391.121131	-3.004700	3.793900	-11.398000	23.726616	0.000535	20.891139
392.122396	-3.004000	3.794800	-11.399000	23.721686	0.000533	20.878611
393.119684	-3.003500	3.794200	-11.395000	23.740703	0.000535	20.910003
394.143028	-2.977300	3.794100	-11.295000	23.757084	0.000535	20.917416
395.142021	-2.979700	3.793800	-11.303000	23.763035	0.000536	20.896358
396.142845	-2.994400	3.792800	-11.356000	23.766893	0.000536	20.890744
397.145200	-2.982300	3.793100	-11.312000	23.759226	0.000534	20.911979
398.137267	-3.009100	3.791600	-11.408000	23.751864	0.000537	20.888478
399.145166	-3.013700	3.792400	-11.426000	23.761849	0.000535	20.916505
400.144735	-2.991500	3.791600	-11.342000	23.784645	0.000537	20.915179
401.141141	-3.018700	3.791000	-11.443000	23.803364	0.000537	20.902181
402.141992	-2.994300	3.792300	-11.354000	23.815910	0.000536	20.923767
403.137650	-2.994700	3.791000	-11.352000	23.815613	0.000538	20.910194
404.136786	-3.003500	3.790600	-11.383000	23.811056	0.000535	20.897091
405.145207	-2.998000	3.791100	-11.365000	23.791968	0.000538	20.909246
406.124556	-2.982400	3.790100	-11.302000	23.800509	0.000536	20.926343
407.145884	-2.991000	3.790200	-11.336000	23.809168	0.000536	20.915585
408.125014	-3.009600	3.790100	-11.406000	23.817111	0.000536	20.913592
409.123912	-3.002600	3.789200	-11.377000	23.812830	0.000537	20.922101
410.132618	-3.003000	3.787900	-11.375000	23.850786	0.000538	20.927442
411.129022	-2.996200	3.788800	-11.351000	23.815069	0.000537	20.927664
412.145512	-2.991200	3.789600	-11.334000	23.790754	0.000536	20.910399
413.142168	-2.998700	3.789400	-11.362000	23.797601	0.000536	20.908729
414.151327	-3.008200	3.789300	-11.398000	23.819479	0.000538	20.920233
415.146908	-3.008700	3.787800	-11.395000	23.793893	0.000537	20.928717
416.148469	-3.010600	3.788000	-11.403000	23.802003	0.000539	20.925470
417.157270	-2.983600	3.788600	-11.302000	23.832469	0.000539	20.924723
418.144622	-2.989500	3.787300	-11.321000	23.859749	0.000537	20.923628
419.159532	-3.006500	3.787300	-11.386000	23.879409	0.000539	20.915367
420.144979	-2.987600	3.787500	-11.314000	23.849522	0.000540	20.919063
421.145869	-2.980200	3.788700	-11.290000	23.892105	0.000539	20.928570
422.130432	-3.009800	3.786500	-11.396000	23.873165	0.000541	20.930441
423.128503	-3.008400	3.786400	-11.391000	23.880158	0.000539	20.941245
424.130046	-2.976300	3.787100	-11.270000	23.866842	0.000540	20.941169
425.132163	-3.009100	3.786100	-11.391000	23.861394	0.000539	20.922906
426.128279	-2.992700	3.785700	-11.329000	23.857435	0.000540	20.948331
427.128276	-3.009400	3.784000	-11.387000	23.882371	0.000540	20.905062
428.135096	-2.992500	3.783800	-11.322000	23.896256	0.000542	20.916139
429.129349	-2.986300	3.785500	-11.303000	23.917961	0.000539	20.924152
430.145956	-2.985500	3.785200	-11.300000	23.912462	0.000539	20.910105
431.157208	-2.995400	3.785000	-11.337000	23.922442	0.000540	20.920111
432.149355	-2.983300	3.784400	-11.290000	23.931025	0.000541	20.920657
433.151535	-2.999100	3.784200	-11.349000	23.960169	0.000540	20.910055
434.130098	-3.026300	3.783500	-11.449000	23.994212	0.000540	20.905314
435.131226	-2.993300	3.782600	-11.322000	24.006175	0.000540	20.901664
436.153159	-3.013300	3.782100	-11.395000	24.032258	0.000540	20.916915
437.133163	-2.986800	3.782600	-11.296000	24.051195	0.000541	20.914569
438.130057	-2.995000	3.782600	-11.328000	24.032309	0.000542	20.929292
439.130314	-3.000000	3.780600	-11.340000	23.978233	0.000541	20.919634
440.131793	-3.008300	3.782900	-11.379000	23.961232	0.000541	20.913017
441.131321	-3.019500	3.781100	-11.416000	23.957203	0.000542	20.908029
442.135951	-3.007800	3.781500	-11.373000	23.960186	0.000542	20.886367
443.136256	-2.994400	3.780200	-11.319000	23.970338	0.000542	20.906976
444.135274	-3.024100	3.780200	-11.430000	23.979121	0.000542	20.889233
445.134586	-3.004600	3.781400	-11.361000	23.999577	0.000542	20.906427
446.135314	-3.017200	3.780100	-11.404000	23.992360	0.000544	20.902508
447.136592	-2.993400	3.781400	-11.319000	23.951396	0.000543	20.892250
448.136910	-2.990400	3.779200	-11.300000	23.968045	0.000540	20.899462
449.136330	-3.002700	3.780000	-11.349000	23.953216	0.000544	20.880799
450.136882	-2.995600	3.779300	-11.321000	23.985514	0.000543	20.894696
451.135845	-2.981000	3.780400	-11.268000	23.953534	0.000542	20.883015
452.136223	-2.987500	3.779900	-11.292000	24.005197	0.000543	20.892623
453.141750	-2.999900	3.777900	-11.332000	24.062975	0.000543	20.885608
454.140054	-3.007100	3.779200	-11.364000	24.040285	0.000544	20.879449
455.140048	-3.024900	3.776800	-11.424000	24.049762	0.000542	20.888952
456.145429	-3.009200	3.778300	-11.369000	24.067477	0.000545	20.877796
457.139769	-3.007200	3.777900	-11.360000	24.067702	0.000545	20.882764
458.141575	-2.988000	3.778400	-11.289000	24.049586	0.000543	20.885457
459.138002	-2.977900	3.777600	-11.248000	24.086384	0.000543	20.862620
460.139676	-2.988400	3.777600	-11.288000	24.107064	0.000543	20.894738
461.139660	-2.986900	3.777500	-11.283000	24.096216	0.000543	20.875325
462.141837	-3.008200	3.777200	-11.361000	24.105395	0.000544	20.884056
463.138986	-3.013800	3.774500	-11.374000	24.151428	0.000544	20.870009
464.141888	-2.996600	3.775700	-11.313000	24.133087	0.000543	20.865364
465.139429	-3.000000	3.774600	-11.323000	24.107483	0.000545	20.888995
466.139668	-3.005200	3.775400	-11.346000	24.107039	0.000542	20.885705
467.146348	-3.000700	3.776000	-11.330000	24.133686	0.000544	20.897256
468.143673	-2.991200	3.774300	-11.289000	24.173844	0.000544	20.900076
469.140990	-2.977000	3.775900	-11.240000	24.204969	0.000543	20.848321
470.146206	-2.974200	3.774400	-11.225000	24.155830	0.000545	20.888647
471.141967	-2.995600	3.773700	-11.304000	24.135648	0.000545	20.870777
472.142598	-3.009700	3.771800	-11.351000	24.153663	0.000546	20.897852
473.142607	-3.029300	3.771600	-11.423000	24.117089	0.000546	20.877293
474.142621	-3.016100	3.772500	-11.377000	24.103898	0.000543	20.885874
475.142955	-2.983600	3.772700	-11.255000	24.112390	0.000544	20.871632
476.142441	-3.009700	3.773300	-11.355000	24.094099	0.000546	20.850918
477.166811	-2.982900	3.773000	-11.254000	24.055352	0.000546	20.885550
478.159161	-3.000400	3.772400	-11.317000	24.082677	0.000543	20.870282
479.166371	-2.993900	3.772600	-11.294000	24.077523	0.000545	20.858475
480.162263	-3.038700	3.771100	-11.458000	24.082226	0.000547	20.873148
481.162914	-2.995400	3.770500	-11.293000	24.101384	0.000547	20.872447
482.167029	-3.000600	3.771900	-11.317000	24.130594	0.000545	20.850063
483.173470	-2.997200	3.770300	-11.299000	24.149755	0.000548	20.884451
484.162995	-3.002800	3.770100	-11.321000	24.155475	0.000545	20.847516
485.149808	-3.015400	3.770000	-11.367000	24.181354	0.000547	20.872523
486.148140	-3.016700	3.770100	-11.372000	24.200660	0.000547	20.840681
487.147684	-3.006800	3.770700	-11.337000	24.199862	0.000548	20.851733
488.149528	-2.997600	3.769800	-11.300000	24.183513	0.000546	20.868051
489.147437	-3.001400	3.768600	-11.310000	24.200585	0.000546	20.863364
490.149895	-2.988800	3.769000	-11.264000	24.219469	0.000547	20.866183
491.149343	-2.996700	3.768000	-11.291000	24.247903	0.000546	20.843971
492.147148	-3.008000	3.769300	-11.337000	24.225489	0.000546	20.862739
493.149860	-2.997800	3.768600	-11.297000	24.273157	0.000548	20.876413
494.176950	-2.990000	3.767200	-11.262000	24.249367	0.000549	20.871517
495.149544	-2.986100	3.767300	-11.249000	24.226581	0.000545	20.857670
496.149719	-2.993300	3.768100	-11.278000	24.237081	0.000548	20.862038
497.166755	-2.999400	3.765800	-11.294000	24.259742	0.000547	20.846363
498.150074	-3.007400	3.766100	-11.326000	24.259097	0.000547	20.854725
499.151304	-3.004000	3.766800	-11.314000	24.235834	0.000548	20.835659
500.174756	-3.012600	3.765500	-11.343000	24.248028	0.000547	20.843622
501.168007	-3.024300	3.767000	-11.391000	24.278850	0.000546	20.850831
502.168571	-3.005000	3.766100	-11.316000	24.318853	0.000548	20.844491
503.178769	-3.020100	3.765300	-11.371000	24.297135	0.000546	20.854473
504.175862	-3.003800	3.764300	-11.306000	24.292161	0.000545	20.853751
505.151663	-3.020900	3.765700	-11.374000	24.287033	0.000547	20.858090
506.175374	-2.995500	3.765300	-11.278000	24.259047	0.000545	20.848985
507.173391	-2.993400	3.765100	-11.270000	24.242227	0.000548	20.862458
508.166730	-2.994800	3.764200	-11.272000	24.221553	0.000548	20.855946
509.173648	-2.997300	3.765300	-11.285000	24.204188	0.000547	20.854649
510.166219	-3.010300	3.763000	-11.327000	24.221126	0.000547	20.846036
511.169011	-3.030000	3.762200	-11.398000	24.249861	0.000548	20.848306
512.168274	-3.000600	3.763400	-11.292000	24.249117	0.000549	20.850404
513.175092	-2.993400	3.763000	-11.263000	24.237048	0.000546	20.842092
514.165869	-3.005100	3.762300	-11.305000	24.287949	0.000550	20.841941
515.176180	-3.012100	3.762500	-11.332000	24.297030	0.000548	20.846309
516.170020	-3.009400	3.762400	-11.322000	24.288196	0.000552	20.842189
517.151718	-2.993300	3.761500	-11.259000	24.283072	0.000548	20.840842
518.152884	-3.002100	3.761400	-11.291000	24.310316	0.000551	20.839247
519.152690	-2.990800	3.761400	-11.248000	24.322974	0.000551	20.839617
520.158522	-2.996200	3.761200	-11.268000	24.339220	0.000546	20.852595
521.157887	-3.005100	3.760900	-11.301000	24.332477	0.000549	20.850572
522.170531	-3.007600	3.760200	-11.308000	24.328800	0.000550	20.853995
523.154872	-2.989600	3.759900	-11.240000	24.321037	0.000548	20.853320
524.153985	-3.006500	3.759600	-11.302000	24.315017	0.000550	20.850127
525.153203	-2.997300	3.760100	-11.270000	24.324149	0.000547	20.840795
526.171392	-2.977500	3.761100	-11.198000	24.323153	0.000546	20.829366
527.176346	-2.992800	3.759200	-11.250000	24.361142	0.000548	20.827645
528.174590	-3.029200	3.757700	-11.382000	24.358456	0.000550	20.848184
529.173654	-2.998500	3.759500	-11.272000	24.367959	0.000550	20.842545
530.171196	-2.995000	3.759000	-11.257000	24.406817	0.000549	20.860188
531.170630	-3.000300	3.757500	-11.273000	24.444158	0.000550	20.840278
532.173075	-2.975700	3.759000	-11.184000	24.443911	0.000549	20.839082
533.171791	-2.979500	3.758400	-11.198000	24.450302	0.000550	20.828899
534.178267	-2.994400	3.757600	-11.250000	24.449554	0.000548	20.843795
535.179605	-3.022200	3.757200	-11.354000	24.416800	0.000549	20.832272
536.182632	-3.019100	3.757200	-11.342000	24.436897	0.000550	20.844847
537.178756	-3.030600	3.756300	-11.383000	24.446550	0.000550	20.835092
538.176013	-3.020100	3.755600	-11.342000	24.437695	0.000552	20.833795
539.176004	-2.994800	3.756800	-11.250000	24.407572	0.000551	20.838188
540.161590	-3.000100	3.756600	-11.269000	24.434563	0.000552	20.842031
541.160124	-3.013600	3.755500	-11.317000	24.457896	0.000547	20.826561
542.158617	-2.999100	3.755400	-11.262000	24.418372	0.000550	20.829108
543.160067	-3.003600	3.755600	-11.279000	24.402055	0.000550	20.832179
544.159689	-3.000300	3.755900	-11.267000	24.416059	0.000548	20.819201
545.157662	-2.994400	3.755000	-11.243000	24.421408	0.000549	20.831680
546.162503	-2.973500	3.756000	-11.168000	24.408375	0.000548	20.829510
547.161021	-3.008400	3.754100	-11.293000	24.431831	0.000549	20.834075
548.175634	-3.002400	3.753900	-11.270000	24.471359	0.000547	20.820627
549.181217	-3.005500	3.753500	-11.281000	24.421508	0.000550	20.818030
550.176091	-3.007300	3.754000	-11.288000	24.381610	0.000549	20.854341
551.186045	-3.009800	3.753100	-11.294000	24.438204	0.000549	20.830513
552.195905	-3.022600	3.753200	-11.343000	24.436833	0.000549	20.831981
553.175651	-2.991600	3.752500	-11.225000	24.426184	0.000548	20.818928
554.178961	-3.006800	3.751500	-11.279000	24.435812	0.000548	20.833803
555.178507	-2.992400	3.753700	-11.232000	24.463425	0.000550	20.837323
556.195710	-3.007800	3.752800	-11.286000	24.476285	0.000549	20.826518
557.182744	-3.006500	3.752400	-11.281000	24.475340	0.000547	20.822725
558.164665	-2.996800	3.752100	-11.243000	24.504219	0.000549	20.833206
559.160817	-2.995400	3.751700	-11.237000	24.510835	0.000549	20.813292
560.162991	-3.009600	3.750100	-11.286000	24.519818	0.000550	20.822305
561.167590	-3.034000	3.750000	-11.376000	24.555781	0.000548	20.809550
562.165379	-2.971500	3.751000	-11.144000	24.562175	0.000549	20.812646
563.166400	-3.006300	3.749100	-11.270000	24.545810	0.000550	20.835581
564.161377	-3.000500	3.748700	-11.246000	24.563571	0.000548	20.821633
565.188391	-2.992400	3.750100	-11.220000	24.573019	0.000549	20.829216
566.189363	-2.993800	3.750100	-11.226000	24.575925	0.000549	20.832607
567.162843	-2.958800	3.751500	-11.099000	24.490714	0.000547	20.835778
568.163189	-3.007700	3.749700	-11.277000	24.457009	0.000549	20.824722
569.169421	-3.026800	3.748600	-11.345000	24.440843	0.000547	20.833634
570.162658	-3.001300	3.749000	-11.252000	24.428430	0.000548	20.826870
571.161941	-2.983200	3.749300	-11.183000	24.466812	0.000549	20.816066
572.167802	-2.985500	3.748000	-11.188000	24.518698	0.000548	20.813120
573.162598	-2.995900	3.747800	-11.227000	24.541632	0.000549	20.819061
574.185425	-3.019600	3.747500	-11.315000	24.553074	0.000550	20.821533
575.162398	-2.996700	3.746300	-11.225000	24.538722	0.000547	20.804287
576.163978	-2.990800	3.746200	-11.202000	24.529145	0.000549	20.797998
577.179263	-3.003100	3.747200	-11.253000	24.516510	0.000549	20.826572
578.179845	-3.007500	3.745300	-11.263000	24.535531	0.000550	20.812466
579.165082	-3.001200	3.746900	-11.245000	24.543845	0.000548	20.817014
580.183131	-3.003700	3.744200	-11.245000	24.577497	0.000548	20.814270
581.189486	-2.999800	3.746700	-11.239000	24.550854	0.000548	20.797969
582.183112	-3.006800	3.745300	-11.259000	24.521701	0.000546	20.812815
583.180447	-3.009200	3.744800	-11.267000	24.479322	0.000547	20.820556
584.183712	-2.998000	3.743800	-11.223000	24.505938	0.000549	20.819284
585.168303	-2.998300	3.743600	-11.224000	24.511555	0.000547	20.810695
586.192949	-3.004600	3.744700	-11.250000	24.530233	0.000546	20.820900
587.188058	-3.002900	3.743900	-11.241000	24.543615	0.000547	20.825792
588.185296	-3.000900	3.743600	-11.233000	24.537171	0.000547	20.809370
589.183137	-3.009300	3.743500	-11.264000	24.514934	0.000546	20.813138
590.188060	-2.999200	3.743300	-11.226000	24.536498	0.000547	20.798263
591.187070	-3.016200	3.741200	-11.282000	24.561967	0.000547	20.797264
592.172881	-2.991200	3.743300	-11.196000	24.579573	0.000546	20.815878
593.166144	-3.015400	3.742200	-11.283000	24.569155	0.000546	20.804951
594.165214	-2.994600	3.742700	-11.207000	24.589074	0.000545	20.804549
595.167577	-3.000400	3.742000	-11.226000	24.588627	0.000545	20.814531
596.174132	-3.001700	3.742400	-11.233000	24.574722	0.000547	20.795838
597.167693	-2.992000	3.741800	-11.194000	24.613200	0.000545	20.795565
598.172648	-3.002900	3.740900	-11.233000	24.636823	0.000544	20.806467
599.164415	-2.993400	3.742500	-11.202000	24.656795	0.000545	20.789049
600.166133	-3.005200	3.740100	-11.239000	24.634707	0.000547	20.792490
601.166749	-3.010600	3.739200	-11.256000	24.603147	0.000547	20.806815
602.167313	-2.979600	3.742100	-11.148000	24.606283	0.000544	20.796212
603.166274	-2.996400	3.739600	-11.204000	24.591555	0.000546	20.798977
604.186819	-2.975800	3.740100	-11.129000	24.570415	0.000546	20.800526
605.188342	-2.994700	3.739000	-11.196000	24.595060	0.000545	20.802968
606.183821	-3.001000	3.738300	-11.218000	24.620280	0.000544	20.796032
607.198152	-2.996600	3.739600	-11.205000	24.582501	0.000546	20.802221
608.190904	-2.989600	3.741000	-11.183000	24.617144	0.000546	20.798575
609.190824	-2.989300	3.738800	-11.175000	24.625947	0.000544	20.813572
610.191228	-3.005500	3.739300	-11.238000	24.628431	0.000544	20.783348
611.189821	-2.992200	3.737400	-11.182000	24.636114	0.000546	20.798169
612.192384	-2.999200	3.737600	-11.208000	24.623803	0.000544	20.795299
613.190052	-3.013500	3.736300	-11.258000	24.645121	0.000546	20.786818
614.170576	-3.029300	3.735600	-11.314000	24.708510	0.000543	20.808701
615.189471	-2.997100	3.737700	-11.200000	24.722856	0.000547	20.768570
616.170470	-2.990700	3.738300	-11.179000	24.702192	0.000545	20.784817
617.174259	-3.012000	3.735000	-11.249000	24.693858	0.000545	20.786886
618.173472	-2.991500	3.737100	-11.179000	24.664336	0.000546	20.791401
619.176465	-2.989200	3.736200	-11.168000	24.641856	0.000544	20.755566
620.173888	-2.987200	3.736400	-11.160000	24.662321	0.000550	20.784163
621.195806	-3.010700	3.735000	-11.243000	24.672294	0.000544	20.788955
622.175858	-2.972700	3.735900	-11.105000	24.693035	0.000546	20.790801
623.174423	-3.007300	3.734100	-11.229000	24.681741	0.000545	20.784684
624.175843	-3.003300	3.734300	-11.214000	24.695619	0.000546	20.782015
625.175718	-2.989600	3.735400	-11.167000	24.694323	0.000544	20.791146
626.175903	-2.975400	3.734100	-11.110000	24.695393	0.000542	20.796013
627.174875	-3.001500	3.734200	-11.207000	24.657839	0.000543	20.796735
628.173217	-2.995100	3.733100	-11.180000	24.642220	0.000545	20.793865
629.175893	-3.000200	3.733700	-11.201000	24.631950	0.000542	20.804896
630.198584	-2.995000	3.733600	-11.181000	24.642521	0.000542	20.787055
631.193697	-2.988000	3.734400	-11.157000	24.684973	0.000542	20.781763
632.187751	-2.980100	3.732100	-11.121000	24.641250	0.000543	20.790521
633.190427	-2.976400	3.732700	-11.109000	24.631352	0.000543	20.778218
634.193528	-2.992100	3.732600	-11.168000	24.686809	0.000544	20.780287
635.198800	-2.983400	3.731500	-11.131000	24.720407	0.000541	20.777018
636.196314	-3.000700	3.731100	-11.193000	24.763329	0.000541	20.773623
637.192393	-3.015400	3.731600	-11.252000	24.809259	0.000543	20.795061
638.195890	-2.980000	3.730600	-11.116000	24.812441	0.000543	20.786875
639.197377	-2.990000	3.731800	-11.158000	24.791699	0.000544	20.774119
640.191146	-2.987500	3.731200	-11.146000	24.761586	0.000543	20.770451
641.196580	-3.006400	3.731100	-11.216000	24.766110	0.000542	20.780208
642.192453	-2.990100	3.729400	-11.150000	24.740717	0.000545	20.769898
643.193739	-3.013100	3.730000	-11.238000	24.759374	0.000540	20.778663
644.200329	-2.981600	3.730500	-11.122000	24.778215	0.000543	20.772915
645.192383	-2.993300	3.730000	-11.164000	24.787940	0.000543	20.771295
646.207006	-3.018300	3.728600	-11.254000	24.789358	0.000542	20.762760
647.174496	-2.985800	3.730300	-11.136000	24.735395	0.000545	20.769298
648.176222	-2.989400	3.728800	-11.146000	24.746981	0.000542	20.771917
649.177476	-3.010900	3.727600	-11.222000	24.786494	0.000543	20.778379
650.174600	-2.999300	3.728500	-11.182000	24.743549	0.000541	20.775110
651.176013	-3.007900	3.728200	-11.212000	24.759166	0.000540	20.766126
652.176080	-3.011600	3.726900	-11.223000	24.790421	0.000541	20.777578
653.176970	-3.005200	3.727600	-11.202000	24.791215	0.000543	20.766995
654.175158	-3.000200	3.726700	-11.180000	24.806706	0.000541	20.771636
655.176417	-3.002800	3.726500	-11.190000	24.803872	0.000542	20.770214
656.205390	-3.000500	3.728100	-11.185000	24.835852	0.000540	20.769118
657.200020	-3.020200	3.725400	-11.250000	24.799519	0.000542	20.766794
658.206743	-3.002000	3.725600	-11.183000	24.758188	0.000542	20.767990
659.208862	-3.007700	3.725800	-11.205000	24.755926	0.000541	20.771884
660.202516	-3.028700	3.724700	-11.280000	24.768533	0.000540	20.791174
661.193658	-2.994600	3.725200	-11.155000	24.756323	0.000541	20.782715
662.198359	-3.002300	3.725000	-11.182000	24.772116	0.000541	20.752569
663.196871	-3.009300	3.725000	-11.209000	24.779851	0.000541	20.774557
664.199095	-2.995400	3.725700	-11.159000	24.789150	0.000540	20.758759
665.204974	-2.996700	3.725100	-11.162000	24.786641	0.000540	20.769517
666.181038	-2.990900	3.725900	-11.143000	24.730612	0.000541	20.745058
667.182441	-3.013700	3.724000	-11.222000	24.746627	0.000540	20.759233
668.184605	-3.026700	3.723300	-11.268000	24.777814	0.000540	20.775832
669.180697	-3.001000	3.723600	-11.174000	24.800844	0.000538	20.761011
670.203930	-2.974100	3.725500	-11.079000	24.793180	0.000541	20.756639
671.203737	-3.005800	3.724400	-11.194000	24.804047	0.000539	20.766123
672.197382	-2.993600	3.724000	-11.147000	24.836002	0.000539	20.750777
673.199507	-2.999200	3.722800	-11.165000	24.880065	0.000538	20.767024
674.189389	-2.999300	3.722700	-11.164000	24.868057	0.000538	20.767301
675.186705	-2.996200	3.722900	-11.154000	24.823940	0.000537	20.773285
676.188875	-2.994900	3.721800	-11.146000	24.837670	0.000537	20.764305
677.215722	-3.000200	3.722600	-11.168000	24.809971	0.000539	20.773490
678.201693	-2.989700	3.721700	-11.125000	24.806982	0.000536	20.751524
679.187491	-2.983800	3.722100	-11.105000	24.845526	0.000536	20.767922
680.187140	-3.010500	3.720900	-11.201000	24.865967	0.000540	20.770419
681.185402	-3.001700	3.720300	-11.167000	24.906445	0.000538	20.773113
682.191228	-2.996300	3.720900	-11.148000	24.895182	0.000539	20.763231
683.188126	-2.996900	3.719200	-11.145000	24.889785	0.000539	20.754021
684.186546	-3.005800	3.719700	-11.180000	24.862133	0.000538	20.767520
685.188687	-2.982700	3.719800	-11.094000	24.855076	0.000539	20.742892
686.189205	-2.990800	3.719300	-11.123000	24.828117	0.000537	20.767994
687.187160	-3.002000	3.719200	-11.164000	24.838486	0.000534	20.773185
688.206135	-3.004600	3.719600	-11.175000	24.817451	0.000539	20.772463
689.224114	-3.009400	3.718400	-11.189000	24.823418	0.000536	20.764700
690.205657	-3.015600	3.717700	-11.210000	24.848533	0.000537	20.791803
691.206642	-3.004600	3.718900	-11.173000	24.846246	0.000537	20.789033
692.207575	-3.008200	3.717100	-11.181000	24.858354	0.000538	20.770839
693.189419	-3.008900	3.718500	-11.188000	24.860272	0.000536	20.784144
694.188940	-3.026400	3.716500	-11.247000	24.855866	0.000537	20.767868
695.193411	-3.014300	3.717100	-11.203000	24.840748	0.000534	20.765023
696.189512	-3.007400	3.717100	-11.178000	24.849700	0.000534	20.765946
697.192170	-2.996400	3.715800	-11.133000	24.856962	0.000533	20.754743
698.189598	-3.008200	3.716500	-11.178000	24.852488	0.000535	20.749304
699.216918	-3.001300	3.715700	-11.151000	24.897516	0.000535	20.769366
700.205395	-3.006400	3.716300	-11.172000	24.897541	0.000534	20.766072
701.219516	-2.997000	3.716000	-11.136000	24.904129	0.000535	20.761305
702.193773	-3.020700	3.713100	-11.215000	24.911738	0.000535	20.769891
703.206002	-2.998000	3.716100	-11.140000	24.867874	0.000534	20.768540
704.211779	-2.986100	3.715700	-11.095000	24.844599	0.000537	20.780742
705.193655	-3.033500	3.713500	-11.264000	24.862552	0.000533	20.771259
706.190954	-2.988600	3.715900	-11.105000	24.916931	0.000535	20.785060
707.209796	-3.003700	3.715200	-11.159000	24.872248	0.000532	20.750169
708.216415	-2.996100	3.715000	-11.130000	24.900192	0.000535	20.793864
709.208214	-3.019900	3.713900	-11.214000	24.870283	0.000533	20.756732
710.192423	-2.992700	3.713300	-11.111000	24.881546	0.000532	20.768037
711.194446	-2.979500	3.713900	-11.065000	24.857126	0.000534	20.761546
712.194302	-2.977300	3.713800	-11.056000	24.888457	0.000535	20.785879
713.196726	-3.014400	3.712600	-11.190000	24.886295	0.000536	20.763320
714.195528	-2.995600	3.713200	-11.123000	24.885823	0.000533	20.787503
715.195455	-2.986100	3.712900	-11.086000	24.883386	0.000533	20.766564
716.195270	-2.997900	3.712400	-11.128000	24.887612	0.000535	20.771755
717.198029	-3.010300	3.710500	-11.169000	24.867996	0.000533	20.765817
718.195681	-3.016400	3.711200	-11.193000	24.895296	0.000534	20.780415
719.197087	-2.995500	3.712300	-11.119000	24.867176	0.000532	20.789651
720.200514	-2.987200	3.712400	-11.088000	24.845397	0.000531	20.780595
721.197959	-2.987800	3.711200	-11.088000	24.851439	0.000530	20.790452
722.198384	-3.023700	3.710300	-11.218000	24.846317	0.000531	20.772035
723.201704	-3.014900	3.709600	-11.182000	24.897390	0.000530	20.792474
724.200919	-3.019400	3.710700	-11.203000	24.886253	0.000530	20.808797
725.222518	-3.006300	3.709100	-11.150000	24.855122	0.000531	20.773759
726.220208	-3.012800	3.710000	-11.176000	24.850172	0.000533	20.780171
727.219583	-2.992800	3.710000	-11.102000	24.834560	0.000528	20.789159
728.221221	-2.995300	3.710000	-11.111000	24.856518	0.000530	20.779902
729.227008	-2.992000	3.710300	-11.099000	24.893242	0.000531	20.780725
730.201004	-3.016000	3.709300	-11.186000	24.923452	0.000530	20.778803
731.216435	-2.984700	3.708100	-11.066000	24.927704	0.000529	20.796347
732.207078	-2.991100	3.709700	-11.094000	24.917085	0.000531	20.780473
733.202855	-2.991800	3.707900	-11.092000	24.898339	0.000531	20.788685
734.201162	-2.981600	3.708100	-11.055000	24.917436	0.000529	20.806904
735.204388	-2.986800	3.708700	-11.076000	24.927307	0.000530	20.780301
736.222732	-2.996500	3.707500	-11.108000	24.958557	0.000529	20.812141
737.203521	-2.999300	3.707400	-11.119000	25.000803	0.000529	20.800492
738.203959	-3.002100	3.707900	-11.131000	25.019820	0.000530	20.800140
739.224063	-2.985100	3.707300	-11.065000	24.985483	0.000529	20.792227
740.229856	-2.967300	3.707100	-10.999000	24.935656	0.000527	20.795793
741.224323	-2.964600	3.707800	-10.991000	24.954581	0.000528	20.788236
742.205964	-3.033000	3.704600	-11.235000	24.968402	0.000529	20.783616
743.204443	-3.007300	3.706200	-11.144000	24.963824	0.000528	20.782815
744.206214	-2.983800	3.706500	-11.058000	24.985207	0.000528	20.779148
745.211067	-3.023500	3.705800	-11.203000	25.022253	0.000527	20.765598
746.208819	-3.005700	3.705000	-11.134000	25.042268	0.000527	20.812241
747.205393	-2.988000	3.706600	-11.075000	25.062354	0.000524	20.800636
748.206749	-3.005600	3.705100	-11.134000	25.055390	0.000527	20.776576
749.210279	-3.012000	3.705000	-11.159000	25.039459	0.000527	20.799939
750.207617	-3.003800	3.704200	-11.126000	25.078710	0.000526	20.808046
751.211845	-2.989800	3.703600	-11.071000	25.066258	0.000524	20.793175
752.207749	-3.000300	3.704600	-11.114000	25.037215	0.000524	20.797212
753.208529	-3.003600	3.703100	-11.121000	25.002238	0.000525	20.793872
754.208104	-2.996800	3.703100	-11.096000	25.000098	0.000526	20.808793
755.237316	-2.982700	3.705100	-11.050000	24.980952	0.000525	20.784360
756.240050	-3.001100	3.702600	-11.110000	24.974761	0.000524	20.799956
757.232976	-3.002500	3.703900	-11.120000	24.985254	0.000527	20.825187
758.213215	-3.004400	3.702600	-11.123000	24.977445	0.000525	20.814978
759.229163	-2.990500	3.702200	-11.071000	25.021473	0.000524	20.807489
760.234626	-2.979100	3.703700	-11.033000	25.008447	0.000524	20.786827
761.230098	-2.987400	3.701600	-11.058000	25.041809	0.000523	20.808462
762.230370	-2.995700	3.700900	-11.086000	25.058363	0.000522	20.817018
763.229776	-2.992400	3.702300	-11.078000	25.035465	0.000523	20.803990
764.241813	-2.987700	3.701800	-11.058000	25.060578	0.000522	20.807388
765.214536	-3.004000	3.700600	-11.115000	25.093889	0.000523	20.816645
766.215271	-2.994300	3.700100	-11.078000	25.094408	0.000524	20.801993
767.215365	-2.996600	3.699900	-11.086000	25.086504	0.000525	20.799274
768.217081	-3.002600	3.700100	-11.109000	25.069549	0.000523	20.823031
769.215749	-2.994300	3.699700	-11.077000	25.008536	0.000522	20.801142
770.233850	-3.003100	3.699900	-11.110000	25.003687	0.000524	20.802912
771.232941	-3.010100	3.699800	-11.135000	24.940909	0.000524	20.839472
772.237642	-2.997100	3.699200	-11.085000	24.966966	0.000523	20.807780
773.233753	-3.008100	3.698400	-11.123000	25.001547	0.000522	20.802187
774.216221	-3.007400	3.700500	-11.128000	25.003537	0.000522	20.796598
775.216476	-2.990800	3.699900	-11.064000	25.071056	0.000522	20.816483
776.216331	-3.010400	3.698400	-11.133000	25.088264	0.000520	20.836128
777.218883	-2.988600	3.699500	-11.056000	25.094129	0.000522	20.822101
778.219125	-2.994900	3.697900	-11.074000	25.062332	0.000521	20.817209
779.216985	-2.990600	3.698400	-11.060000	25.038191	0.000522	20.835176
780.216753	-3.004500	3.696700	-11.106000	25.083340	0.000520	20.812219
781.217333	-3.000100	3.696100	-11.088000	25.082818	0.000522	20.823549
782.217197	-2.999900	3.698200	-11.092000	25.104220	0.000520	20.820377
783.218400	-3.014600	3.696900	-11.143000	25.121896	0.000520	20.825794
784.222133	-2.989400	3.696600	-11.049000	25.130123	0.000520	20.825043
785.217730	-3.004700	3.695700	-11.104000	25.080628	0.000520	20.842212
786.220521	-2.965500	3.697900	-10.965000	25.083759	0.000519	20.834924
787.241374	-2.984800	3.695000	-11.028000	25.064242	0.000520	20.824342
788.219980	-2.990600	3.695700	-11.052000	25.081569	0.000521	20.811389
789.224176	-3.022200	3.695100	-11.166000	25.115230	0.000518	20.829059
790.225282	-2.991700	3.694900	-11.053000	25.115255	0.000518	20.853739
791.222282	-2.994600	3.695400	-11.065000	25.121968	0.000518	20.830607
792.219290	-2.987300	3.696200	-11.040000	25.123435	0.000520	20.825441
793.223011	-2.997200	3.694300	-11.071000	25.107576	0.000520	20.826591
794.221187	-3.035700	3.692700	-11.209000	25.132262	0.000519	20.827191
795.221223	-3.009600	3.693700	-11.116000	25.129053	0.000519	20.847201
796.225101	-3.005500	3.694300	-11.102000	25.161202	0.000517	20.835855
797.226379	-3.012800	3.693200	-11.126000	25.173629	0.000516	20.847381
798.222780	-2.980900	3.693900	-11.011000	25.163786	0.000517	20.830862
799.225456	-3.001900	3.693400	-11.085000	25.160902	0.000517	20.815165
800.223599	-3.013700	3.692800	-11.128000	25.160931	0.000517	20.832263
801.223469	-3.032600	3.690600	-11.191000	25.127868	0.000518	20.827521
802.224292	-2.996000	3.692400	-11.062000	25.134757	0.000518	20.836333
803.224579	-3.003200	3.692100	-11.088000	25.157599	0.000516	20.841246
804.231377	-2.976500	3.692800	-10.991000	25.149073	0.000515	20.851652
805.226686	-2.994700	3.692200	-11.056000	25.127793	0.000515	20.835506
806.226952	-2.995800	3.691500	-11.058000	25.119073	0.000513	20.852356
807.225659	-2.974100	3.691500	-10.978000	25.106893	0.000516	20.838233
808.226434	-3.035600	3.688700	-11.197000	25.118304	0.000514	20.842575
809.227375	-3.004600	3.690500	-11.088000	25.140403	0.000514	20.834415
810.225932	-3.020200	3.690800	-11.145000	25.135354	0.000514	20.846415
811.229974	-3.017300	3.688800	-11.128000	25.116536	0.000513	20.847913
812.226007	-3.020200	3.689900	-11.143000	25.065005	0.000513	20.847392
813.224365	-2.998000	3.689100	-11.059000	25.063663	0.000514	20.857899
814.226591	-3.022300	3.690100	-11.152000	25.097575	0.000511	20.840733
815.228484	-3.002100	3.689200	-11.075000	25.166083	0.000514	20.851659
816.227865	-3.015100	3.688700	-11.121000	25.198529	0.000509	20.835869
817.229578	-2.989800	3.689200	-11.028000	25.242326	0.000510	20.842382
818.230032	-2.985300	3.687900	-11.008000	25.183315	0.000509	20.853312
819.228113	-3.017000	3.688400	-11.127000	25.172574	0.000511	20.867184
820.227118	-2.957400	3.689600	-10.910000	25.184782	0.000512	20.855733
821.231168	-2.998200	3.687900	-11.056000	25.147345	0.000510	20.862245
822.226727	-2.985600	3.686500	-11.005000	25.139315	0.000511	20.849443
823.226265	-2.995100	3.687400	-11.044000	25.109087	0.000512	20.861771
824.226658	-3.000300	3.687900	-11.063000	25.066726	0.000510	20.859077
825.227607	-3.009500	3.685400	-11.090000	25.043706	0.000509	20.841186
826.226415	-3.010300	3.686600	-11.098000	25.090694	0.000511	20.838567
827.228656	-3.007800	3.686400	-11.087000	25.128828	0.000511	20.855984
828.228199	-3.016600	3.685900	-11.118000	25.096162	0.000510	20.862072
829.228752	-2.995900	3.685700	-11.042000	25.110776	0.000509	20.870578
830.231093	-2.991700	3.686500	-11.027000	25.139072	0.000510	20.869587
831.228880	-2.997000	3.686700	-11.047000	25.120899	0.000509	20.870309
832.228102	-3.011200	3.685300	-11.095000	25.148765	0.000509	20.878369
833.230396	-2.988900	3.684500	-11.012000	25.161246	0.000508	20.859605
834.229634	-2.990400	3.685100	-11.019000	25.185409	0.000508	20.854465
835.230551	-2.995400	3.685000	-11.037000	25.136263	0.000506	20.889051
836.230931	-2.992100	3.683600	-11.021000	25.119185	0.000507	20.869062
837.231215	-3.018000	3.682900	-11.114000	25.144865	0.000506	20.886307
838.230871	-2.994900	3.683300	-11.030000	25.180911	0.000509	20.854217
839.231743	-3.000600	3.683100	-11.050000	25.198482	0.000507	20.863797
840.231832	-3.002800	3.682800	-11.058000	25.227889	0.000507	20.868664
841.232201	-3.019600	3.683000	-11.121000	25.252423	0.000507	20.868164
842.233340	-2.992000	3.683000	-11.018000	25.266290	0.000508	20.868337
843.231928	-2.994700	3.682600	-11.028000	25.268530	0.000506	20.853517
844.231860	-3.001300	3.682600	-11.052000	25.227492	0.000504	20.864472
845.233823	-2.987600	3.683900	-11.005000	25.214415	0.000506	20.860352
846.236776	-3.012900	3.682400	-11.094000	25.202754	0.000506	20.889421
847.234185	-3.024600	3.680300	-11.131000	25.227417	0.000504	20.875301
848.234658	-3.004500	3.682000	-11.061000	25.239149	0.000503	20.876174
849.232521	-2.991500	3.681300	-11.011000	25.227539	0.000504	20.890595
850.234179	-2.984600	3.680500	-10.984000	25.202357	0.000506	20.878591
851.234645	-3.001200	3.680500	-11.045000	25.197413	0.000504	20.888799
852.232946	-3.000100	3.679800	-11.038000	25.196890	0.000506	20.879741
853.231882	-3.022600	3.679900	-11.121000	25.223786	0.000504	20.871656
854.237818	-3.013700	3.680300	-11.091000	25.223664	0.000504	20.892395
855.231159	-2.992700	3.680600	-11.015000	25.241406	0.000505	20.886975
856.233730	-3.017500	3.679600	-11.102000	25.260397	0.000502	20.871903
857.235625	-2.992800	3.678600	-11.009000	25.242451	0.000505	20.872852
858.235516	-2.989900	3.680300	-11.003000	25.214808	0.000503	20.885401
859.234780	-2.998700	3.678400	-11.030000	25.197488	0.000502	20.910210
860.234703	-3.013200	3.678500	-11.082000	25.199277	0.000501	20.897308
861.233391	-2.966600	3.679500	-10.915000	25.221374	0.000500	20.892467
862.233878	-3.011900	3.677000	-11.073000	25.152419	0.000500	20.891518
863.233972	-3.010700	3.676900	-11.069000	25.173919	0.000500	20.885128
864.232193	-3.000800	3.675900	-11.030000	25.207578	0.000500	20.878142
865.233481	-2.991300	3.677800	-11.000000	25.228705	0.000500	20.901722
866.233079	-2.990700	3.676500	-10.994000	25.248662	0.000500	20.902319
867.234914	-2.997400	3.677000	-11.021000	25.246999	0.000500	20.895433
868.236039	-3.008700	3.676000	-11.059000	25.213488	0.000499	20.899722
869.235129	-2.986200	3.677200	-10.980000	25.227585	0.000500	20.881634
870.235634	-3.012300	3.675000	-11.069000	25.220250	0.000500	20.901769
871.235707	-3.018000	3.675600	-11.092000	25.224501	0.000498	20.915044
872.237215	-3.006100	3.674600	-11.045000	25.232626	0.000497	20.905185
873.236963	-2.990300	3.675900	-10.991000	25.224769	0.000498	20.906779
874.240285	-3.002600	3.673700	-11.030000	25.217785	0.000498	20.906406
875.239095	-2.988100	3.675200	-10.980000	25.246640	0.000500	20.885117
876.238025	-3.008600	3.673900	-11.052000	25.305626	0.000500	20.893605
877.239418	-3.019600	3.674100	-11.093000	25.279001	0.000501	20.906226
878.238581	-2.985600	3.673600	-10.967000	25.274032	0.000499	20.902185
879.239437	-3.009400	3.674000	-11.055000	25.269678	0.000498	20.917253
880.240054	-3.030600	3.672000	-11.127000	25.275399	0.000496	20.898816
881.239045	-3.011100	3.673700	-11.061000	25.306639	0.000498	20.912637
882.240515	-3.002900	3.672800	-11.028000	25.234283	0.000496	20.912537
883.239802	-3.006500	3.673500	-11.043000	25.213126	0.000496	20.924960
884.241908	-3.008300	3.671900	-11.045000	25.188120	0.000498	20.919296
885.242244	-3.003700	3.672300	-11.030000	25.248597	0.000496	20.906046
886.239466	-3.012800	3.671100	-11.059000	25.292543	0.000494	20.912709
887.239578	-2.997400	3.671600	-11.004000	25.319586	0.000494	20.921369
888.242147	-2.993700	3.671000	-10.989000	25.338822	0.000494	20.913183
889.242401	-3.011900	3.670700	-11.054000	25.321521	0.000494	20.918571
890.242258	-3.003700	3.670600	-11.024000	25.291147	0.000494	20.913679
891.243491	-3.007800	3.670200	-11.038000	25.232239	0.000493	20.920916
892.241874	-3.004200	3.669400	-11.023000	25.224830	0.000492	20.916322
893.242128	-3.007900	3.669900	-11.038000	25.227044	0.000495	20.928976
894.243043	-3.000600	3.669200	-11.009000	25.251452	0.000494	20.922187
895.243845	-2.977000	3.670600	-10.926000	25.263309	0.000492	20.899955
896.244861	-2.987200	3.670100	-10.962000	25.289580	0.000492	20.910209
897.244408	-3.002000	3.668800	-11.013000	25.313711	0.000492	20.907885
898.244935	-3.005900	3.668700	-11.027000	25.321292	0.000494	20.914548
899.244949	-2.992400	3.669000	-10.978000	25.362877	0.000492	20.902724
900.247575	-3.004300	3.667300	-11.017000	25.308942	0.000492	20.899305
901.246472	-3.006200	3.668700	-11.027000	25.301433	0.000492	20.905989
902.246217	-3.008200	3.667200	-11.031000	25.320770	0.000492	20.894585
903.247175	-3.000000	3.669100	-11.007000	25.338564	0.000490	20.903916
904.247190	-2.999100	3.667400	-10.998000	25.304563	0.000492	20.900123
905.263544	-2.978100	3.668900	-10.925000	25.257484	0.000489	20.906908
906.249529	-2.999800	3.667200	-11.000000	25.228826	0.000489	20.897577
907.248031	-3.004000	3.667400	-11.015000	25.250976	0.000488	20.900375
908.249558	-2.989800	3.668200	-10.967000	25.226511	0.000489	20.892882
909.252441	-3.010700	3.666400	-11.037000	25.277366	0.000486	20.891783
910.249975	-2.991600	3.666200	-10.967000	25.325735	0.000489	20.886769
911.253275	-2.992700	3.665700	-10.970000	25.348302	0.000488	20.877660
912.251408	-2.992200	3.664400	-10.964000	25.372386	0.000488	20.899470
913.251769	-2.993100	3.665000	-10.969000	25.413911	0.000490	20.896596
914.253319	-2.991200	3.665000	-10.962000	25.385829	0.000487	20.900166
915.260172	-3.001800	3.664400	-10.998000	25.358691	0.000487	20.879557
916.249765	-2.983500	3.664300	-10.932000	25.376979	0.000485	20.885591
917.254090	-2.977000	3.664300	-10.908000	25.404392	0.000488	20.895098
918.253870	-2.992800	3.665100	-10.968000	25.411600	0.000487	20.894750
919.254186	-2.971800	3.663800	-10.887000	25.434934	0.000488	20.877879
920.255969	-2.979300	3.664100	-10.916000	25.350012	0.000486	20.881748
921.256894	-2.996000	3.663400	-10.975000	25.337484	0.000484	20.881496
922.253898	-3.001000	3.663400	-10.993000	25.282131	0.000486	20.888982
923.263866	-2.988400	3.663300	-10.946000	25.284020	0.000486	20.885663
924.258584	-2.989100	3.662700	-10.947000	25.267913	0.000484	20.879449
925.257195	-3.019500	3.661100	-11.054000	25.212904	0.000485	20.873533
926.257542	-3.005800	3.662700	-11.008000	25.180416	0.000484	20.868893
927.256032	-3.015300	3.662000	-11.041000	25.228318	0.000483	20.879998
928.256514	-3.003200	3.661400	-10.996000	25.283941	0.000485	20.881317
929.257644	-3.001700	3.660500	-10.986000	25.297687	0.000485	20.869040
930.259601	-3.002900	3.662100	-10.996000	25.336038	0.000483	20.872933
931.257453	-2.999400	3.662400	-10.984000	25.295970	0.000484	20.852618
932.262302	-2.989000	3.659800	-10.938000	25.261298	0.000483	20.863325
933.258797	-2.997600	3.660300	-10.971000	25.244940	0.000482	20.863972
934.262027	-3.003800	3.660800	-10.996000	25.293487	0.000482	20.866245
935.255447	-2.983400	3.660500	-10.920000	25.338124	0.000482	20.874553
936.258388	-2.996900	3.660100	-10.968000	25.311733	0.000481	20.841892
937.257725	-3.019300	3.659200	-11.047000	25.351221	0.000482	20.870634
938.259212	-3.008100	3.659900	-11.008000	25.395663	0.000479	20.861206
939.260210	-3.004400	3.660200	-10.996000	25.443748	0.000479	20.877247
940.262403	-3.009000	3.658500	-11.007000	25.420436	0.000481	20.868063
941.257557	-3.012900	3.657600	-11.019000	25.399237	0.000480	20.854363
942.258002	-3.019800	3.658000	-11.045000	25.383182	0.000481	20.858156
943.262674	-3.016800	3.657100	-11.032000	25.351271	0.000478	20.834651
944.258478	-3.002800	3.658300	-10.983000	25.369212	0.000479	20.837018
945.258276	-2.999400	3.658400	-10.972000	25.365535	0.000480	20.882635
946.262608	-3.016400	3.657300	-11.031000	25.395856	0.000480	20.871831
947.260014	-3.010300	3.657500	-11.009000	25.427440	0.000478	20.856605
948.259495	-3.018400	3.657100	-11.038000	25.392079	0.000478	20.850495
949.261809	-3.009600	3.655900	-11.001000	25.363617	0.000477	20.832822
950.258232	-2.991500	3.656100	-10.936000	25.348034	0.000479	20.850365
951.261362	-3.006500	3.655900	-10.991000	25.381958	0.000477	20.837488
952.266944	-2.973100	3.655900	-10.868000	25.385013	0.000476	20.866159
953.259398	-2.976000	3.655600	-10.878000	25.395506	0.000476	20.857255
954.259959	-2.997300	3.655500	-10.955000	25.417077	0.000478	20.850940
955.263909	-3.004400	3.654900	-10.980000	25.394633	0.000474	20.844525
956.261406	-2.995200	3.654800	-10.946000	25.383647	0.000475	20.836813
957.261557	-3.011700	3.653200	-11.002000	25.394855	0.000473	20.844274
958.265260	-3.000700	3.654300	-10.964000	25.432108	0.000473	20.841853
959.262173	-3.018700	3.654100	-11.030000	25.421369	0.000473	20.826328
960.264929	-3.001100	3.654100	-10.965000	25.375941	0.000474	20.841404
961.263442	-2.997900	3.653400	-10.952000	25.404199	0.000474	20.838009
962.262694	-2.989300	3.652500	-10.918000	25.399924	0.000473	20.857424
963.263936	-3.015600	3.651700	-11.011000	25.404671	0.000471	20.832794
964.264956	-3.005200	3.653300	-10.978000	25.405812	0.000475	20.842948
965.263844	-2.987200	3.652300	-10.909000	25.383643	0.000473	20.836335
966.262633	-2.999200	3.651100	-10.950000	25.401612	0.000472	20.844895
967.267322	-3.029400	3.649300	-11.055000	25.373652	0.000471	20.838156
968.265862	-2.998600	3.652000	-10.949000	25.390079	0.000470	20.850857
969.267066	-2.985600	3.652100	-10.903000	25.400417	0.000471	20.842273
970.267772	-3.007100	3.651500	-10.980000	25.397681	0.000471	20.839999
971.267067	-2.995300	3.650900	-10.935000	25.364851	0.000471	20.833587
972.268010	-2.990500	3.650500	-10.914000	25.373348	0.000469	20.836429
973.269335	-3.019000	3.648800	-11.015000	25.393853	0.000471	20.840897
974.271979	-2.989500	3.650400	-10.911000	25.394100	0.000469	20.827869
975.267314	-2.983200	3.650500	-10.889000	25.352767	0.000467	20.844212
976.273033	-3.008400	3.647600	-10.973000	25.336636	0.000468	20.850775
977.268802	-2.982200	3.649900	-10.885000	25.328010	0.000467	20.817934
978.270991	-2.983500	3.649100	-10.886000	25.328608	0.000469	20.851249
979.274956	-3.016200	3.646700	-10.997000	25.329799	0.000466	20.821152
980.272688	-3.021100	3.647600	-11.019000	25.336711	0.000468	20.830462
981.273354	-3.002900	3.648200	-10.955000	25.349683	0.000468	20.829737
982.276114	-2.993600	3.647800	-10.919000	25.395338	0.000466	20.829112
983.275504	-2.984400	3.647600	-10.884000	25.435671	0.000464	20.815085
984.275891	-2.991000	3.646000	-10.904000	25.426349	0.000468	20.825638
985.275672	-2.989600	3.646400	-10.900000	25.427891	0.000466	20.839988
986.270726	-2.994100	3.645200	-10.913000	25.439992	0.000464	20.814209
987.281956	-3.020300	3.645600	-11.009000	25.453364	0.000465	20.834748
988.277061	-3.008500	3.645400	-10.967000	25.465537	0.000463	20.837014
989.272458	-3.014200	3.643800	-10.982000	25.420278	0.000464	20.816224
990.273426	-3.005600	3.645200	-10.955000	25.377358	0.000463	20.826705
991.275144	-3.012100	3.645000	-10.978000	25.385210	0.000464	20.823210
992.272826	-3.008900	3.644700	-10.966000	25.396171	0.000464	20.828052
993.274493	-3.031100	3.644000	-11.044000	25.389013	0.000462	20.813752
994.275546	-2.989200	3.645000	-10.895000	25.368633	0.000468	20.815099
995.271887	-3.000800	3.644000	-10.934000	25.394822	0.000462	20.823853
996.274767	-2.998600	3.643400	-10.924000	25.392315	0.000463	20.811378
997.274499	-3.013600	3.642500	-10.977000	25.428252	0.000463	20.827075
998.270693	-3.007900	3.642600	-10.956000	25.445301	0.000461	20.837557
999.274605	-3.021000	3.642900	-11.005000	25.465329	0.000464	20.824004
1000.275456	-2.995500	3.642600	-10.911000	25.448456	0.000460	20.824604
1001.273074	-2.991900	3.643000	-10.899000	25.409758	0.000464	20.817987
1002.274328	-3.001000	3.642200	-10.929000	25.414555	0.000459	20.808106
1003.274114	-3.007700	3.642300	-10.954000	25.424718	0.000460	20.804560
1004.272584	-3.011000	3.640200	-10.959000	25.411525	0.000462	20.819288
1005.272905	-3.008600	3.641100	-10.954000	25.375884	0.000459	20.802466
1006.275588	-2.993900	3.640800	-10.899000	25.349490	0.000461	20.822431
1007.270711	-3.007000	3.641200	-10.948000	25.376256	0.000460	20.816116
1008.271761	-3.000800	3.640500	-10.923000	25.402374	0.000462	20.802039
1009.277953	-3.002000	3.638600	-10.923000	25.445544	0.000460	20.819783
1010.271956	-2.995700	3.639400	-10.901000	25.420046	0.000458	20.813620
1011.274091	-3.035200	3.637200	-11.039000	25.418332	0.000459	20.814744
1012.277381	-2.985500	3.640200	-10.867000	25.428570	0.000460	20.820757
1013.271210	-3.030800	3.638300	-11.026000	25.379311	0.000457	20.836253
1014.276819	-3.015700	3.637000	-10.967000	25.384430	0.000460	20.801091
1015.276151	-3.021400	3.637100	-10.989000	25.383092	0.000457	20.797850
1016.273264	-3.035100	3.637700	-11.040000	25.404020	0.000457	20.820760
1017.274245	-2.999400	3.636800	-10.907000	25.436129	0.000460	20.797527
1018.277050	-2.988700	3.637800	-10.871000	25.451836	0.000457	20.803343
1019.277570	-2.980900	3.637400	-10.842000	25.459266	0.000457	20.822657
1020.275832	-3.004600	3.636200	-10.924000	25.513143	0.000456	20.816069
1021.278351	-2.967100	3.637300	-10.791000	25.498009	0.000455	20.796130
1022.276362	-2.999100	3.634900	-10.900000	25.466996	0.000456	20.806712
1023.276490	-3.004400	3.634100	-10.916000	25.486655	0.000456	20.809385
1024.273983	-2.980800	3.635400	-10.836000	25.469632	0.000453	20.822161
1025.276673	-2.993900	3.634800	-10.882000	25.490583	0.000454	20.821389
1026.275256	-3.031200	3.633500	-11.013000	25.480521	0.000454	20.797060
1027.275010	-3.000900	3.635500	-10.909000	25.445955	0.000453	20.787954
1028.275917	-3.014000	3.633400	-10.951000	25.457163	0.000452	20.805372
1029.275444	-3.026800	3.633100	-10.996000	25.483007	0.000451	20.807143
1030.276128	-2.989200	3.634400	-10.862000	25.491180	0.000452	20.812980
1031.280949	-2.986500	3.633600	-10.851000	25.457685	0.000450	20.799733
1032.276351	-3.010000	3.633400	-10.935000	25.463827	0.000451	20.789779
1033.277353	-2.964000	3.632700	-10.766000	25.440368	0.000451	20.785663
1034.276570	-2.990000	3.634000	-10.864000	25.455177	0.000451	20.797689
1035.276839	-2.997000	3.632500	-10.885000	25.429457	0.000450	20.804104
1036.276641	-3.011900	3.632000	-10.939000	25.489349	0.000449	20.810667
1037.276423	-3.018000	3.630000	-10.955000	25.497154	0.000449	20.806651
1038.277314	-2.996600	3.631600	-10.881000	25.524514	0.000448	20.803307
1039.277934	-2.984300	3.632400	-10.839000	25.498696	0.000449	20.796820
1040.278284	-3.000800	3.631200	-10.896000	25.504930	0.000448	20.804503
1041.278050	-3.000800	3.630400	-10.893000	25.486244	0.000449	20.803282
1042.279562	-3.014900	3.631300	-10.947000	25.495587	0.000449	20.799388
1043.278088	-2.985500	3.630500	-10.837000	25.511837	0.000450	20.785835
1044.278784	-2.980100	3.631000	-10.820000	25.493870	0.000447	20.812362
1045.280763	-3.017000	3.629700	-10.950000	25.535420	0.000446	20.785810
1046.278795	-2.997500	3.629600	-10.878000	25.561069	0.000447	20.786438
1047.282270	-3.000600	3.627500	-10.884000	25.572447	0.000448	20.781744
1048.286967	-2.964600	3.630500	-10.763000	25.577515	0.000445	20.783989
1049.280994	-3.001100	3.629600	-10.891000	25.563448	0.000444	20.794517
1050.284527	-2.970400	3.628000	-10.776000	25.527715	0.000447	20.779495
1051.282309	-3.010200	3.628500	-10.922000	25.468695	0.000447	20.790875
1052.284163	-3.004600	3.628600	-10.902000	25.467128	0.000444	20.791672
1053.283095	-3.009500	3.626200	-10.912000	25.472297	0.000443	20.783586
1054.284064	-3.011700	3.626600	-10.922000	25.450974	0.000443	20.794891
1055.283178	-2.996000	3.627400	-10.866000	25.460936	0.000441	20.794463
1056.283512	-3.016100	3.625900	-10.935000	25.460765	0.000442	20.800929
1057.284464	-3.016600	3.625400	-10.935000	25.477437	0.000441	20.788274
1058.284775	-2.995500	3.626500	-10.861000	25.534969	0.000442	20.782512
1059.284610	-3.004700	3.624700	-10.891000	25.571817	0.000442	20.789172
1060.284840	-3.013500	3.624400	-10.921000	25.576760	0.000441	20.785601
1061.285964	-3.006500	3.624800	-10.897000	25.599447	0.000442	20.781833
1062.283915	-3.007200	3.623400	-10.895000	25.539165	0.000442	20.788622
1063.286582	-2.995900	3.623500	-10.856000	25.570573	0.000440	20.768956
1064.285768	-2.975700	3.623900	-10.783000	25.546891	0.000441	20.793536
1065.285875	-2.988700	3.623600	-10.829000	25.532004	0.000442	20.774793
1066.288169	-2.976500	3.623800	-10.786000	25.505188	0.000438	20.772045
1067.289310	-2.992000	3.623300	-10.840000	25.521542	0.000439	20.792735
1068.288911	-2.992100	3.623100	-10.840000	25.546290	0.000439	20.768277
1069.288409	-2.985200	3.623200	-10.815000	25.577869	0.000438	20.785767
1070.290108	-2.989500	3.621900	-10.826000	25.558887	0.000438	20.783299
1071.289546	-3.010500	3.621400	-10.900000	25.544376	0.000437	20.771571
1072.289688	-2.991600	3.621500	-10.833000	25.547084	0.000436	20.778083
1073.288982	-2.980100	3.623100	-10.796000	25.524267	0.000437	20.770342
1074.290690	-2.993700	3.621500	-10.841000	25.542906	0.000437	20.773413
1075.287945	-2.997900	3.619700	-10.850000	25.543128	0.000439	20.787861
1076.291755	-3.005900	3.618800	-10.877000	25.579357	0.000437	20.766398
1077.288230	-2.999200	3.619700	-10.854000	25.574757	0.000437	20.763675
1078.294466	-2.996400	3.620000	-10.847000	25.592426	0.000437	20.779998
1079.296069	-2.995500	3.619200	-10.841000	25.562782	0.000434	20.789107
1080.300114	-2.965400	3.620900	-10.737000	25.606415	0.000434	20.761329
1081.290688	-3.002000	3.617600	-10.858000	25.633124	0.000438	20.755912
1082.295082	-2.995200	3.619000	-10.838000	25.620578	0.000434	20.760855
1083.292704	-2.994000	3.620500	-10.837000	25.603185	0.000434	20.788432
1084.290819	-2.991900	3.617200	-10.821000	25.563101	0.000436	20.758607
1085.293888	-2.985200	3.618500	-10.801000	25.562632	0.000431	20.780896
1086.291658	-3.008600	3.616700	-10.881000	25.551745	0.000434	20.766168
1087.292084	-2.984400	3.616400	-10.792000	25.509030	0.000435	20.763100
1088.297570	-2.991600	3.617100	-10.820000	25.537062	0.000432	20.768966
1089.296759	-2.981100	3.618300	-10.786000	25.568294	0.000433	20.780418
1090.296325	-3.009500	3.616700	-10.882000	25.587777	0.000432	20.762526
1091.299485	-2.983600	3.616300	-10.788000	25.561913	0.000433	20.773536
1092.293215	-2.998100	3.615200	-10.837000	25.579307	0.000432	20.755442
1093.293725	-3.004100	3.615700	-10.862000	25.610789	0.000430	20.769990
1094.300338	-3.020000	3.614400	-10.913000	25.582615	0.000429	20.757816
1095.293736	-2.992900	3.614500	-10.817000	25.563280	0.000429	20.773959
1096.293328	-2.998700	3.615700	-10.841000	25.527969	0.000427	20.768370
1097.295187	-2.978500	3.614900	-10.766000	25.509655	0.000430	20.762781
1098.294441	-2.995800	3.613800	-10.825000	25.522432	0.000430	20.765654
1099.293647	-2.981800	3.613000	-10.772000	25.490275	0.000428	20.766552
1100.302059	-3.025900	3.613000	-10.931000	25.452652	0.000427	20.755797
1101.295418	-3.002600	3.613300	-10.849000	25.439831	0.000428	20.768054
1102.296560	-3.001700	3.612400	-10.842000	25.470172	0.000427	20.788091
1103.297190	-3.015600	3.612800	-10.894000	25.434015	0.000427	20.743720
1104.295412	-2.998900	3.612400	-10.833000	25.401211	0.000427	20.749188
1105.299580	-3.011300	3.611200	-10.873000	25.424621	0.000427	20.759418
1106.301284	-3.007500	3.612000	-10.862000	25.476887	0.000425	20.743149
1107.298005	-3.010500	3.611300	-10.870000	25.504519	0.000424	20.751932
1108.301424	-3.008900	3.611300	-10.865000	25.521019	0.000426	20.747639
1109.299087	-3.009200	3.610700	-10.864000	25.496421	0.000425	20.756128
1110.298298	-3.002800	3.609600	-10.839000	25.497090	0.000424	20.765809
1111.299891	-2.997200	3.610300	-10.820000	25.488419	0.000425	20.745721
1112.303460	-3.005200	3.609200	-10.845000	25.465329	0.000423	20.756674
1113.299582	-3.028500	3.609000	-10.929000	25.494257	0.000423	20.752058
1114.298800	-3.018600	3.607600	-10.889000	25.509044	0.000422	20.747941
1115.302532	-3.008900	3.609100	-10.859000	25.525741	0.000423	20.766132
1116.301483	-2.990300	3.607600	-10.787000	25.511923	0.000422	20.759368
1117.302994	-2.995800	3.607700	-10.806000	25.497762	0.000421	20.731395
1118.309566	-3.011900	3.607100	-10.864000	25.524550	0.000421	20.738382
1119.301117	-2.997600	3.606800	-10.811000	25.551333	0.000421	20.752478
1120.304170	-2.983700	3.607100	-10.762000	25.542863	0.000421	20.752033
1121.308025	-3.000700	3.607200	-10.824000	25.515776	0.000421	20.727200
1122.302522	-3.020400	3.604900	-10.888000	25.513218	0.000422	20.739805
1123.301367	-3.000300	3.605900	-10.818000	25.494378	0.000418	20.762612
1124.304085	-2.999600	3.606100	-10.816000	25.547781	0.000418	20.726625
1125.303259	-2.967200	3.607000	-10.702000	25.580634	0.000419	20.735911
1126.303904	-3.013700	3.605400	-10.865000	25.628071	0.000419	20.749414
1127.304803	-2.987600	3.606800	-10.775000	25.671128	0.000419	20.741450
1128.305743	-2.988800	3.605300	-10.775000	25.728871	0.000418	20.745869
1129.311894	-2.998000	3.605700	-10.809000	25.679554	0.000417	20.756078
1130.304752	-2.991900	3.605200	-10.785000	25.642209	0.000416	20.729473
1131.306635	-3.004800	3.603800	-10.828000	25.625413	0.000417	20.753858
1132.302456	-3.003200	3.603800	-10.822000	25.635206	0.000417	20.757055
1133.303540	-2.997800	3.603200	-10.801000	25.568187	0.000418	20.732419
1134.304822	-2.984600	3.602600	-10.751000	25.551144	0.000416	20.757030
1135.304210	-2.999900	3.603000	-10.808000	25.520726	0.000414	20.748767
1136.304853	-2.998700	3.602700	-10.802000	25.540807	0.000413	20.739535
1137.307615	-2.979900	3.603600	-10.738000	25.583996	0.000417	20.726485
1138.304980	-3.011200	3.600900	-10.842000	25.628024	0.000414	20.731349
1139.304840	-2.991600	3.601300	-10.773000	25.632649	0.000414	20.760650
1140.307960	-3.008400	3.602200	-10.835000	25.645842	0.000414	20.749245
1141.305092	-3.009600	3.600400	-10.834000	25.617294	0.000412	20.745703
1142.306710	-2.988700	3.601400	-10.763000	25.617248	0.000414	20.746605
1143.306734	-2.984900	3.600300	-10.746000	25.599082	0.000414	20.743534
1144.303598	-2.991300	3.599500	-10.766000	25.611207	0.000412	20.727261
1145.306005	-3.001900	3.600200	-10.807000	25.566087	0.000413	20.739320
1146.308975	-3.009100	3.599700	-10.832000	25.589347	0.000413	20.759361
1147.305552	-2.985700	3.599700	-10.747000	25.617026	0.000412	20.746382
1148.307214	-2.991600	3.599200	-10.767000	25.663070	0.000411	20.740469
1149.309307	-2.991700	3.598400	-10.763000	25.658997	0.000408	20.727368
1150.306036	-3.002600	3.598400	-10.803000	25.685805	0.000411	20.767573
1151.306727	-2.966100	3.599800	-10.677000	25.632559	0.000410	20.755819
1152.310403	-2.994300	3.598300	-10.772000	25.561570	0.000408	20.722454
1153.307910	-2.994200	3.597000	-10.769000	25.558311	0.000410	20.728191
1154.320903	-2.988700	3.597200	-10.751000	25.565225	0.000409	20.749834
1155.315380	-2.998700	3.596300	-10.784000	25.548847	0.000409	20.740972
1156.310552	-3.002800	3.595900	-10.796000	25.576900	0.000410	20.755869
1157.316214	-3.014500	3.595500	-10.838000	25.589028	0.000407	20.735807
1158.314808	-3.017900	3.595100	-10.849000	25.640885	0.000407	20.739050
1159.311758	-3.003900	3.595100	-10.798000	25.649011	0.000406	20.733935
1160.314321	-3.013600	3.594400	-10.831000	25.652784	0.000405	20.762382
1161.314316	-2.992500	3.594600	-10.756000	25.651046	0.000406	20.742618
1162.312178	-3.020400	3.594500	-10.856000	25.670255	0.000405	20.741996
1163.313952	-3.002700	3.594200	-10.792000	25.702135	0.000403	20.739877
1164.315148	-3.005500	3.593800	-10.800000	25.659397	0.000403	20.761437
1165.312071	-2.981000	3.593800	-10.712000	25.593800	0.000405	20.724951
1166.314589	-3.003400	3.592600	-10.789000	25.534011	0.000405	20.742668
1167.315010	-2.995100	3.592700	-10.758000	25.520443	0.000405	20.755122
1168.312837	-2.988800	3.592300	-10.735000	25.509906	0.000402	20.756868
1169.314198	-2.994500	3.591400	-10.753000	25.544823	0.000403	20.742147
1170.314263	-3.003800	3.591700	-10.787000	25.536919	0.000403	20.767400
1171.312014	-2.996500	3.591000	-10.759000	25.558115	0.000402	20.734632
1172.315482	-2.999500	3.591800	-10.773000	25.600806	0.000402	20.751903
1173.315583	-3.002400	3.591200	-10.782000	25.651965	0.000404	20.735954
1174.313749	-2.985300	3.592200	-10.724000	25.624162	0.000400	20.739798
1175.314549	-2.982800	3.591200	-10.711000	25.657706	0.000402	20.745039
1176.320415	-2.999700	3.589500	-10.766000	25.678130	0.000403	20.754648
1177.315005	-2.997300	3.589400	-10.757000	25.724590	0.000399	20.743939
1178.313687	-2.990800	3.590300	-10.737000	25.753235	0.000399	20.749005
1179.316023	-2.998900	3.589200	-10.763000	25.760863	0.000398	20.744338
1180.318084	-3.017800	3.589300	-10.831000	25.745261	0.000398	20.759487
1181.314566	-3.022500	3.588100	-10.844000	25.763470	0.000399	20.735103
1182.318304	-2.974900	3.589800	-10.678000	25.760613	0.000397	20.768744
1183.317944	-2.994900	3.588400	-10.746000	25.785932	0.000397	20.767149
1184.317017	-2.981300	3.587700	-10.695000	25.759944	0.000399	20.768546
1185.317309	-3.009700	3.588100	-10.798000	25.705486	0.000397	20.736130
1186.319987	-3.008100	3.586600	-10.788000	25.666922	0.000396	20.748132
1187.320313	-2.969500	3.586900	-10.650000	25.659294	0.000395	20.768445
1188.317441	-3.002800	3.586000	-10.768000	25.692064	0.000396	20.751099
1189.317977	-2.977100	3.586100	-10.675000	25.640581	0.000397	20.766247
1190.316638	-2.974300	3.586700	-10.667000	25.654025	0.000396	20.739446
1191.316786	-2.981800	3.586200	-10.692000	25.654594	0.000397	20.746181
1192.316427	-2.978600	3.586000	-10.680000	25.591979	0.000393	20.768169
1193.319381	-3.012400	3.584700	-10.798000	25.555976	0.000394	20.765202
1194.318939	-3.012000	3.583500	-10.793000	25.530602	0.000395	20.757737
1195.320955	-3.003700	3.584700	-10.767000	25.583703	0.000394	20.741364
1196.320223	-3.007200	3.584800	-10.779000	25.622295	0.000394	20.769218
1197.322247	-3.016700	3.584100	-10.811000	25.665423	0.000392	20.767964
1198.322615	-3.014700	3.582500	-10.799000	25.677848	0.000393	20.779969
1199.322484	-3.016100	3.583000	-10.805000	25.665627	0.000392	20.758211
1200.323482	-3.025100	3.581800	-10.835000	25.666096	0.000393	20.768165
1201.322655	-3.006300	3.582500	-10.768000	25.653922	0.000392	20.759731
1202.323837	-3.003800	3.581300	-10.757000	25.682272	0.000392	20.770188
1203.324254	-2.986200	3.582600	-10.697000	25.653246	0.000390	20.745775
1204.327774	-3.027000	3.581700	-10.841000	25.630263	0.000391	20.783859
1205.325532	-3.025600	3.580800	-10.833000	25.628875	0.000390	20.753541
1206.327466	-3.021400	3.580500	-10.817000	25.609590	0.000389	20.763571
1207.325870	-2.981700	3.580500	-10.675000	25.590334	0.000390	20.766991
1208.325751	-3.018900	3.579500	-10.805000	25.589089	0.000389	20.771431
1209.325547	-3.032000	3.580100	-10.854000	25.617241	0.000389	20.775522
1210.331417	-3.001300	3.579200	-10.741000	25.597537	0.000389	20.779441
1211.326269	-3.015000	3.579800	-10.792000	25.568437	0.000388	20.782933
1212.327332	-3.002200	3.580000	-10.747000	25.604118	0.000389	20.769455
1213.333607	-3.001600	3.579000	-10.742000	25.627677	0.000387	20.782211
1214.331210	-2.971500	3.579300	-10.634000	25.613210	0.000388	20.761516
1215.328767	-2.998600	3.577800	-10.727000	25.602280	0.000387	20.779937
1216.335918	-2.996300	3.577500	-10.718000	25.587397	0.000385	20.780637
1217.329806	-3.016700	3.577300	-10.791000	25.572561	0.000386	20.765737
1218.329591	-3.016600	3.576800	-10.790000	25.582848	0.000385	20.786974
1219.335775	-3.017100	3.575900	-10.788000	25.590151	0.000386	20.772023
1220.327674	-3.016200	3.575300	-10.783000	25.640893	0.000385	20.775095
1221.329881	-2.992900	3.576700	-10.704000	25.666210	0.000388	20.772548
1222.333897	-3.010100	3.575100	-10.761000	25.692625	0.000382	20.791018
1223.331822	-3.016200	3.576100	-10.785000	25.653067	0.000383	20.791115
1224.333670	-3.012800	3.575100	-10.770000	25.710686	0.000384	20.793511
1225.335505	-2.998200	3.575600	-10.719000	25.726014	0.000383	20.758646
1226.334279	-3.013000	3.573600	-10.767000	25.738688	0.000382	20.788921
1227.333450	-3.035300	3.573400	-10.845000	25.764078	0.000385	20.791191
1228.340312	-2.987300	3.575700	-10.681000	25.775754	0.000382	20.766409
1229.335405	-2.993700	3.574800	-10.701000	25.670434	0.000381	20.789118
1230.334479	-3.012100	3.574300	-10.765000	25.645213	0.000380	20.787969
1231.342814	-2.981700	3.573900	-10.655000	25.687479	0.000379	20.798652
1232.337069	-3.024000	3.573000	-10.804000	25.704946	0.000382	20.785849
1233.334878	-2.982400	3.574700	-10.659000	25.671253	0.000380	20.799424
1234.340532	-2.994900	3.572200	-10.698000	25.621508	0.000380	20.783127
1235.339486	-2.992400	3.572300	-10.689000	25.645685	0.000379	20.778011
1236.338545	-2.978900	3.572800	-10.642000	25.651969	0.000379	20.792858
1237.343676	-2.982600	3.571300	-10.651000	25.651078	0.000377	20.789592
1238.342044	-2.999500	3.570500	-10.708000	25.647420	0.000379	20.782598
1239.352208	-2.982600	3.571400	-10.650000	25.607741	0.000377	20.788267
1240.347791	-2.995300	3.570400	-10.693000	25.608611	0.000376	20.783450
1241.344172	-2.991100	3.570700	-10.680000	25.661185	0.000376	20.798321
1242.347863	-3.021900	3.568400	-10.781000	25.670109	0.000377	20.775515
1243.348851	-3.028000	3.568700	-10.804000	25.657259	0.000375	20.796748
1244.345636	-2.999600	3.570600	-10.709000	25.676518	0.000377	20.791435
1245.343710	-2.996600	3.567600	-10.690000	25.693859	0.000374	20.780878
1246.343965	-2.978200	3.569500	-10.629000	25.703151	0.000376	20.793529
1247.346397	-2.990500	3.567700	-10.668000	25.758353	0.000376	20.797768
1248.344043	-2.997700	3.568000	-10.695000	25.774206	0.000375	20.786665
1249.346013	-3.025800	3.566800	-10.792000	25.753382	0.000375	20.802732
1250.345596	-2.983600	3.568600	-10.646000	25.724812	0.000375	20.773087
1251.346303	-2.995100	3.567500	-10.684000	25.680609	0.000373	20.793648
1252.352068	-3.024100	3.566000	-10.783000	25.644086	0.000374	20.802010
1253.345340	-2.990400	3.567500	-10.666000	25.646197	0.000370	20.817406
1254.352056	-2.987300	3.566700	-10.654000	25.663939	0.000373	20.795871
1255.347941	-3.016600	3.564500	-10.751000	25.654669	0.000373	20.817380
1256.348472	-3.028600	3.564700	-10.795000	25.656361	0.000372	20.801536
1257.348342	-2.996900	3.566500	-10.687000	25.684389	0.000371	20.815936
1258.349424	-2.991100	3.563500	-10.658000	25.704685	0.000374	20.814510
1259.350998	-2.968600	3.564600	-10.581000	25.702553	0.000372	20.809525
1260.355359	-2.990500	3.564800	-10.658000	25.710897	0.000371	20.802732
1261.355616	-2.984700	3.563500	-10.635000	25.739246	0.000373	20.782843
1262.348880	-2.992100	3.563500	-10.662000	25.826497	0.000371	20.810268
1263.354596	-2.998800	3.562200	-10.682000	25.827642	0.000372	20.802409
1264.352275	-3.004000	3.562300	-10.701000	25.811199	0.000370	20.805333
1265.353467	-3.003300	3.563300	-10.701000	25.788935	0.000369	20.828487
1266.353202	-3.023900	3.562400	-10.771000	25.765709	0.000369	20.829812
1267.354496	-3.009900	3.562200	-10.720000	25.740515	0.000370	20.830585
1268.354834	-3.008500	3.561800	-10.715000	25.751201	0.000369	20.793903
1269.357474	-3.038100	3.561800	-10.820000	25.773684	0.000369	20.838297
1270.361310	-3.003700	3.561800	-10.698000	25.763992	0.000365	20.817183
1271.354442	-3.021800	3.559500	-10.756000	25.756121	0.000366	20.822079
1272.357229	-2.977100	3.562000	-10.603000	25.734657	0.000367	20.828968
1273.358226	-3.000600	3.559900	-10.681000	25.704270	0.000367	20.822628
1274.356603	-2.986400	3.560400	-10.632000	25.725463	0.000366	20.817837
1275.354588	-3.003500	3.558900	-10.688000	25.725738	0.000366	20.816691
1276.361173	-3.002300	3.559500	-10.686000	25.728445	0.000364	20.809927
1277.357096	-3.006400	3.557600	-10.694000	25.733835	0.000367	20.827194
1278.358574	-3.007900	3.558900	-10.703000	25.796373	0.000365	20.815096
1279.359029	-3.000300	3.558400	-10.675000	25.782981	0.000366	20.829618
1280.356435	-2.981400	3.557500	-10.606000	25.753890	0.000364	20.806087
1281.355972	-2.993500	3.556600	-10.645000	25.792347	0.000361	20.826698
1282.358440	-3.001200	3.557300	-10.675000	25.740025	0.000363	20.831515
1283.361633	-3.000300	3.557800	-10.673000	25.744148	0.000362	20.821906
1284.357503	-3.014500	3.557100	-10.722000	25.713740	0.000363	20.827398
1285.357383	-3.001600	3.557200	-10.676000	25.686163	0.000362	20.830994
1286.361498	-2.988700	3.555100	-10.624000	25.703429	0.000361	20.828896
1287.361690	-2.989300	3.556100	-10.629000	25.737246	0.000363	20.824931
1288.359013	-3.003200	3.554700	-10.674000	25.732004	0.000361	20.824880
1289.357190	-3.002800	3.555600	-10.676000	25.732451	0.000360	20.834812
1290.363776	-3.020300	3.553700	-10.732000	25.757348	0.000362	20.840854
1291.366020	-3.005000	3.554100	-10.679000	25.783460	0.000362	20.838160
1292.355867	-3.015800	3.552400	-10.712000	25.768055	0.000362	20.823634
1293.360080	-3.004900	3.554000	-10.679000	25.744406	0.000361	20.839234
1294.363579	-2.999900	3.553300	-10.659000	25.762419	0.000360	20.835042
1295.355231	-2.988200	3.553800	-10.618000	25.790545	0.000360	20.839112
1296.361777	-3.009000	3.553300	-10.691000	25.760731	0.000359	20.858476
1297.359248	-3.001300	3.552900	-10.662000	25.767640	0.000361	20.834597
1298.356750	-3.023900	3.550500	-10.735000	25.763370	0.000358	20.826989
1299.360101	-2.989500	3.552400	-10.620000	25.699739	0.000358	20.827560
1300.364081	-3.006500	3.551100	-10.676000	25.685673	0.000359	20.843778
1301.355890	-3.015400	3.550000	-10.703000	25.710797	0.000359	20.836770
1302.369354	-3.019800	3.550800	-10.722000	25.693033	0.000359	20.839791
1303.363381	-3.001300	3.549900	-10.654000	25.710975	0.000356	20.842639
1304.358778	-3.001200	3.550500	-10.655000	25.675917	0.000358	20.841091
1305.361586	-2.976600	3.550800	-10.569000	25.737264	0.000355	20.851500
1306.367025	-2.985500	3.550300	-10.598000	25.785313	0.000356	20.830064
1307.359652	-3.003900	3.549500	-10.662000	25.783997	0.000355	20.846285
1308.367052	-2.994100	3.550200	-10.629000	25.745690	0.000356	20.837679
1309.366282	-3.002400	3.548000	-10.650000	25.727780	0.000355	20.849561
1310.360625	-3.013400	3.547500	-10.689000	25.724948	0.000353	20.838182
1311.364542	-3.012600	3.547100	-10.684000	25.739757	0.000352	20.843573
1312.361263	-3.011100	3.547400	-10.681000	25.759658	0.000353	20.855502
1313.361228	-2.994300	3.548200	-10.624000	25.781597	0.000355	20.848142
1314.363683	-2.998500	3.548400	-10.639000	25.761253	0.000353	20.857104
1315.361681	-2.988300	3.547200	-10.600000	25.712782	0.000351	20.846824
1316.361062	-3.005000	3.546500	-10.656000	25.704556	0.000351	20.876019
1317.364294	-2.995900	3.545800	-10.621000	25.717703	0.000351	20.887326
1318.364915	-2.976200	3.547300	-10.557000	25.748883	0.000352	20.882135
1319.364975	-2.994600	3.545600	-10.616000	25.797282	0.000351	20.848250
1320.367023	-3.003700	3.545700	-10.649000	25.814028	0.000351	20.846106
1321.366575	-2.993600	3.544200	-10.609000	25.834897	0.000352	20.865645
1322.362598	-2.987300	3.544600	-10.588000	25.867791	0.000350	20.860757
1323.362049	-2.993200	3.544600	-10.609000	25.841334	0.000352	20.838922
1324.366995	-2.998200	3.543200	-10.622000	25.832816	0.000350	20.869245
1325.362661	-2.968800	3.543800	-10.520000	25.754459	0.000348	20.868296
1326.368456	-2.991600	3.544300	-10.602000	25.786061	0.000349	20.862108
1327.370944	-2.995900	3.542200	-10.611000	25.799202	0.000349	20.864403
1328.361666	-2.996500	3.541400	-10.611000	25.758435	0.000349	20.856170
1329.365324	-2.981700	3.542500	-10.562000	25.733316	0.000348	20.862233
1330.365953	-2.992000	3.540800	-10.593000	25.765792	0.000348	20.873515
1331.362602	-2.984800	3.542900	-10.574000	25.807406	0.000348	20.879280
1332.364779	-2.964000	3.541100	-10.495000	25.806140	0.000347	20.869000
1333.369631	-2.985100	3.540900	-10.569000	25.824849	0.000347	20.881629
1334.366371	-2.994400	3.541800	-10.604000	25.762144	0.000347	20.877912
1335.367194	-2.996000	3.541100	-10.608000	25.727934	0.000344	20.861095
1336.367344	-2.984300	3.539200	-10.561000	25.761600	0.000346	20.866461
1337.370296	-2.959300	3.541300	-10.479000	25.791882	0.000346	20.867007
1338.369051	-2.979600	3.539800	-10.546000	25.824928	0.000345	20.867485
1339.365141	-3.001900	3.538900	-10.622000	25.831089	0.000343	20.882208
1340.369614	-2.988700	3.538000	-10.573000	25.832309	0.000344	20.885803
1341.368558	-3.012100	3.538500	-10.657000	25.796238	0.000344	20.871382
1342.369278	-3.011200	3.536800	-10.649000	25.812759	0.000343	20.894614
1343.367910	-3.020600	3.537500	-10.684000	25.823666	0.000344	20.887552
1344.373734	-2.999000	3.537800	-10.609000	25.818674	0.000342	20.869737
1345.376244	-3.017000	3.536700	-10.669000	25.808168	0.000342	20.876253
1346.367855	-3.016800	3.536400	-10.668000	25.794082	0.000342	20.882966
1347.369643	-2.990600	3.537900	-10.580000	25.781784	0.000341	20.890052
1348.370695	-3.010300	3.535800	-10.643000	25.773684	0.000342	20.891399
1349.368308	-3.018400	3.534100	-10.666000	25.807799	0.000342	20.896270
1350.369760	-3.007600	3.534700	-10.630000	25.765366	0.000340	20.891579
1351.369711	-2.994900	3.533900	-10.583000	25.774360	0.000341	20.884966
1352.368616	-2.992200	3.535500	-10.577000	25.792473	0.000340	20.886091
1353.368587	-2.978800	3.534500	-10.527000	25.812895	0.000339	20.898543
1354.374205	-3.013400	3.533300	-10.647000	25.785192	0.000340	20.872140
1355.369832	-3.016000	3.533700	-10.657000	25.744975	0.000339	20.892908
1356.376805	-3.004300	3.532700	-10.612000	25.774639	0.000339	20.898522
1357.374072	-2.998500	3.533000	-10.593000	25.780383	0.000338	20.905713
1358.375852	-3.003500	3.533000	-10.611000	25.809870	0.000338	20.895031
1359.374650	-3.000300	3.532100	-10.596000	25.857672	0.000337	20.907013
1360.379106	-3.007200	3.530600	-10.616000	25.882392	0.000340	20.907189
1361.373868	-2.986400	3.532100	-10.547000	25.919256	0.000336	20.893016
1362.375087	-2.998300	3.531300	-10.587000	25.881995	0.000337	20.902049
1363.375631	-3.002000	3.531100	-10.599000	25.899137	0.000338	20.890347
1364.373156	-3.020000	3.530700	-10.661000	25.924727	0.000336	20.898986
1365.372346	-2.997100	3.530800	-10.581000	25.945916	0.000335	20.898461
1366.373044	-3.013500	3.529300	-10.635000	25.947779	0.000336	20.899384
1367.370917	-3.008500	3.529900	-10.619000	25.939705	0.000335	20.913083
1368.378553	-2.980800	3.531000	-10.524000	25.929054	0.000336	20.914710
1369.381202	-2.999900	3.527900	-10.582000	25.924213	0.000335	20.907951
1370.374583	-2.978900	3.530100	-10.515000	25.937149	0.000334	20.906722
1371.376477	-2.998400	3.527800	-10.577000	25.886897	0.000337	20.911715
1372.378603	-3.020300	3.528100	-10.655000	25.880093	0.000334	20.904406
1373.375853	-2.993900	3.528000	-10.562000	25.914226	0.000333	20.904083
1374.376264	-3.006700	3.527700	-10.606000	25.950443	0.000335	20.920077
1375.377473	-3.020800	3.526100	-10.650000	25.987827	0.000334	20.914962
1376.373374	-3.018400	3.527200	-10.646000	25.993987	0.000332	20.909772
1377.376139	-3.012800	3.526700	-10.625000	25.981792	0.000331	20.921700
1378.376795	-3.015000	3.525000	-10.626000	25.946967	0.000331	20.931283
1379.373913	-3.010500	3.524300	-10.610000	25.963415	0.000331	20.927418
1380.372576	-2.996200	3.525900	-10.564000	25.939992	0.000331	20.924750
1381.377268	-2.994900	3.524300	-10.554000	25.894507	0.000332	20.908928
1382.373602	-2.969900	3.524500	-10.466000	25.879574	0.000331	20.916686
1383.378135	-2.970500	3.526000	-10.473000	25.871082	0.000331	20.927594
1384.377507	-2.990600	3.524900	-10.541000	25.848226	0.000329	20.927867
1385.374375	-3.001100	3.522800	-10.572000	25.877862	0.000328	20.949575
1386.374647	-2.996000	3.524100	-10.557000	25.820302	0.000329	20.933955
1387.380518	-3.014900	3.524100	-10.623000	25.809721	0.000328	20.922379
1388.374799	-3.002100	3.522100	-10.573000	25.809967	0.000328	20.927368
1389.383049	-3.006000	3.521600	-10.585000	25.835778	0.000328	20.941440
1390.376024	-2.996700	3.522100	-10.554000	25.878384	0.000329	20.946307
1391.374994	-2.978000	3.523300	-10.491000	25.874411	0.000327	20.924301
1392.379269	-2.972200	3.522800	-10.470000	25.850239	0.000327	20.946008
1393.379982	-3.005600	3.520000	-10.578000	25.809667	0.000328	20.946504
1394.378686	-2.997000	3.521300	-10.553000	25.789420	0.000325	20.938495
1395.379099	-2.969800	3.522000	-10.458000	25.777097	0.000327	20.919006
1396.381264	-3.008900	3.519800	-10.589000	25.816350	0.000326	20.923349
1397.378247	-3.012300	3.519500	-10.601000	25.854086	0.000326	20.926168
1398.382213	-2.962300	3.519800	-10.425000	25.879228	0.000326	20.926294
1399.381363	-2.988400	3.519600	-10.517000	25.915099	0.000327	20.927242
1400.377904	-3.004700	3.518300	-10.571000	25.961477	0.000324	20.931635
1401.378855	-2.998400	3.517800	-10.547000	26.007080	0.000326	20.932407
1402.380584	-3.004200	3.518300	-10.568000	25.979336	0.000325	20.940567
1403.380939	-3.002100	3.517300	-10.558000	25.986962	0.000324	20.940643
1404.381380	-2.986900	3.519300	-10.510000	25.939169	0.000324	20.932931
1405.383721	-3.031900	3.516100	-10.660000	25.942076	0.000324	20.923999
1406.384789	-3.012500	3.516700	-10.594000	25.946424	0.000324	20.934056
1407.382392	-2.977700	3.517400	-10.474000	25.966593	0.000325	20.947204
1408.382376	-3.004500	3.516700	-10.565000	25.962571	0.000324	20.919459
1409.382266	-3.000500	3.515600	-10.547000	25.983090	0.000323	20.893609
1410.381217	-2.998600	3.515500	-10.541000	26.034306	0.000322	20.910925
1411.382799	-2.985700	3.515800	-10.496000	25.996547	0.000319	20.920403
1412.380275	-2.993200	3.515100	-10.521000	26.007009	0.000320	20.917164
1413.386375	-3.000800	3.514800	-10.546000	25.987534	0.000322	20.927468
1414.379541	-2.993000	3.514000	-10.517000	25.948262	0.000319	20.901766
1415.382249	-3.007800	3.513600	-10.567000	25.976007	0.000317	20.903088
1416.382278	-3.003800	3.512700	-10.550000	25.988403	0.000318	20.906532
1417.383229	-2.996900	3.513400	-10.528000	25.936066	0.000319	20.911798
1418.389000	-3.010800	3.513200	-10.575000	25.896691	0.000318	20.909700
1419.379594	-3.019700	3.510900	-10.601000	25.940510	0.000317	20.911047
1420.383049	-2.989900	3.511600	-10.499000	25.958198	0.000318	20.911273
1421.380268	-2.983900	3.513200	-10.482000	25.927570	0.000318	20.885248
1422.388634	-2.995300	3.510200	-10.513000	25.933034	0.000317	20.884572
1423.385115	-3.006000	3.510500	-10.551000	25.880769	0.000318	20.897973
1424.382609	-2.993600	3.510600	-10.509000	25.838063	0.000315	20.894902
1425.387027	-2.991200	3.511900	-10.504000	25.828255	0.000317	20.897377
1426.379836	-3.006700	3.509400	-10.551000	25.881909	0.000314	20.901015
1427.391247	-3.000400	3.508800	-10.527000	25.872051	0.000317	20.897751
1428.384212	-3.014900	3.508900	-10.578000	25.905834	0.000314	20.923151
1429.387804	-3.001700	3.510300	-10.536000	25.898729	0.000316	20.898947
1430.382875	-3.004700	3.508800	-10.542000	25.939445	0.000314	20.907132
1431.384755	-2.984300	3.507500	-10.466000	25.905884	0.000314	20.877213
1432.383919	-3.016700	3.506800	-10.578000	25.826191	0.000315	20.881081
1433.385787	-2.999200	3.507900	-10.519000	25.847035	0.000314	20.907707
1434.384692	-2.996000	3.507000	-10.506000	25.824353	0.000314	20.876390
1435.387432	-3.009700	3.507600	-10.555000	25.832800	0.000315	20.900520
1436.391669	-2.989800	3.507000	-10.483000	25.908373	0.000314	20.866911
1437.392325	-3.001900	3.505700	-10.523000	25.982096	0.000312	20.882180
1438.390887	-3.001300	3.505400	-10.520000	25.927749	0.000312	20.880212
1439.388653	-2.978400	3.507300	-10.446000	25.830665	0.000313	20.868980
1440.395330	-2.977500	3.507700	-10.442000	25.812707	0.000311	20.876545
1441.390520	-2.974500	3.505800	-10.427000	25.798074	0.000312	20.905466
1442.394425	-2.995100	3.505400	-10.498000	25.847014	0.000312	20.891092
1443.392918	-3.015300	3.504300	-10.566000	25.887756	0.000311	20.897406
1444.388254	-3.017000	3.504000	-10.570000	25.930957	0.000310	20.877745
1445.392931	-3.000500	3.503000	-10.510000	25.995193	0.000311	20.895811
1446.395241	-2.998400	3.502700	-10.501000	26.030738	0.000311	20.889325
1447.389317	-3.019300	3.503000	-10.576000	25.995243	0.000310	20.878319
1448.392331	-2.999800	3.502000	-10.505000	25.958506	0.000310	20.885981
1449.392709	-2.985100	3.501500	-10.452000	25.969461	0.000310	20.878495
1450.390682	-2.992400	3.501800	-10.477000	25.956471	0.000307	20.894368
1451.395751	-2.998000	3.500800	-10.495000	25.956865	0.000310	20.884806
1452.397295	-2.999000	3.502700	-10.503000	25.989533	0.000309	20.882540
1453.393165	-3.000900	3.501600	-10.508000	26.022319	0.000311	20.868065
1454.395541	-3.018100	3.499900	-10.562000	26.041693	0.000309	20.886106
1455.395730	-2.999700	3.500400	-10.499000	26.003938	0.000308	20.873779
1456.393300	-2.991900	3.500500	-10.472000	25.938508	0.000308	20.872055
1457.395261	-2.977700	3.500200	-10.422000	25.952499	0.000307	20.869042
1458.397927	-2.984600	3.500000	-10.445000	25.950211	0.000307	20.883811
1459.397592	-2.977100	3.500000	-10.419000	25.963651	0.000306	20.864599
1460.397051	-2.994700	3.498700	-10.477000	25.996666	0.000307	20.862681
1461.393898	-2.984900	3.499400	-10.445000	26.008708	0.000305	20.883312
1462.396495	-2.994000	3.499400	-10.476000	26.033548	0.000302	20.864175
1463.397295	-3.010000	3.497900	-10.527000	26.004982	0.000306	20.856811
1464.392191	-2.995700	3.496700	-10.474000	25.953536	0.000303	20.850170
1465.393730	-3.006600	3.496500	-10.511000	25.923580	0.000303	20.878869
1466.396732	-3.002600	3.496700	-10.498000	25.921546	0.000304	20.861179
1467.397909	-2.999300	3.497300	-10.488000	25.912353	0.000301	20.855263
1468.394432	-2.996900	3.496000	-10.476000	25.874272	0.000303	20.868216
1469.400016	-3.018900	3.495500	-10.552000	25.889698	0.000300	20.868065
1470.397733	-3.016200	3.494500	-10.539000	25.899238	0.000300	20.852519
1471.397132	-3.000900	3.496400	-10.491000	25.924549	0.000299	20.858507
1472.399314	-3.007800	3.495100	-10.511000	25.932819	0.000301	20.890521
1473.394053	-2.988200	3.495700	-10.444000	25.982847	0.000299	20.870133
1474.399948	-3.006500	3.493400	-10.502000	26.006098	0.000299	20.865044
1475.398067	-2.953400	3.494900	-10.320000	25.991886	0.000299	20.849344
1476.395028	-2.990100	3.493900	-10.446000	25.990373	0.000299	20.854936
1477.398448	-3.004700	3.491900	-10.491000	26.012304	0.000299	20.864641
1478.401441	-3.000100	3.493500	-10.480000	25.937464	0.000298	20.861050
1479.393376	-3.009500	3.492000	-10.507000	25.943946	0.000298	20.874199
1480.396033	-3.017100	3.491200	-10.532000	25.924470	0.000298	20.866488
1481.402610	-3.015600	3.492900	-10.532000	25.937013	0.000300	20.859649
1482.396475	-3.019800	3.491800	-10.544000	25.943521	0.000298	20.848643
1483.399043	-3.023800	3.490100	-10.552000	25.991210	0.000298	20.855302
1484.399240	-3.013400	3.490200	-10.517000	26.005690	0.000298	20.857522
1485.400050	-3.018800	3.490300	-10.536000	25.964534	0.000298	20.835141
1486.398231	-2.971700	3.491900	-10.376000	25.917534	0.000297	20.852881
1487.401204	-3.008600	3.489400	-10.497000	25.900989	0.000297	20.861865
1488.399568	-3.003000	3.489800	-10.479000	25.851426	0.000296	20.862809
1489.401807	-3.001700	3.489200	-10.473000	25.848226	0.000295	20.847741
1490.403622	-2.992900	3.488800	-10.441000	25.856647	0.000295	20.855726
1491.399602	-2.995900	3.488900	-10.452000	25.907597	0.000297	20.854753
1492.414444	-3.001900	3.488200	-10.471000	25.931371	0.000297	20.863937
1493.397070	-2.986800	3.487900	-10.417000	25.958370	0.000293	20.856448
1494.400871	-2.985600	3.488000	-10.413000	25.949424	0.000293	20.844142
1495.396341	-3.009800	3.487000	-10.494000	25.960529	0.000295	20.854824
1496.398121	-3.010600	3.486700	-10.496000	25.947908	0.000294	20.858740
1497.401168	-3.000000	3.487000	-10.460000	25.985718	0.000292	20.852156
1498.407770	-3.009600	3.486600	-10.493000	26.021857	0.000292	20.854799
1499.402863	-2.993900	3.485200	-10.433000	25.985739	0.000292	20.845539
1500.402632	-2.966400	3.486100	-10.341000	25.979407	0.000292	20.853402
1501.403999	-2.986600	3.484900	-10.407000	26.000344	0.000289	20.851678
1502.399673	-3.000400	3.483900	-10.451000	26.004617	0.000292	20.873039
1503.401115	-2.986000	3.483800	-10.402000	26.029976	0.000292	20.865327
1504.401055	-2.988300	3.484300	-10.410000	26.002057	0.000289	20.848657
1505.405863	-2.994800	3.484900	-10.435000	25.961616	0.000291	20.869192
1506.406012	-2.988200	3.485400	-10.413000	25.950164	0.000289	20.842989
1507.403408	-2.965200	3.484600	-10.331000	25.934271	0.000288	20.857842
1508.406588	-2.978400	3.483400	-10.374000	25.907264	0.000289	20.861056
1509.405945	-2.985900	3.483200	-10.400000	25.906020	0.000287	20.866918
1510.403500	-2.999900	3.482200	-10.446000	25.924080	0.000289	20.830536
1511.403798	-3.002800	3.482000	-10.454000	25.961169	0.000289	20.853571
1512.407351	-2.992300	3.481800	-10.418000	26.009951	0.000287	20.858484
1513.404070	-2.982100	3.481400	-10.381000	26.007863	0.000289	20.850223
1514.406410	-2.975600	3.481700	-10.360000	25.985335	0.000286	20.847030
1515.413026	-2.980700	3.481600	-10.377000	25.959799	0.000288	20.839867
1516.405181	-2.996500	3.479600	-10.426000	25.984666	0.000287	20.827867
1517.405677	-3.006300	3.480200	-10.462000	26.006443	0.000287	20.849271
1518.415124	-2.992900	3.480900	-10.417000	25.996036	0.000285	20.867737
1519.406615	-2.980500	3.480300	-10.372000	25.995192	0.000285	20.851717
1520.405571	-3.005200	3.479100	-10.454000	26.024502	0.000284	20.839440
1521.414131	-3.004600	3.478500	-10.451000	26.049164	0.000284	20.833398
1522.406352	-3.006900	3.479600	-10.461000	26.060686	0.000285	20.849242
1523.411920	-3.009700	3.477700	-10.466000	26.031406	0.000285	20.802755
1524.410683	-3.011200	3.476200	-10.466000	26.008106	0.000282	20.840510
1525.412347	-2.987100	3.478400	-10.389000	26.012325	0.000284	20.828154
1526.412943	-3.004800	3.476200	-10.444000	25.977551	0.000283	20.843477
1527.415127	-2.974000	3.477400	-10.341000	25.961905	0.000282	20.823492
1528.410090	-2.993200	3.476000	-10.404000	25.906878	0.000282	20.844547
1529.410658	-3.008200	3.475900	-10.455000	25.954572	0.000284	20.836986
1530.414806	-3.007200	3.476300	-10.453000	25.957725	0.000282	20.831146
1531.410831	-2.993500	3.475400	-10.402000	25.991134	0.000285	20.829149
1532.411491	-2.997500	3.475900	-10.419000	25.989371	0.000281	20.850611
1533.413732	-3.036100	3.475700	-10.551000	26.010015	0.000281	20.842428
1534.412147	-3.017900	3.475100	-10.487000	26.020519	0.000282	20.838757
1535.417500	-3.032800	3.473600	-10.534000	26.042800	0.000282	20.810883
1536.419999	-2.987300	3.473700	-10.376000	26.065255	0.000281	20.839134
1537.412871	-3.025200	3.472900	-10.506000	26.087907	0.000282	20.837238
1538.414948	-3.023000	3.471000	-10.491000	26.028796	0.000280	20.848969
1539.414834	-2.986300	3.473400	-10.372000	26.051745	0.000280	20.856379
1540.412230	-2.972300	3.474200	-10.325000	26.072309	0.000281	20.822040
1541.414694	-2.998600	3.472500	-10.410000	26.074075	0.000279	20.838039
1542.412062	-2.996600	3.470800	-10.400000	26.111058	0.000278	20.847224
1543.415718	-2.988900	3.472400	-10.378000	26.091214	0.000279	20.820173
1544.412438	-3.008800	3.470500	-10.441000	26.038410	0.000276	20.839188
1545.413279	-2.995500	3.472300	-10.400000	26.055327	0.000276	20.833901
1546.416737	-3.009000	3.470100	-10.441000	26.088933	0.000275	20.833528
1547.415677	-3.006300	3.470500	-10.433000	26.053761	0.000279	20.831380
1548.414936	-3.009800	3.468800	-10.439000	26.018592	0.000276	20.840615
1549.420847	-2.992200	3.470500	-10.385000	26.054040	0.000275	20.824548
1550.417074	-3.013900	3.469400	-10.456000	26.017902	0.000276	20.824749
1551.415420	-2.979000	3.468900	-10.332000	26.024585	0.000275	20.827669
1552.420045	-2.985400	3.468500	-10.354000	25.994974	0.000274	20.814989
1553.416081	-3.013600	3.467400	-10.448000	26.028060	0.000276	20.841592
1554.416741	-2.987200	3.467500	-10.357000	26.025207	0.000274	20.821182
1555.421836	-2.994200	3.467700	-10.382000	26.009905	0.000273	20.807705
1556.415649	-2.999700	3.467500	-10.401000	25.980673	0.000273	20.816743
1557.419952	-3.007100	3.466600	-10.423000	25.954937	0.000271	20.839250
1558.421302	-3.002600	3.466500	-10.407000	26.002032	0.000274	20.826822
1559.420942	-2.994300	3.465600	-10.376000	25.962710	0.000273	20.827619
1560.417459	-2.992900	3.465600	-10.372000	25.932136	0.000272	20.833887
1561.421104	-2.996300	3.466900	-10.387000	25.965645	0.000270	20.832465
1562.418273	-2.987600	3.465400	-10.352000	26.007599	0.000271	20.829095
1563.419055	-3.016900	3.464400	-10.451000	26.018850	0.000270	20.811003
1564.423604	-2.980200	3.465400	-10.326000	26.044956	0.000270	20.824904
1565.419877	-3.000200	3.463400	-10.390000	25.989636	0.000269	20.811049
1566.420604	-2.993800	3.464500	-10.371000	25.966293	0.000271	20.818417
1567.423718	-2.971900	3.464800	-10.296000	25.991649	0.000269	20.818287
1568.426925	-3.004800	3.462600	-10.404000	26.018971	0.000268	20.803538
1569.429353	-2.975100	3.462800	-10.301000	26.008964	0.000269	20.819562
1570.424436	-3.011100	3.462000	-10.423000	26.030820	0.000269	20.808330
1571.424996	-2.969400	3.463400	-10.283000	26.015622	0.000267	20.798276
1572.427839	-2.995300	3.461100	-10.365000	26.006501	0.000269	20.828941
1573.430999	-3.005200	3.461600	-10.401000	25.992718	0.000268	20.810352
1574.426459	-3.000400	3.461200	-10.383000	25.990905	0.000268	20.811850
1575.426464	-2.978000	3.461800	-10.307000	25.943510	0.000269	20.808804
1576.428323	-3.017500	3.459400	-10.438000	26.011918	0.000265	20.813046
1577.425279	-2.973900	3.460400	-10.290000	26.012089	0.000269	20.813693
1578.427551	-2.985900	3.459900	-10.330000	26.051413	0.000266	20.819537
1579.429991	-2.988500	3.460400	-10.341000	26.002375	0.000266	20.803933
1580.424843	-2.999900	3.459800	-10.378000	26.033230	0.000265	20.810751
1581.435931	-3.004200	3.459300	-10.392000	25.994752	0.000267	20.795801
1582.428447	-2.991500	3.460200	-10.350000	26.020780	0.000266	20.828589
1583.426532	-2.966300	3.460200	-10.263000	26.054663	0.000265	20.805733
1584.431302	-3.002300	3.457900	-10.381000	26.051355	0.000265	20.797669
1585.430323	-3.000700	3.457200	-10.373000	26.037570	0.000267	20.785714
1586.424538	-2.999300	3.456800	-10.367000	25.991445	0.000266	20.818556
1587.430108	-2.973400	3.457700	-10.280000	25.952545	0.000264	20.810295
1588.435496	-3.007400	3.457100	-10.396000	25.993555	0.000261	20.810244
1589.427992	-3.019600	3.455100	-10.431000	25.966428	0.000264	20.821397
1590.431812	-2.996400	3.455600	-10.353000	25.958237	0.000261	20.811272
1591.431746	-2.988200	3.457000	-10.329000	25.995045	0.000265	20.775232
1592.429244	-3.003100	3.455500	-10.375000	26.025571	0.000263	20.785987
1593.432366	-2.994800	3.455600	-10.348000	26.009529	0.000263	20.803534
1594.431942	-2.972900	3.455900	-10.273000	26.000241	0.000262	20.799418
1595.429802	-2.997000	3.454800	-10.353000	26.048302	0.000261	20.812145
1596.430680	-3.001800	3.453200	-10.365000	26.054855	0.000263	20.814461
1597.433076	-2.974000	3.453600	-10.271000	25.981756	0.000262	20.806925
1598.435359	-3.002400	3.452800	-10.366000	25.951233	0.000261	20.797123
1599.433494	-3.001000	3.452700	-10.361000	25.968599	0.000259	20.813621
1600.433161	-3.013900	3.451800	-10.402000	25.939087	0.000260	20.793455
1601.437943	-3.009000	3.451600	-10.385000	25.992518	0.000259	20.803039
1602.433176	-3.015800	3.452100	-10.410000	26.011846	0.000258	20.798750
1603.437738	-3.025700	3.451200	-10.442000	25.998632	0.000260	20.787845
1604.431423	-2.999700	3.453000	-10.356000	25.954143	0.000257	20.781555
1605.434834	-3.008400	3.450700	-10.380000	25.955935	0.000260	20.797105
1606.437136	-2.965800	3.451300	-10.236000	25.975335	0.000258	20.803793
1607.432304	-2.995700	3.450800	-10.337000	26.039000	0.000257	20.780513
1608.437217	-2.978100	3.450800	-10.275000	26.030355	0.000256	20.802173
1609.437066	-2.984500	3.449200	-10.294000	26.052736	0.000255	20.804271
1610.434294	-2.989800	3.450800	-10.316000	26.108646	0.000258	20.791696
1611.440446	-3.002200	3.447900	-10.351000	26.127025	0.000256	20.783610
1612.437501	-3.003600	3.448700	-10.357000	26.112421	0.000255	20.786006
1613.436981	-3.014200	3.448300	-10.392000	26.068216	0.000254	20.799437
1614.442698	-3.011100	3.449100	-10.384000	26.033241	0.000254	20.790374
1615.440135	-2.955800	3.448800	-10.194000	26.035872	0.000254	20.790647
1616.435934	-3.009600	3.446400	-10.372000	25.983044	0.000252	20.789253
1617.441529	-3.003500	3.447700	-10.354000	26.002043	0.000252	20.794591
1618.440180	-3.005900	3.446700	-10.359000	26.033512	0.000254	20.775948
1619.438019	-2.998300	3.446200	-10.331000	26.037910	0.000252	20.799806
1620.445046	-2.978500	3.447100	-10.266000	26.052518	0.000253	20.799311
1621.443532	-2.964800	3.447000	-10.218000	26.068931	0.000253	20.769809
1622.440640	-3.015300	3.444300	-10.385000	26.032293	0.000251	20.790370
1623.446217	-2.977800	3.446100	-10.260000	26.063318	0.000251	20.790722
1624.444999	-2.973300	3.446000	-10.244000	26.085176	0.000249	20.759104
1625.440122	-2.995100	3.444000	-10.314000	26.054795	0.000250	20.773623
1626.447855	-2.995700	3.445100	-10.320000	26.026780	0.000253	20.772977
1627.447740	-2.979900	3.446200	-10.267000	26.043423	0.000251	20.780215
1628.442401	-2.996800	3.443500	-10.319000	26.095855	0.000249	20.769834
1629.447970	-3.002000	3.442000	-10.331000	26.038850	0.000249	20.782259
1630.446027	-2.999400	3.442000	-10.323000	26.042826	0.000249	20.772977
1631.444595	-3.009100	3.442500	-10.358000	26.030681	0.000250	20.766939
1632.443428	-2.976500	3.442200	-10.245000	26.025364	0.000248	20.770132
1633.445323	-3.022100	3.441600	-10.400000	26.004499	0.000249	20.780937
1634.446146	-2.990800	3.443900	-10.299000	26.020620	0.000248	20.796660
1635.446001	-3.000300	3.439900	-10.320000	26.045039	0.000247	20.790848
1636.443547	-2.993400	3.441200	-10.299000	26.029240	0.000248	20.780190
1637.445086	-2.989300	3.440200	-10.283000	26.064362	0.000247	20.788452
1638.448986	-3.006300	3.440600	-10.342000	26.111502	0.000246	20.781289
1639.447648	-2.999500	3.440200	-10.318000	26.033341	0.000247	20.767715
1640.444519	-3.019700	3.439200	-10.384000	25.990370	0.000245	20.741610
1641.444539	-3.027100	3.438900	-10.409000	26.010366	0.000247	20.782564
1642.448843	-2.993800	3.438800	-10.294000	26.034281	0.000246	20.775772
1643.452612	-3.010500	3.438500	-10.350000	26.010438	0.000246	20.777420
1644.450764	-3.037100	3.437300	-10.438000	26.014388	0.000246	20.754837
1645.450548	-2.984000	3.438600	-10.260000	26.007209	0.000245	20.773228
1646.452970	-2.999300	3.436900	-10.307000	26.005100	0.000246	20.769212
1647.447120	-3.012400	3.436600	-10.351000	26.004549	0.000246	20.756331
1648.450882	-3.013300	3.436100	-10.353000	25.956239	0.000246	20.735295
1649.446096	-2.989500	3.436800	-10.273000	25.951194	0.000242	20.761521
1650.449896	-3.017600	3.436900	-10.370000	25.963522	0.000243	20.767269
1651.451429	-2.998900	3.436000	-10.303000	25.958845	0.000245	20.773476
1652.452929	-3.024900	3.434600	-10.389000	25.983365	0.000242	20.752591
1653.447634	-3.006000	3.435100	-10.325000	25.998317	0.000243	20.755760
1654.446926	-2.988600	3.435200	-10.265000	26.022754	0.000245	20.758975
1655.447694	-3.019800	3.434000	-10.369000	26.023280	0.000244	20.746226
1656.451139	-2.994900	3.435100	-10.287000	26.074844	0.000241	20.765319
1657.447289	-2.995500	3.435300	-10.289000	26.105271	0.000243	20.745630
1658.450116	-3.008900	3.433200	-10.329000	26.138826	0.000241	20.758009
1659.453810	-2.999400	3.433500	-10.297000	26.121312	0.000242	20.756532
1660.450649	-3.002800	3.432700	-10.307000	26.120569	0.000241	20.749146
1661.449819	-2.986700	3.433200	-10.253000	26.110805	0.000241	20.772528
1662.452606	-2.995600	3.432800	-10.282000	26.143866	0.000239	20.736520
1663.449577	-3.016100	3.432800	-10.353000	26.105593	0.000243	20.726038
1664.452372	-2.984600	3.431300	-10.241000	26.109443	0.000239	20.733700
1665.450462	-3.009900	3.431100	-10.326000	26.116597	0.000240	20.754639
1666.448983	-2.993600	3.431100	-10.270000	26.148313	0.000239	20.744308
1667.451811	-2.979300	3.432300	-10.225000	26.115628	0.000240	20.746079
1668.450409	-3.001700	3.430500	-10.296000	26.105597	0.000240	20.733154
1669.450359	-2.989500	3.431400	-10.257000	26.106047	0.000239	20.763006
1670.451220	-3.014400	3.430300	-10.340000	26.057412	0.000236	20.753493
1671.454643	-2.972200	3.429900	-10.194000	26.065389	0.000236	20.750602
1672.448915	-2.987100	3.429900	-10.245000	26.027159	0.000235	20.746805
1673.454805	-3.009800	3.428300	-10.317000	26.023262	0.000235	20.744786
1674.461460	-2.987900	3.428200	-10.242000	26.036677	0.000237	20.754470
1675.450868	-2.976300	3.428700	-10.204000	26.021772	0.000235	20.757987
1676.456796	-3.000300	3.427800	-10.284000	26.060047	0.000237	20.745235
1677.451004	-2.995400	3.428000	-10.268000	26.050413	0.000234	20.724648
1678.451659	-2.991200	3.427600	-10.252000	26.093381	0.000233	20.741743
1679.456483	-2.993500	3.426800	-10.257000	26.088737	0.000234	20.739922
1680.454574	-3.002500	3.428000	-10.292000	26.082703	0.000235	20.722004
1681.451486	-3.033300	3.426100	-10.392000	26.109776	0.000231	20.724077
1682.455454	-3.010400	3.425800	-10.312000	26.137964	0.000233	20.739125
1683.453296	-2.983000	3.426800	-10.221000	26.154258	0.000233	20.737954
1684.452114	-3.018300	3.425600	-10.338000	26.162577	0.000234	20.733984
1685.457039	-3.008700	3.424700	-10.303000	26.165111	0.000231	20.737005
1686.456740	-3.043300	3.423900	-10.419000	26.136828	0.000231	20.740353
1687.453435	-2.998600	3.425300	-10.271000	26.088795	0.000231	20.742825
1688.456083	-2.988600	3.425400	-10.236000	26.104936	0.000231	20.749560
1689.452855	-2.989500	3.424200	-10.236000	26.049973	0.000230	20.751708
1690.455259	-3.012000	3.421700	-10.305000	26.011279	0.000230	20.751712
1691.457154	-2.990800	3.423200	-10.237000	26.010435	0.000231	20.764141
1692.453322	-2.985900	3.422700	-10.219000	26.073548	0.000230	20.730349
1693.455187	-3.000600	3.424300	-10.273000	26.028991	0.000228	20.740109
1694.458388	-2.959800	3.423200	-10.132000	26.033460	0.000229	20.735590
1695.454855	-2.998100	3.421000	-10.255000	26.073326	0.000229	20.770431
1696.458726	-2.979300	3.421300	-10.192000	26.095184	0.000230	20.757305
1697.457626	-2.998800	3.420600	-10.256000	26.074570	0.000229	20.743705
1698.459660	-2.999300	3.419400	-10.255000	26.104897	0.000228	20.758056
1699.465512	-3.005200	3.419900	-10.277000	26.152808	0.000228	20.761627
1700.458679	-2.991300	3.420700	-10.231000	26.137979	0.000227	20.748149
1701.456088	-2.978400	3.421300	-10.189000	26.135298	0.000228	20.754938
1702.458192	-3.012500	3.418000	-10.295000	26.143170	0.000227	20.734398
1703.458702	-3.006500	3.419100	-10.279000	26.119479	0.000225	20.755639
1704.457526	-3.001000	3.418700	-10.259000	26.119279	0.000225	20.726513
1705.458762	-3.005500	3.418300	-10.273000	26.085875	0.000224	20.752219
1706.457481	-3.004900	3.417900	-10.270000	26.052666	0.000226	20.763897
1707.456782	-2.998300	3.418100	-10.248000	26.038462	0.000225	20.775231
1708.456216	-3.012200	3.418100	-10.296000	26.047332	0.000224	20.777030
1709.464914	-2.998000	3.418400	-10.247000	26.057238	0.000224	20.750947
1710.459623	-2.992700	3.417400	-10.227000	26.064346	0.000225	20.760934
1711.459779	-3.006900	3.416700	-10.273000	26.058332	0.000224	20.732131
1712.467050	-2.989200	3.416600	-10.212000	26.082003	0.000224	20.753545
1713.460970	-2.990300	3.417900	-10.219000	26.164683	0.000225	20.762654
1714.461963	-2.977900	3.415900	-10.171000	26.188373	0.000224	20.760855
1715.460835	-3.002200	3.416300	-10.255000	26.195776	0.000224	20.751224
1716.460967	-2.999900	3.414700	-10.243000	26.191061	0.000223	20.735106
1717.466472	-2.954700	3.416100	-10.093000	26.169481	0.000222	20.770795
1718.463940	-2.968800	3.415800	-10.139000	26.143800	0.000223	20.753997
1719.459655	-2.980400	3.414700	-10.177000	26.144296	0.000221	20.761609
1720.459086	-2.989400	3.413300	-10.203000	26.099246	0.000222	20.763758
1721.463714	-2.973700	3.413600	-10.150000	26.139556	0.000219	20.756372
1722.462535	-2.987800	3.413700	-10.198000	26.105255	0.000223	20.773589
1723.459382	-2.988100	3.413500	-10.199000	26.114096	0.000223	20.752126
1724.466524	-2.995700	3.412200	-10.221000	26.145144	0.000220	20.761512
1725.460826	-2.993000	3.411300	-10.208000	26.114546	0.000221	20.752579
1726.461830	-3.009300	3.411100	-10.264000	26.077542	0.000217	20.768977
1727.461405	-2.983500	3.412100	-10.178000	26.061718	0.000221	20.760191
1728.461611	-2.991800	3.412100	-10.207000	26.065494	0.000221	20.770148
1729.469907	-2.986700	3.411400	-10.188000	26.115269	0.000219	20.769900
1730.460476	-2.981500	3.411200	-10.170000	26.090805	0.000217	20.770924
1731.464882	-2.992600	3.410400	-10.205000	26.086984	0.000219	20.755230
1732.459875	-3.006700	3.409400	-10.249000	26.094234	0.000218	20.768679
1733.461791	-2.997200	3.410200	-10.220000	26.103375	0.000219	20.757949
1734.462198	-3.009800	3.409200	-10.259000	26.140951	0.000216	20.764886
1735.461717	-2.988700	3.409500	-10.189000	26.180023	0.000215	20.743455
1736.465758	-3.002600	3.408600	-10.234000	26.169960	0.000219	20.755155
1737.461311	-2.970200	3.410000	-10.128000	26.183026	0.000216	20.763068
1738.461289	-3.008600	3.407800	-10.252000	26.123791	0.000217	20.757127
1739.462442	-3.009900	3.407600	-10.256000	26.110010	0.000216	20.783109
1740.465972	-2.997800	3.408200	-10.216000	26.116341	0.000216	20.755331
1741.462137	-3.002400	3.406000	-10.226000	26.190033	0.000216	20.769161
1742.465071	-3.008100	3.408200	-10.251000	26.178411	0.000215	20.769811
1743.465854	-3.034900	3.404700	-10.333000	26.150596	0.000214	20.763672
1744.462546	-3.017400	3.407000	-10.279000	26.140816	0.000214	20.760482
1745.464624	-3.017300	3.406000	-10.276000	26.163984	0.000215	20.780444
1746.466198	-2.981300	3.407100	-10.156000	26.189514	0.000213	20.774330
1747.470763	-3.009600	3.404800	-10.246000	26.237864	0.000210	20.774079
1748.473578	-3.017500	3.404200	-10.272000	26.246211	0.000214	20.767767
1749.469862	-2.989600	3.405700	-10.181000	26.279042	0.000210	20.769466
1750.463572	-2.976700	3.405600	-10.136000	26.223863	0.000212	20.782294
1751.470694	-2.995000	3.403300	-10.192000	26.219645	0.000211	20.766676
1752.471380	-3.007900	3.402500	-10.233000	26.195356	0.000211	20.774510
1753.466309	-3.009800	3.403100	-10.242000	26.159644	0.000211	20.780351
1754.467103	-3.002100	3.402200	-10.212000	26.097356	0.000212	20.781773
1755.470214	-3.038200	3.402300	-10.336000	26.097284	0.000208	20.773641
1756.468458	-3.019000	3.401000	-10.267000	26.086802	0.000209	20.780653
1757.467364	-3.008700	3.401100	-10.232000	26.101056	0.000206	20.782172
1758.473805	-2.986500	3.402600	-10.161000	26.132354	0.000209	20.771421
1759.470724	-2.993800	3.401500	-10.182000	26.138685	0.000207	20.797223
1760.469586	-3.016500	3.399300	-10.253000	26.110848	0.000206	20.768777
1761.471129	-2.982300	3.399900	-10.139000	26.097309	0.000207	20.782201
1762.472869	-2.978800	3.401900	-10.132000	26.108435	0.000206	20.780103
1763.469050	-2.992800	3.398900	-10.171000	26.129273	0.000208	20.786817
1764.468723	-3.006600	3.398800	-10.218000	26.150286	0.000209	20.799396
1765.468145	-2.983400	3.400000	-10.143000	26.167845	0.000207	20.783850
1766.468761	-2.998500	3.400400	-10.194000	26.222480	0.000207	20.791336
1767.475915	-2.994300	3.399400	-10.178000	26.259434	0.000205	20.772994
1768.469789	-3.006900	3.398400	-10.218000	26.253225	0.000205	20.790463
1769.471999	-3.000000	3.398600	-10.195000	26.190791	0.000207	20.810701
1770.473595	-2.997100	3.397700	-10.182000	26.163101	0.000204	20.790937
1771.469250	-3.012400	3.396900	-10.232000	26.129924	0.000202	20.790790
1772.474625	-3.007500	3.397000	-10.216000	26.070264	0.000205	20.795804
1773.471040	-2.987100	3.397600	-10.149000	26.134292	0.000204	20.781429
1774.470525	-3.020700	3.395200	-10.255000	26.104141	0.000202	20.799971
1775.473290	-3.016700	3.395700	-10.243000	26.192164	0.000205	20.777941
1776.474237	-3.012300	3.395000	-10.225000	26.221637	0.000203	20.796652
1777.470955	-2.976000	3.396400	-10.107000	26.226008	0.000202	20.782079
1778.472132	-2.990800	3.395300	-10.154000	26.207757	0.000203	20.808308
1779.473151	-2.976200	3.396300	-10.107000	26.212003	0.000203	20.802619
1780.470813	-2.988000	3.394200	-10.141000	26.219177	0.000200	20.795603
1781.475649	-2.994000	3.395200	-10.163000	26.264477	0.000202	20.813151
1782.476904	-2.997300	3.393900	-10.172000	26.273810	0.000202	20.811624
1783.472697	-2.990600	3.393900	-10.148000	26.239767	0.000202	20.795905
1784.472368	-3.009800	3.393900	-10.214000	26.228021	0.000199	20.788369
1785.475124	-3.000000	3.393600	-10.180000	26.255041	0.000199	20.805090
1786.472839	-2.989100	3.393500	-10.142000	26.281731	0.000203	20.798721
1787.478386	-3.025400	3.391800	-10.260000	26.273660	0.000200	20.793929
1788.477907	-3.002600	3.391900	-10.184000	26.226477	0.000199	20.810050
1789.474055	-2.978400	3.391700	-10.101000	26.230376	0.000197	20.807331
1790.472412	-2.992300	3.392100	-10.149000	26.202934	0.000200	20.798721
1791.474668	-2.980100	3.392800	-10.110000	26.180385	0.000199	20.808779
1792.473325	-2.968700	3.391800	-10.068000	26.191981	0.000198	20.802888
1793.478991	-2.988900	3.390100	-10.132000	26.215524	0.000197	20.814691
1794.476885	-2.990700	3.389900	-10.137000	26.207999	0.000196	20.805233
1795.475363	-3.022700	3.388900	-10.242000	26.232364	0.000197	20.795578
1796.477001	-2.982200	3.388900	-10.106000	26.242172	0.000195	20.813495
1797.477772	-3.003800	3.388500	-10.177000	26.212618	0.000195	20.792805
1798.478285	-3.002800	3.388500	-10.174000	26.199059	0.000198	20.823750
1799.479846	-2.992800	3.388700	-10.140000	26.231095	0.000194	20.801415
1800.480094	-2.996500	3.388900	-10.153000	26.244778	0.000195	20.808527
1801.477206	-3.012500	3.387700	-10.204000	26.288161	0.000195	20.807554
1802.478580	-3.013000	3.387400	-10.205000	26.336807	0.000193	20.827518
1803.482467	-3.005100	3.387200	-10.178000	26.351854	0.000194	20.826045
1804.481582	-3.012400	3.386600	-10.200000	26.357787	0.000195	20.822051
1805.478742	-2.998900	3.387300	-10.157000	26.380629	0.000194	20.808972
1806.482222	-2.986500	3.387100	-10.115000	26.362998	0.000193	20.818279
1807.481223	-2.987600	3.386300	-10.116000	26.358730	0.000195	20.806404
1808.484134	-3.005800	3.386000	-10.177000	26.358434	0.000194	20.813218
1809.485741	-2.991900	3.385700	-10.129000	26.384307	0.000193	20.805557
1810.483125	-2.990500	3.385500	-10.122000	26.355674	0.000194	20.822299
1811.484402	-3.002600	3.383900	-10.159000	26.339362	0.000193	20.816810
1812.479891	-2.984700	3.384200	-10.100000	26.281351	0.000189	20.815409
1813.482461	-2.988700	3.383300	-10.111000	26.267572	0.000189	20.816735
1814.481058	-2.995400	3.384200	-10.136000	26.247902	0.000190	20.805977
1815.479695	-2.978300	3.384500	-10.079000	26.247827	0.000190	20.842410
1816.481997	-3.013800	3.383100	-10.195000	26.242486	0.000190	20.808595
1817.482642	-2.999700	3.383000	-10.146000	26.241521	0.000191	20.814738
1818.479845	-3.012200	3.384000	-10.192000	26.253539	0.000191	20.806900
1819.486082	-2.986700	3.381800	-10.099000	26.315000	0.000189	20.851121
1820.481867	-2.987900	3.382700	-10.107000	26.302658	0.000189	20.833028
1821.482267	-3.011300	3.381100	-10.180000	26.309363	0.000189	20.813689
1822.485852	-2.983400	3.380700	-10.085000	26.311000	0.000190	20.822446
1823.489836	-3.009500	3.381600	-10.176000	26.299155	0.000187	20.820499
1824.488768	-3.021400	3.380600	-10.213000	26.285944	0.000189	20.818128
1825.488516	-2.992700	3.380800	-10.117000	26.253785	0.000187	20.831329
1826.485171	-3.003000	3.379900	-10.148000	26.258457	0.000187	20.827963
1827.481094	-2.994300	3.379700	-10.118000	26.279343	0.000187	20.826193
1828.486494	-3.007100	3.379600	-10.162000	26.278599	0.000186	20.830187
1829.483957	-2.993600	3.378700	-10.113000	26.273527	0.000187	20.808969
1830.483843	-2.983300	3.377500	-10.075000	26.225972	0.000184	20.821871
1831.487549	-3.007000	3.377000	-10.154000	26.224932	0.000188	20.832205
1832.484037	-3.021000	3.377600	-10.203000	26.193418	0.000187	20.825194
1833.483933	-2.997900	3.378000	-10.126000	26.187602	0.000185	20.831203
1834.487870	-3.006100	3.377500	-10.152000	26.218476	0.000185	20.839943
1835.484101	-2.984100	3.378200	-10.080000	26.249614	0.000184	20.825715
1836.489743	-3.038400	3.375600	-10.255000	26.328386	0.000183	20.814314
1837.491911	-3.006800	3.376900	-10.152000	26.360464	0.000184	20.830431
1838.487971	-3.007600	3.375200	-10.150000	26.351203	0.000184	20.845779
1839.484626	-3.002100	3.374500	-10.130000	26.377848	0.000184	20.846954
1840.487272	-3.006200	3.375200	-10.145000	26.394807	0.000182	20.846455
1841.490145	-3.001000	3.376100	-10.131000	26.356518	0.000185	20.828362
1842.490446	-3.019900	3.375600	-10.193000	26.348222	0.000183	20.838990
1843.493357	-3.000900	3.374700	-10.126000	26.343111	0.000182	20.835277
1844.488974	-3.034600	3.373600	-10.237000	26.357958	0.000181	20.836448
1845.486487	-3.005900	3.373600	-10.140000	26.320265	0.000182	20.855937
1846.490436	-2.997700	3.373000	-10.111000	26.364413	0.000182	20.852417
1847.491163	-3.014600	3.373700	-10.170000	26.402455	0.000180	20.855564
1848.497235	-2.996000	3.372900	-10.104000	26.358852	0.000180	20.850621
1849.493856	-3.006900	3.371700	-10.138000	26.359202	0.000177	20.820154
1850.490170	-2.992500	3.371300	-10.088000	26.389471	0.000179	20.859583
1851.492248	-2.977800	3.372900	-10.042000	26.399696	0.000177	20.848049
1852.491238	-2.988500	3.372400	-10.078000	26.412759	0.000177	20.850273
1853.495827	-2.984500	3.371800	-10.062000	26.474508	0.000178	20.851171
1854.490647	-3.000500	3.370100	-10.111000	26.500481	0.000180	20.853096
1855.502715	-3.006700	3.369800	-10.131000	26.484789	0.000176	20.848229
1856.492568	-2.995000	3.370400	-10.093000	26.437194	0.000179	20.834055
1857.492392	-2.990700	3.368600	-10.073000	26.421004	0.000177	20.850973
1858.493576	-2.993500	3.370500	-10.089000	26.371372	0.000178	20.843290
1859.493846	-2.997300	3.370300	-10.101000	26.320640	0.000177	20.851573
1860.495818	-3.012400	3.369800	-10.150000	26.295209	0.000175	20.853042
1861.495049	-2.997900	3.368900	-10.099000	26.350313	0.000178	20.851049
1862.491434	-3.022200	3.368000	-10.179000	26.353244	0.000175	20.847831
1863.491892	-2.989100	3.368000	-10.066000	26.419614	0.000176	20.865222
1864.493385	-3.013500	3.366500	-10.144000	26.413184	0.000176	20.837899
1865.489851	-3.021600	3.366100	-10.170000	26.412145	0.000175	20.853923
1866.491178	-3.002700	3.367300	-10.110000	26.406605	0.000174	20.860682
1867.498465	-2.994100	3.367900	-10.083000	26.460409	0.000176	20.846010
1868.494548	-3.028300	3.367300	-10.196000	26.418349	0.000174	20.856365
1869.491660	-3.002500	3.366200	-10.106000	26.421505	0.000173	20.865226
1870.497776	-3.002000	3.366500	-10.106000	26.335863	0.000175	20.870664
1871.492492	-3.014700	3.365700	-10.146000	26.333930	0.000175	20.868721
1872.495190	-2.974300	3.365900	-10.010000	26.268845	0.000173	20.859264
1873.498647	-3.019500	3.365500	-10.160000	26.286699	0.000175	20.854921
1874.494696	-2.970300	3.365200	-9.994400	26.298198	0.000172	20.855571
1875.497440	-2.972300	3.365300	-10.001000	26.289609	0.000173	20.890560
1876.499457	-3.010400	3.363500	-10.125000	26.331996	0.000173	20.869149
1877.493819	-2.991100	3.364400	-10.062000	26.364224	0.000171	20.850805
1878.493720	-2.968800	3.362700	-9.981200	26.401795	0.000170	20.875761
1879.512097	-2.997700	3.363200	-10.081000	26.395461	0.000169	20.869871
1880.494370	-2.987000	3.362500	-10.043000	26.441297	0.000171	20.869472
1881.497246	-3.004300	3.361000	-10.096000	26.476677	0.000169	20.886540
1882.497723	-3.006500	3.362400	-10.108000	26.427370	0.000171	20.874440
1883.502306	-2.984000	3.362600	-10.032000	26.429754	0.000171	20.871146
1884.495379	-2.969000	3.362100	-9.980200	26.391445	0.000169	20.880532
1885.503535	-3.011000	3.361500	-10.120000	26.400379	0.000170	20.875287
1886.495952	-2.989700	3.360400	-10.046000	26.392806	0.000167	20.895649
1887.497044	-2.990500	3.360700	-10.049000	26.422556	0.000167	20.877662
1888.502458	-3.006600	3.360000	-10.101000	26.454781	0.000166	20.882550
1889.498848	-2.985100	3.360800	-10.032000	26.451800	0.000168	20.876236
1890.499489	-2.981000	3.360600	-10.017000	26.430547	0.000168	20.887589
1891.502572	-3.015100	3.357800	-10.123000	26.403832	0.000168	20.884446
1892.500623	-2.968400	3.360800	-9.974900	26.379153	0.000166	20.881455
1893.497811	-2.998800	3.358700	-10.071000	26.377091	0.000168	20.890761
1894.506104	-3.007700	3.357800	-10.098000	26.429657	0.000167	20.892384
1895.499927	-3.004300	3.358300	-10.089000	26.419203	0.000165	20.876663
1896.501289	-3.006200	3.357600	-10.093000	26.439543	0.000167	20.893311
1897.507698	-3.010400	3.356700	-10.104000	26.418239	0.000165	20.872375
1898.503377	-3.031300	3.356100	-10.173000	26.437877	0.000165	20.891163
1899.505989	-3.018000	3.357200	-10.131000	26.501762	0.000164	20.883779
1900.503480	-3.006800	3.356300	-10.091000	26.487117	0.000164	20.897033
1901.505092	-3.001600	3.356000	-10.073000	26.459160	0.000165	20.893588
1902.505991	-3.015800	3.355300	-10.118000	26.443696	0.000162	20.890374
1903.511896	-3.012100	3.354200	-10.103000	26.463434	0.000163	20.892669
1904.502693	-2.984200	3.357500	-10.018000	26.534493	0.000162	20.906720
1905.501510	-2.997000	3.355500	-10.055000	26.553757	0.000162	20.890999
1906.505910	-3.002700	3.354500	-10.071000	26.600104	0.000160	20.911508
1907.506914	-2.996500	3.353400	-10.048000	26.565896	0.000161	20.891821
1908.505422	-2.999600	3.354500	-10.062000	26.565178	0.000160	20.878772
1909.505943	-2.992600	3.353300	-10.035000	26.532877	0.000159	20.897985
1910.510098	-2.986300	3.353600	-10.014000	26.587551	0.000159	20.902209
1911.508279	-3.007000	3.352600	-10.081000	26.592390	0.000160	20.888108
1912.516356	-3.012600	3.351900	-10.097000	26.518437	0.000158	20.899117
1913.502080	-3.003700	3.352600	-10.069000	26.503564	0.000158	20.913563
1914.500916	-2.991100	3.352000	-10.025000	26.481647	0.000159	20.902913
1915.506571	-3.015100	3.351600	-10.104000	26.450934	0.000158	20.874890
1916.502840	-3.011500	3.351600	-10.093000	26.482561	0.000158	20.890558
1917.502197	-3.020500	3.352300	-10.125000	26.522190	0.000159	20.894354
1918.507012	-3.005200	3.352000	-10.073000	26.525442	0.000159	20.914691
1919.504873	-3.019300	3.348700	-10.110000	26.525942	0.000157	20.897178
1920.501510	-2.995800	3.350600	-10.037000	26.520749	0.000159	20.907130
1921.506034	-2.998700	3.350800	-10.047000	26.582917	0.000157	20.899922
1922.501307	-3.018400	3.349100	-10.108000	26.639146	0.000156	20.897178
1923.505953	-3.022000	3.348700	-10.119000	26.642648	0.000155	20.913025
1924.503737	-3.002800	3.349000	-10.055000	26.677200	0.000156	20.900346
1925.502582	-3.013400	3.348300	-10.088000	26.682538	0.000154	20.902867
1926.502197	-3.027000	3.348600	-10.135000	26.721466	0.000157	20.908338
1927.511607	-2.985600	3.349200	-9.998100	26.653054	0.000154	20.895512
1928.512224	-3.017100	3.347300	-10.098000	26.603854	0.000154	20.905321
1929.502323	-3.001200	3.348000	-10.048000	26.565698	0.000153	20.899682
1930.509234	-2.978300	3.347900	-9.969400	26.566992	0.000153	20.886285
1931.503078	-3.007800	3.347700	-10.068000	26.515351	0.000153	20.908342
1932.506873	-3.006400	3.346200	-10.060000	26.562225	0.000154	20.893346
1933.508579	-2.994600	3.345700	-10.018000	26.613688	0.000154	20.884388
1934.508150	-3.008200	3.345800	-10.064000	26.654476	0.000152	20.895993
1935.507839	-3.004900	3.346300	-10.055000	26.713782	0.000152	20.901087
1936.507780	-2.996400	3.344900	-10.022000	26.685630	0.000152	20.887484
1937.507169	-2.977600	3.345700	-9.960400	26.692258	0.000152	20.895570
1938.506761	-2.990100	3.343600	-9.997100	26.690179	0.000149	20.872618
1939.519810	-2.997900	3.344000	-10.024000	26.658504	0.000151	20.875862
1940.502830	-3.016900	3.343800	-10.086000	26.646140	0.000150	20.868175
1941.508977	-2.990800	3.344800	-10.003000	26.673275	0.000151	20.879806
1942.507717	-2.982800	3.343100	-9.971200	26.670048	0.000148	20.875140
1943.505263	-3.000700	3.343200	-10.032000	26.658282	0.000150	20.894604
1944.504502	-2.980000	3.342600	-9.959400	26.658457	0.000149	20.865385
1945.507725	-2.976300	3.343200	-9.949500	26.600714	0.000148	20.879881
1946.504861	-2.986600	3.341700	-9.980000	26.557698	0.000146	20.871728
1947.520036	-3.017200	3.342100	-10.083000	26.585278	0.000146	20.865787
1948.508058	-3.002300	3.341600	-10.031000	26.624548	0.000148	20.875392
1949.505459	-2.996400	3.341700	-10.011000	26.640017	0.000146	20.854433
1950.515165	-2.985100	3.341700	-9.974600	26.657368	0.000148	20.884202
1951.505956	-3.000500	3.340400	-10.022000	26.657893	0.000146	20.870033
1952.509220	-2.997100	3.341700	-10.014000	26.531058	0.000145	20.874347
1953.504847	-2.989200	3.340200	-9.983700	26.486495	0.000146	20.853737
1954.511168	-3.011500	3.339100	-10.055000	26.521624	0.000145	20.862493
1955.504994	-2.996000	3.339700	-10.005000	26.491037	0.000142	20.873474
1956.509771	-2.996000	3.338700	-10.002000	26.527534	0.000145	20.872702
1957.513130	-2.996500	3.339100	-10.005000	26.529325	0.000145	20.859804
1958.507311	-3.035800	3.336800	-10.128000	26.552539	0.000145	20.858482
1959.508167	-3.016400	3.338800	-10.071000	26.555615	0.000144	20.850669
1960.509090	-3.021200	3.337700	-10.083000	26.568222	0.000144	20.862867
1961.516298	-3.008600	3.336700	-10.038000	26.570313	0.000142	20.859279
1962.509820	-2.981100	3.337900	-9.949400	26.605339	0.000142	20.857030
1963.512550	-2.994100	3.335800	-9.986300	26.640814	0.000142	20.845278
1964.514148	-2.995300	3.336000	-9.991500	26.691476	0.000142	20.855432
1965.513530	-3.007500	3.335800	-10.032000	26.682365	0.000143	20.857177
1966.513412	-2.989000	3.335300	-9.968200	26.677728	0.000140	20.854412
1967.510828	-2.986600	3.336300	-9.962900	26.718113	0.000141	20.856607
1968.517869	-3.008600	3.334300	-10.031000	26.732708	0.000140	20.870331
1969.516078	-2.982000	3.335900	-9.946500	26.749983	0.000139	20.860672
1970.520253	-3.011100	3.334600	-10.040000	26.782327	0.000139	20.858579
1971.514155	-2.985700	3.335200	-9.957400	26.707737	0.000140	20.841908
1972.514202	-2.974300	3.333600	-9.914600	26.653620	0.000136	20.860996
1973.517590	-2.969500	3.333700	-9.897200	26.703689	0.000141	20.846847
1974.518708	-3.025100	3.331400	-10.077000	26.776167	0.000140	20.845274
1975.516578	-2.992900	3.333300	-9.975600	26.797932	0.000138	20.829699
1976.516573	-2.991400	3.332800	-9.969200	26.750304	0.000138	20.834918
1977.517726	-2.984100	3.334400	-9.948800	26.668680	0.000137	20.838204
1978.518903	-2.966100	3.333600	-9.886500	26.675287	0.000138	20.840579
1979.519641	-3.018900	3.330900	-10.055000	26.741465	0.000137	20.841204
1980.515732	-2.990500	3.330600	-9.959400	26.773555	0.000137	20.853553
1981.523162	-3.033600	3.329900	-10.101000	26.799814	0.000135	20.838229
1982.520122	-3.003000	3.331800	-10.005000	26.771719	0.000136	20.840801
1983.526934	-2.983600	3.330300	-9.934600	26.732425	0.000136	20.845392
1984.520337	-3.006400	3.329700	-10.010000	26.726119	0.000136	20.831466
1985.526868	-2.992600	3.329700	-9.962400	26.764966	0.000137	20.834961
1986.519717	-2.999300	3.328700	-9.983000	26.766556	0.000135	20.827077
1987.524079	-3.007200	3.329000	-10.010000	26.708915	0.000136	20.829817
1988.523274	-3.004800	3.328500	-10.001000	26.710831	0.000135	20.820837
1989.522609	-2.969900	3.328300	-9.883800	26.756231	0.000135	20.855575
1990.528277	-2.999800	3.327900	-9.982200	26.836205	0.000134	20.835938
1991.520684	-2.987800	3.326600	-9.938400	26.812226	0.000135	20.825579
1992.523508	-2.986200	3.327400	-9.935500	26.793016	0.000134	20.830446
1993.533256	-2.978100	3.326900	-9.906000	26.759929	0.000134	20.838905
1994.525492	-2.995200	3.326900	-9.964000	26.725948	0.000135	20.806638
1995.522268	-3.003500	3.325300	-9.986300	26.708397	0.000133	20.811753
1996.527348	-3.014900	3.325100	-10.024000	26.700851	0.000132	20.847314
1997.526709	-2.994600	3.325500	-9.957100	26.685487	0.000131	20.830920
1998.525009	-2.990400	3.324600	-9.941400	26.703213	0.000130	20.830248
1999.528396	-2.992000	3.324900	-9.946900	26.759557	0.000132	20.826204
2000.522711	-2.990900	3.325300	-9.944300	26.798228	0.000130	20.823359
2001.530641	-2.992400	3.325400	-9.949100	26.783484	0.000129	20.869698
2002.533154	-2.994500	3.323900	-9.952800	26.775345	0.000129	20.838284
2003.524718	-2.996600	3.323600	-9.958000	26.741857	0.000128	20.825478
2004.521614	-2.987200	3.323800	-9.927000	26.721607	0.000129	20.820292
2005.528274	-3.012600	3.322500	-10.009000	26.719370	0.000128	20.846491
2006.523639	-3.020100	3.321500	-10.030000	26.705571	0.000127	20.820766
2007.530548	-3.000100	3.323400	-9.968700	26.710012	0.000128	20.834239
2008.524220	-2.947900	3.322900	-9.794500	26.755288	0.000126	20.822385
2009.522157	-3.008600	3.322100	-9.994100	26.806191	0.000126	20.795330
2010.526885	-2.995400	3.322300	-9.950000	26.772887	0.000127	20.819217
2011.526012	-3.019100	3.320100	-10.023000	26.729696	0.000125	20.817992
2012.522992	-2.995900	3.321800	-9.951000	26.730989	0.000125	20.821664
2013.526216	-2.990600	3.321900	-9.934200	26.704817	0.000124	20.810050
2014.529162	-3.011300	3.320200	-9.997000	26.673689	0.000124	20.797248
2015.526165	-2.964000	3.321700	-9.844600	26.708940	0.000122	20.813247
2016.528458	-2.991600	3.318400	-9.926600	26.765655	0.000122	20.810524
2017.529469	-3.002100	3.318000	-9.959900	26.739320	0.000122	20.799220
2018.526039	-2.987200	3.319100	-9.914400	26.725794	0.000122	20.833509
2019.532524	-3.009600	3.318200	-9.986200	26.656309	0.000120	20.806802
2020.528139	-3.010100	3.317800	-9.985800	26.653904	0.000122	20.816239
2021.533399	-3.007300	3.317700	-9.977000	26.725368	0.000121	20.813642
2022.529228	-2.991200	3.317200	-9.921500	26.785409	0.000121	20.818530
2023.533104	-2.987800	3.318000	-9.912700	26.827180	0.000119	20.830657
2024.528873	-3.016200	3.316100	-10.001000	26.828820	0.000121	20.827090
2025.528863	-2.997900	3.316200	-9.940900	26.797245	0.000120	20.813361
2026.537935	-3.018500	3.314700	-10.004000	26.795183	0.000119	20.808444
2027.537438	-3.020900	3.314500	-10.012000	26.799077	0.000118	20.809988
2028.531126	-3.009700	3.314800	-9.975700	26.828512	0.000120	20.810660
2029.531798	-2.987300	3.313900	-9.898300	26.861079	0.000121	20.836766
2030.528296	-2.987100	3.315000	-9.901000	26.863583	0.000121	20.801353
2031.529426	-2.985400	3.314700	-9.895200	26.891004	0.000118	20.799054
2032.544459	-2.996200	3.313800	-9.928300	26.921208	0.000118	20.792441
2033.534079	-3.001800	3.313600	-9.946200	26.926720	0.000117	20.795613
2034.529156	-3.009400	3.313000	-9.969300	26.895495	0.000118	20.821112
2035.533520	-3.015300	3.313400	-9.988600	26.851540	0.000117	20.793511
2036.532396	-3.013900	3.313300	-9.985300	26.819573	0.000115	20.805939
2037.537940	-2.981800	3.313600	-9.879800	26.807808	0.000117	20.799326
2038.536827	-3.022000	3.312100	-10.008000	26.853848	0.000115	20.790141
2039.535783	-2.986700	3.312700	-9.893500	26.829919	0.000116	20.787418
2040.531983	-3.000100	3.311700	-9.933800	26.819569	0.000114	20.786969
2041.532589	-2.996500	3.313000	-9.926900	26.796762	0.000115	20.790590
2042.533498	-2.975000	3.312100	-9.852500	26.798101	0.000114	20.790041
2043.535237	-2.991300	3.311000	-9.903100	26.838582	0.000113	20.801345
2044.538340	-2.997000	3.310300	-9.920100	26.874964	0.000112	20.799994
2045.535032	-2.989000	3.310800	-9.895000	26.808326	0.000112	20.794157
2046.539606	-3.037900	3.309100	-10.051000	26.831784	0.000112	20.808734
2047.537059	-3.000900	3.309200	-9.929700	26.790281	0.000112	20.804463
2048.536042	-3.020900	3.308800	-9.994000	26.799366	0.000114	20.794631
2049.542529	-3.016600	3.308700	-9.980000	26.765761	0.000109	20.813001
2050.538371	-3.012300	3.307800	-9.963300	26.764121	0.000108	20.809930
2051.538588	-2.955100	3.309500	-9.778400	26.781571	0.000111	20.793335
2052.539590	-3.012700	3.307200	-9.962500	26.829130	0.000111	20.789470
2053.540588	-3.015900	3.305600	-9.968500	26.908844	0.000108	20.785698
2054.537243	-2.958700	3.307600	-9.785200	26.912892	0.000109	20.809208
2055.541075	-2.995200	3.305800	-9.900700	26.949350	0.000109	20.799876
2056.546080	-3.004300	3.306600	-9.932900	26.989879	0.000107	20.788475
2057.537537	-3.005300	3.304600	-9.930400	26.964835	0.000106	20.809758
2058.538995	-2.998600	3.305700	-9.911300	26.968686	0.000106	20.799406
2059.537693	-2.998300	3.304000	-9.905900	26.914560	0.000108	20.778643
2060.540265	-2.990200	3.304400	-9.880000	26.846510	0.000105	20.794618
2061.552004	-2.998300	3.305000	-9.908600	26.820070	0.000106	20.770877
2062.543328	-3.001600	3.303800	-9.916100	26.899275	0.000106	20.788878
2063.545208	-2.980500	3.304400	-9.848100	26.953572	0.000106	20.801277
2064.545020	-3.007600	3.303000	-9.933100	26.998366	0.000106	20.784208
2065.545445	-3.017700	3.301000	-9.960100	26.958463	0.000108	20.800505
2066.539932	-3.017900	3.301600	-9.963100	26.902672	0.000106	20.798457
2067.540028	-3.019800	3.301900	-9.970000	26.924112	0.000103	20.781136
2068.544556	-3.009600	3.301200	-9.934700	26.959648	0.000102	20.802645
2069.538761	-3.020200	3.301600	-9.969600	27.018344	0.000102	20.806669
2070.539772	-3.011400	3.301200	-9.940400	27.011839	0.000102	20.792067
2071.545119	-2.977600	3.301000	-9.828100	26.965360	0.000102	20.792742
2072.541585	-3.003800	3.299500	-9.909900	26.921083	9.922178E-5	20.793263
2073.539730	-2.981300	3.300700	-9.839300	27.006202	0.000102	20.775019
2074.542367	-3.011100	3.300400	-9.937300	26.999480	0.000103	20.791492
2075.541434	-2.997800	3.298800	-9.888500	26.975905	0.000100	20.778216
2076.545712	-3.010700	3.299100	-9.931900	27.018933	9.961780E-5	20.782131
2077.544764	-2.988700	3.298300	-9.856600	27.000248	0.000101	20.759547
2078.545341	-2.978300	3.298900	-9.823800	26.949621	9.965081E-5	20.780234
2079.542513	-2.993600	3.299200	-9.875300	26.958676	9.862773E-5	20.797875
2080.546407	-3.006500	3.297300	-9.911600	26.947389	9.984882E-5	20.785576
2081.546514	-2.984600	3.296900	-9.838700	26.972947	9.958480E-5	20.780931
2082.545192	-3.013100	3.297100	-9.932800	27.006499	9.803369E-5	20.777213
2083.546723	-3.004000	3.297200	-9.903800	27.018758	9.651558E-5	20.767256
2084.549098	-3.009200	3.296100	-9.918200	26.995976	9.836371E-5	20.778011
2085.546136	-3.004000	3.296200	-9.900600	27.030766	9.928778E-5	20.791661
2086.547755	-3.000000	3.295600	-9.885300	27.030245	9.770366E-5	20.774541
2087.551936	-3.009900	3.295200	-9.917500	26.952471	9.958480E-5	20.782152
2088.545284	-3.001000	3.295400	-9.888300	26.927852	9.816570E-5	20.756447
2089.548743	-3.000400	3.293400	-9.880400	27.005406	9.770366E-5	20.774217
2090.551974	-2.993900	3.292800	-9.858100	27.071063	9.529449E-5	20.771969
2091.549391	-2.981700	3.294400	-9.821900	27.093397	9.578952E-5	20.773093
2092.549184	-2.998700	3.293100	-9.873900	27.091461	9.783567E-5	20.792483
2093.551275	-2.993500	3.293400	-9.858600	27.110173	9.351236E-5	20.771473
2094.550769	-3.027800	3.292600	-9.968600	27.042950	9.615255E-5	20.784473
2095.546841	-2.998100	3.292400	-9.870000	26.999547	9.347936E-5	20.784922
2096.552348	-2.997600	3.291400	-9.865900	27.033691	9.483245E-5	20.787964
2097.549725	-2.993700	3.292800	-9.856800	27.074689	9.159822E-5	20.782727
2098.550471	-2.985100	3.291200	-9.823600	27.069749	9.407340E-5	20.766379
2099.560347	-3.020100	3.291400	-9.939400	27.094761	9.334735E-5	20.751705
2100.551382	-2.983900	3.291400	-9.820500	27.055529	9.275330E-5	20.767726
2101.554036	-2.999900	3.289400	-9.866200	27.073224	9.206025E-5	20.786944
2102.554114	-2.993400	3.289200	-9.845000	27.102580	9.212626E-5	20.762888
2103.551759	-2.989400	3.290500	-9.836100	27.115134	9.215926E-5	20.777885
2104.559905	-2.975200	3.289900	-9.786900	27.104190	8.925505E-5	20.772568
2105.553546	-2.989300	3.289300	-9.832100	27.123920	9.206025E-5	20.789092
2106.550399	-2.984800	3.288200	-9.813300	27.162849	9.097117E-5	20.745268
2107.557228	-3.033700	3.287900	-9.973000	27.194560	8.994810E-5	20.757722
2108.560359	-2.980500	3.288100	-9.799200	27.228130	8.981609E-5	20.757349
2109.553071	-3.019500	3.288100	-9.927200	27.180917	9.047614E-5	20.761545
2110.554778	-3.000000	3.287300	-9.861600	27.214830	8.925505E-5	20.755351
2111.556676	-2.994400	3.287000	-9.841800	27.175160	8.895803E-5	20.780885
2112.557648	-2.993200	3.287500	-9.839400	27.229969	8.730790E-5	20.759199
2113.554832	-2.999200	3.285900	-9.854800	27.249692	8.849599E-5	20.757701
2114.568479	-3.013300	3.284300	-9.895400	27.185310	8.885902E-5	20.762644
2115.556921	-3.003400	3.284100	-9.862200	27.182536	8.869401E-5	20.750844
2116.562987	-3.013000	3.284100	-9.892700	27.198610	8.582280E-5	20.761796
2117.560049	-3.008700	3.283400	-9.878300	27.268527	8.717590E-5	20.750567
2118.556009	-3.006800	3.283700	-9.871700	27.277708	8.565778E-5	20.766915
2119.558920	-3.001100	3.282800	-9.850100	27.242629	8.562478E-5	20.740164
2120.564393	-3.007000	3.285000	-9.876600	27.227344	8.542677E-5	20.754188
2121.557452	-3.010300	3.285600	-9.890600	27.263370	8.651585E-5	20.760554
2122.559796	-2.988400	3.282000	-9.807400	27.235287	8.522875E-5	20.738469
2123.567709	-3.006300	3.283600	-9.870800	27.229680	8.569079E-5	20.752270
2124.556637	-3.003200	3.281300	-9.853500	27.182018	8.281958E-5	20.750797
2125.561306	-2.992600	3.282000	-9.820200	27.205242	8.628483E-5	20.742862
2126.562822	-3.001300	3.281100	-9.846200	27.274037	8.407367E-5	20.733824
2127.557504	-3.011800	3.280800	-9.880200	27.324802	8.496473E-5	20.773511
2128.554589	-3.034800	3.280500	-9.954400	27.364146	8.281958E-5	20.747180
2129.562714	-2.992100	3.280500	-9.814000	27.384563	8.417268E-5	20.765824
2130.561843	-2.978800	3.280500	-9.771200	27.332490	8.479972E-5	20.754217
2131.563316	-3.009500	3.280400	-9.871800	27.287093	8.324861E-5	20.753596
2132.564700	-2.992700	3.280500	-9.816800	27.271063	8.103745E-5	20.753592
2133.561716	-3.003200	3.278700	-9.846500	27.272355	8.239055E-5	20.738297
2134.556555	-3.011100	3.277900	-9.869600	27.273444	8.324861E-5	20.748875
2135.561255	-3.003200	3.276900	-9.840300	27.244043	8.146648E-5	20.752493
2136.560911	-2.988700	3.277600	-9.794700	27.208100	7.994837E-5	20.747633
2137.565680	-2.996100	3.277300	-9.818700	27.187525	8.037740E-5	20.770561
2138.568043	-3.004600	3.276100	-9.843000	27.171772	7.955234E-5	20.745707
2139.566877	-2.987100	3.278700	-9.792300	27.222442	8.189551E-5	20.741670
2140.564759	-3.000200	3.276400	-9.829200	27.270445	8.034440E-5	20.746332
2141.570104	-2.971000	3.275200	-9.729200	27.244594	7.928832E-5	20.753995
2142.570508	-2.990500	3.274800	-9.792600	27.286572	7.816624E-5	20.763977
2143.576024	-2.999700	3.274600	-9.821800	27.278487	7.869428E-5	20.759638
2144.567494	-3.018700	3.274500	-9.883900	27.227256	7.793522E-5	20.756944
2145.563700	-2.975600	3.275500	-9.744600	27.205746	7.711016E-5	20.773716
2146.571854	-3.004100	3.272300	-9.828700	27.215050	7.767120E-5	20.757469
2147.566853	-3.001400	3.272900	-9.822300	27.209639	7.833125E-5	20.764829
2148.569077	-3.004800	3.274700	-9.838100	27.229413	7.598808E-5	20.762907
2149.572555	-2.984300	3.272600	-9.766200	27.291264	7.717616E-5	20.737877
2150.571452	-3.037000	3.270800	-9.932800	27.342568	7.678014E-5	20.761036
2151.563582	-3.010000	3.271000	-9.845000	27.292078	7.463498E-5	20.771887
2152.565877	-3.016300	3.271100	-9.865800	27.278237	7.684614E-5	20.759387
2153.567812	-2.996200	3.270800	-9.798500	27.296725	7.539403E-5	20.775613
2154.566012	-2.978700	3.271500	-9.743800	27.280969	7.506401E-5	20.764506
2155.572451	-2.998600	3.271100	-9.807200	27.266553	7.450297E-5	20.755694
2156.570485	-2.979500	3.270400	-9.742900	27.256482	7.473399E-5	20.772117
2157.568723	-3.019200	3.269700	-9.870500	27.344474	7.430495E-5	20.758686
2158.571869	-3.033600	3.268200	-9.913200	27.394882	7.453597E-5	20.745384
2159.569498	-3.013000	3.269000	-9.848800	27.423461	7.239081E-5	20.752799
2160.566202	-2.992700	3.267900	-9.778800	27.437422	7.324888E-5	20.755464
2161.566672	-2.980200	3.267600	-9.737300	27.410211	7.344689E-5	20.735674
2162.573746	-2.986900	3.267200	-9.757800	27.387687	7.140074E-5	20.746681
2163.567634	-2.994900	3.267100	-9.783700	27.354072	7.413994E-5	20.742262
2164.569472	-2.989600	3.266000	-9.763000	27.317803	6.978362E-5	20.745607
2165.568645	-3.006500	3.266800	-9.820400	27.276794	7.334788E-5	20.752719
2166.571612	-3.001300	3.267100	-9.805000	27.300584	7.057568E-5	20.758632
2167.568849	-3.002700	3.264900	-9.802700	27.354519	7.050968E-5	20.762152
2168.568536	-2.999200	3.265900	-9.793800	27.355658	7.146675E-5	20.766617
2169.571208	-3.014000	3.265400	-9.840600	27.385252	7.252282E-5	20.742808
2170.573235	-2.979800	3.265300	-9.727800	27.373590	7.077370E-5	20.756207
2171.575802	-2.994800	3.265100	-9.777000	27.410828	7.047667E-5	20.745779
2172.570464	-2.983300	3.263500	-9.734600	27.374882	7.146675E-5	20.769836
2173.576917	-3.002400	3.263000	-9.796400	27.381752	7.047667E-5	20.775324
2174.570577	-2.989500	3.261900	-9.751100	27.404922	6.727544E-5	20.767339
2175.575194	-2.999300	3.262600	-9.785100	27.399959	6.872755E-5	20.775622
2176.578229	-2.978800	3.263100	-9.719500	27.385919	6.905757E-5	20.775249
2177.577449	-3.003100	3.261700	-9.794400	27.389365	6.816650E-5	20.767809
2178.573420	-2.992500	3.262000	-9.760700	27.359253	6.806750E-5	20.761699
2179.573683	-3.019400	3.259200	-9.840200	27.355457	6.786948E-5	20.775425
2180.577456	-2.982400	3.260600	-9.723700	27.377360	6.582333E-5	20.741507
2181.581122	-2.977400	3.261500	-9.710000	27.417969	6.621936E-5	20.761972
2182.574250	-2.989500	3.258900	-9.741700	27.469563	6.493227E-5	20.759824
2183.574899	-2.994300	3.259000	-9.756900	27.490399	6.783648E-5	20.763244
2184.574824	-2.992200	3.259300	-9.751300	27.464825	6.760546E-5	20.771179
2185.578419	-2.989400	3.258600	-9.740900	27.427613	6.704442E-5	20.758398
2186.576602	-3.003800	3.257700	-9.784400	27.436221	6.374418E-5	20.776068
2187.578897	-3.025400	3.256400	-9.851200	27.489132	6.390919E-5	20.764339
2188.578979	-3.025700	3.255700	-9.850400	27.505451	6.565832E-5	20.767482
2189.579712	-3.010700	3.257200	-9.804700	27.477821	6.407421E-5	20.779512
2190.579175	-3.012400	3.256200	-9.807800	27.512396	6.503128E-5	20.779685
2191.578911	-2.991200	3.257300	-9.742400	27.423321	6.288612E-5	20.784900
2192.581973	-2.999300	3.256500	-9.766200	27.370136	6.334815E-5	20.776915
2193.582882	-3.014400	3.256300	-9.814400	27.292684	6.522929E-5	20.773445
2194.581403	-3.012300	3.256300	-9.808500	27.289606	6.357917E-5	20.766555
2195.582168	-3.000200	3.254300	-9.762700	27.336121	6.298513E-5	20.755973
2196.579119	-3.016300	3.253600	-9.813000	27.347137	6.150002E-5	20.780331
2197.583857	-2.998700	3.254700	-9.758600	27.363112	5.994890E-5	20.766056
2198.581662	-2.994100	3.251700	-9.734700	27.335821	6.093898E-5	20.752352
2199.582505	-3.015300	3.254200	-9.811800	27.368644	6.311713E-5	20.758818
2200.591876	-3.009400	3.253400	-9.789200	27.440577	5.909084E-5	20.778553
2201.583956	-3.019200	3.251100	-9.815000	27.468730	6.196205E-5	20.769892
2202.583293	-3.027000	3.250600	-9.838900	27.534784	5.786975E-5	20.766174
2203.589710	-2.988500	3.251900	-9.717100	27.489641	6.093898E-5	20.775758
2204.583263	-2.995100	3.251600	-9.737700	27.418772	6.113699E-5	20.785065
2205.583309	-3.031100	3.249700	-9.849300	27.415022	6.004791E-5	20.776552
2206.591257	-3.001500	3.249300	-9.752000	27.481126	6.153302E-5	20.762923
2207.582187	-3.007600	3.250000	-9.773100	27.536715	5.932186E-5	20.774281
2208.583772	-2.965500	3.250000	-9.636700	27.578878	5.777074E-5	20.779246
2209.581810	-2.989900	3.249100	-9.713600	27.594204	5.942086E-5	20.791347
2210.584158	-2.977900	3.248600	-9.673400	27.626744	6.116999E-5	20.782363
2211.583856	-2.982100	3.249300	-9.688500	27.672176	5.816677E-5	20.778293
2212.609752	-2.996800	3.247800	-9.732200	27.638891	5.836479E-5	20.774198
2213.585139	-3.022100	3.245400	-9.806900	27.567018	5.697869E-5	20.775373
2214.583481	-2.990100	3.247300	-9.708900	27.559949	5.516355E-5	20.776795
2215.594933	-2.999100	3.246300	-9.735600	27.559624	5.763873E-5	20.767933
2216.585040	-3.007300	3.244400	-9.755900	27.598145	5.585660E-5	20.778717
2217.586911	-3.004400	3.246000	-9.751300	27.600330	5.625263E-5	20.782338
2218.592596	-2.992300	3.245300	-9.710100	27.634408	5.602162E-5	20.790550
2219.587621	-2.981400	3.244700	-9.672600	27.589587	5.565859E-5	20.782909
2220.584700	-3.006900	3.243800	-9.753100	27.555979	5.539457E-5	20.778017
2221.589447	-2.989700	3.244700	-9.700000	27.531949	5.806777E-5	20.788452
2222.594004	-2.970900	3.243700	-9.635400	27.627486	5.592261E-5	20.769360
2223.586142	-3.020000	3.241400	-9.788000	27.626594	5.423948E-5	20.788851
2224.587542	-3.010900	3.242700	-9.762800	27.591797	5.585660E-5	20.782288
2225.593003	-3.014400	3.241400	-9.770000	27.569874	5.377745E-5	20.782040
2226.587357	-2.999000	3.241100	-9.718800	27.562584	5.268837E-5	20.803155
2227.588655	-3.006500	3.243800	-9.750600	27.627022	5.516355E-5	20.785489
2228.593266	-3.009600	3.240900	-9.752900	27.682425	5.272137E-5	20.772959
2229.588423	-2.997900	3.240700	-9.714600	27.684185	5.331542E-5	20.785636
2230.588206	-2.997800	3.240700	-9.714700	27.687362	5.437149E-5	20.799739
2231.588864	-2.995300	3.239800	-9.703500	27.738200	5.189631E-5	20.779300
2232.589721	-2.988900	3.239700	-9.682600	27.673205	5.361244E-5	20.779803
2233.589240	-2.989100	3.240600	-9.684800	27.598381	5.245735E-5	20.788912
2234.589090	-3.007800	3.237800	-9.737400	27.602744	5.532856E-5	20.803733
2235.595637	-2.966300	3.238500	-9.605900	27.677125	5.631864E-5	20.785644
2236.596586	-3.003200	3.236700	-9.719900	27.719361	5.173130E-5	20.800170
2237.595704	-2.992800	3.236700	-9.686200	27.713856	5.156629E-5	20.788941
2238.596232	-2.978800	3.236000	-9.638700	27.716066	5.166530E-5	20.798277
2239.590448	-2.992900	3.234800	-9.680600	27.725294	4.985016E-5	20.793813
2240.591147	-3.003700	3.235000	-9.716200	27.757930	4.912411E-5	20.804844
2241.594242	-2.985900	3.233900	-9.655500	27.645761	5.298539E-5	20.810509
2242.607077	-2.993000	3.235600	-9.683300	27.667441	5.173130E-5	20.791546
2243.595742	-2.998500	3.234500	-9.697500	27.661190	5.186331E-5	20.809438
2244.594734	-2.996700	3.234600	-9.691600	27.600003	5.034520E-5	20.798130
2245.590834	-2.997600	3.233900	-9.693500	27.579051	5.034520E-5	20.818300
2246.598346	-2.990800	3.233100	-9.669200	27.545763	5.001517E-5	20.818472
2247.594850	-2.994100	3.231700	-9.674700	27.547477	4.922312E-5	20.783213
2248.593467	-3.024200	3.231800	-9.772900	27.587058	5.199532E-5	20.823038
2249.590904	-3.012600	3.230600	-9.731900	27.642246	4.882709E-5	20.812661
2250.596041	-3.003900	3.232600	-9.709500	27.676990	4.938813E-5	20.811587
2251.601221	-2.972300	3.231900	-9.605300	27.685422	5.011418E-5	20.799682
2252.593911	-3.000100	3.229800	-9.688200	27.706950	4.899210E-5	20.821820
2253.598032	-3.011200	3.230200	-9.726000	27.796072	4.803503E-5	20.803874
2254.598297	-2.993300	3.229200	-9.665600	27.807629	4.905810E-5	20.828782
2255.602340	-3.009500	3.229300	-9.716700	27.750745	4.813404E-5	20.810890
2256.596280	-2.996100	3.229100	-9.673800	27.706454	4.800203E-5	20.822743
2257.600690	-2.997400	3.227600	-9.673600	27.748264	4.783702E-5	20.804600
2258.594612	-2.994000	3.227900	-9.662500	27.735988	4.608789E-5	20.790350
2259.599125	-3.003300	3.227200	-9.691700	27.683241	4.833205E-5	20.827833
2260.596178	-2.984400	3.228000	-9.632700	27.697205	4.793602E-5	20.838566
2261.594555	-3.004800	3.226100	-9.692500	27.691305	4.585687E-5	20.817930
2262.601271	-2.999100	3.226100	-9.674600	27.719201	4.645091E-5	20.833674
2263.597112	-2.999700	3.228200	-9.682300	27.702781	4.536183E-5	20.821418
2264.596212	-3.003400	3.224700	-9.684200	27.725819	4.539484E-5	20.830376
2265.599855	-3.010500	3.225300	-9.708700	27.744169	4.645091E-5	20.818023
2266.596968	-3.025200	3.224900	-9.754900	27.767382	4.499881E-5	20.828106
2267.597909	-2.993100	3.223700	-9.647900	27.823894	4.559285E-5	20.822391
2268.599844	-2.998000	3.222600	-9.660900	27.784739	4.344769E-5	20.825186
2269.594339	-2.995000	3.222500	-9.650600	27.697623	4.536183E-5	20.828555
2270.594400	-3.013400	3.223600	-9.713500	27.664439	4.463578E-5	20.831199
2271.598337	-2.997400	3.223000	-9.660000	27.625649	4.311767E-5	20.822987
2272.593450	-2.990800	3.222000	-9.635800	27.685000	4.252363E-5	20.828656
2273.596837	-3.019900	3.222400	-9.729700	27.729813	4.503181E-5	20.840085
2274.599137	-2.982800	3.220600	-9.605200	27.750941	4.394273E-5	20.828156
2275.599989	-2.987800	3.221700	-9.624600	27.768595	4.140154E-5	20.818896
2276.600116	-2.997900	3.220900	-9.655300	27.733333	4.189658E-5	20.842679
2277.600386	-2.987200	3.221600	-9.622200	27.668483	4.423975E-5	20.839536
2278.600887	-3.010600	3.219600	-9.692200	27.671732	4.318367E-5	20.832373
2279.597665	-3.016700	3.218300	-9.708300	27.648714	4.291965E-5	20.834342
2280.601694	-3.005900	3.218300	-9.672200	27.678450	4.216060E-5	20.844349
2281.599020	-3.025600	3.217700	-9.733600	27.676190	4.077450E-5	20.824058
2282.605464	-3.014300	3.217800	-9.699100	27.677082	4.070849E-5	20.839180
2283.601383	-3.010100	3.219100	-9.689600	27.655778	4.192958E-5	20.831967
2284.601661	-2.978700	3.217200	-9.582100	27.624528	4.126953E-5	20.806212
2285.598050	-3.005800	3.218400	-9.672700	27.611658	4.206159E-5	20.840203
2286.601503	-2.977000	3.216200	-9.574100	27.623072	3.783728E-5	20.859747
2287.596032	-2.968900	3.216500	-9.548800	27.718768	4.041147E-5	20.816644
2288.601643	-2.974000	3.215800	-9.562900	27.852354	3.895936E-5	20.828275
2289.603076	-3.017200	3.213300	-9.694600	27.817987	4.262263E-5	20.842050
2290.602558	-2.992500	3.214200	-9.617700	27.819671	3.843133E-5	20.846590
2291.601838	-3.021800	3.213700	-9.710400	27.773174	4.057648E-5	20.820659
2292.602589	-2.991600	3.214200	-9.613400	27.773949	3.763927E-5	20.839931
2293.598434	-2.994200	3.212500	-9.618300	27.766903	3.985043E-5	20.841374
2294.605475	-2.977600	3.212400	-9.564400	27.803407	3.760626E-5	20.856773
2295.601212	-2.994400	3.210200	-9.611500	27.793062	4.011445E-5	20.842096
2296.602274	-3.003500	3.210900	-9.643500	27.788105	4.268864E-5	20.840426
2297.602924	-3.008700	3.210200	-9.658200	27.836015	3.829932E-5	20.853081
2298.606954	-3.026300	3.209800	-9.713000	27.877445	3.928939E-5	20.850207
2299.603237	-2.978900	3.211100	-9.564100	27.845313	3.994944E-5	20.849162
2300.607066	-3.005600	3.209600	-9.645100	27.870649	3.958641E-5	20.871341
2301.605022	-3.008300	3.208100	-9.650000	27.815310	4.044447E-5	20.841252
2302.602258	-3.007800	3.208200	-9.649200	27.771886	3.721024E-5	20.865828
2303.603473	-3.012700	3.208300	-9.665200	27.754428	3.595614E-5	20.846837
2304.609294	-3.006100	3.206800	-9.639500	27.739004	3.688021E-5	20.857868
2305.609266	-2.973800	3.206700	-9.535000	27.770151	3.658319E-5	20.843221
2306.607154	-3.021600	3.205500	-9.684900	27.751851	3.589014E-5	20.867002
2307.609175	-2.984900	3.206300	-9.569500	27.755941	3.513108E-5	20.871593
2308.604999	-2.995100	3.204800	-9.598100	27.817316	3.734225E-5	20.849909
2309.613266	-2.997800	3.208000	-9.615300	27.832663	3.318394E-5	20.877681
2310.608447	-2.981400	3.205500	-9.556400	27.846872	3.671520E-5	20.853102
2311.605466	-3.001900	3.204800	-9.620200	27.876678	3.681421E-5	20.860814
2312.610160	-3.005700	3.204500	-9.630300	27.852822	3.542810E-5	20.856245
2313.610288	-2.994500	3.204500	-9.594100	27.831450	3.407501E-5	20.864133
2314.607361	-3.008400	3.201600	-9.630800	27.868098	3.357997E-5	20.890109
2315.608748	-3.000400	3.201200	-9.603700	27.851262	3.252389E-5	20.872692
2316.614651	-2.996900	3.203100	-9.598600	27.856048	3.757326E-5	20.863285
2317.609488	-3.000700	3.202700	-9.609200	27.844416	3.315094E-5	20.868173
2318.614212	-3.022000	3.199400	-9.667700	27.828819	3.291992E-5	20.876183
2319.616148	-3.013800	3.200000	-9.643600	27.825029	3.305193E-5	20.855300
2320.611583	-2.991900	3.200200	-9.573900	27.843353	3.354697E-5	20.872318
2321.614952	-3.012500	3.198500	-9.635000	27.842357	3.209486E-5	20.865627
2322.616185	-2.983700	3.198100	-9.541200	27.850987	3.216086E-5	20.872889
2323.612704	-3.004000	3.199200	-9.609900	27.910272	3.367898E-5	20.884193
2324.615120	-3.011400	3.197700	-9.628800	27.928695	3.262290E-5	20.882821
2325.614150	-2.999400	3.196600	-9.587400	27.885154	3.037873E-5	20.865551
2326.615664	-3.002600	3.197100	-9.598000	27.931296	3.348096E-5	20.880698
2327.618528	-3.012000	3.195400	-9.623900	27.964918	3.351396E-5	20.861909
2328.616345	-3.006600	3.194700	-9.604100	27.974636	3.354697E-5	20.899662
2329.615601	-2.980400	3.195700	-9.523800	27.945450	3.258990E-5	20.879771
2330.618108	-2.979400	3.194400	-9.516300	27.985070	3.103878E-5	20.881718
2331.618471	-2.994800	3.194300	-9.564800	27.974586	3.255689E-5	20.899612
2332.612907	-3.020000	3.193500	-9.643300	27.917981	3.057675E-5	20.884365
2333.618137	-2.990100	3.193200	-9.547800	27.876178	3.074176E-5	20.878327
2334.616070	-3.013800	3.192500	-9.620500	27.921503	3.004871E-5	20.872264
2335.619203	-2.999300	3.191700	-9.571500	27.925489	3.159982E-5	20.880069
2336.620392	-3.049400	3.190400	-9.728000	27.892566	3.064275E-5	20.892924
2337.622658	-2.994300	3.190600	-9.553000	27.856691	2.965268E-5	20.868673
2338.619194	-2.983100	3.192400	-9.522300	27.854906	3.057675E-5	20.886790
2339.625615	-2.972700	3.188600	-9.477200	27.890586	2.991670E-5	20.889035
2340.623352	-2.967800	3.189500	-9.464900	27.906403	2.975169E-5	20.894997
2341.618302	-2.969500	3.189800	-9.470800	27.951878	3.232588E-5	20.889559
2342.623561	-2.988900	3.187700	-9.527200	27.960011	2.952067E-5	20.894900
2343.621595	-2.974800	3.188100	-9.483000	28.026456	2.938866E-5	20.890658
2344.618938	-3.011900	3.186000	-9.594700	28.049290	2.754053E-5	20.896574
2345.630561	-2.979300	3.187100	-9.494500	28.042200	2.820057E-5	20.890859
2346.625399	-3.010200	3.185900	-9.589400	28.035727	2.905864E-5	20.900938
2347.618673	-3.003400	3.184500	-9.563700	27.994053	2.783755E-5	20.883647
2348.626566	-3.006400	3.184400	-9.573400	27.964326	2.754053E-5	20.887864
2349.624693	-2.996900	3.183900	-9.540200	27.954654	3.136881E-5	20.893776
2350.623251	-2.971500	3.185100	-9.463000	28.012353	2.763953E-5	20.915815
2351.622249	-2.990400	3.182500	-9.516200	28.018769	2.856360E-5	20.897145
2352.622344	-3.003600	3.182700	-9.558700	28.002728	2.750752E-5	20.908024
2353.621772	-2.965300	3.182100	-9.434700	28.008160	2.876162E-5	20.889311
2354.625793	-2.986500	3.182100	-9.502600	28.017927	2.691348E-5	20.896771
2355.626221	-2.996000	3.180100	-9.526500	27.960257	2.773854E-5	20.907949
2356.624481	-3.037000	3.178900	-9.653300	27.923042	2.635244E-5	20.908423
2357.627738	-2.994900	3.178700	-9.519300	27.941643	2.711149E-5	20.920980
2358.627667	-2.989200	3.178600	-9.500200	27.922942	2.628643E-5	20.907848
2359.626642	-2.985900	3.178000	-9.488600	28.018198	2.790355E-5	20.910793
2360.628483	-3.009600	3.177100	-9.560500	28.005579	2.645145E-5	20.933651
2361.627057	-2.956900	3.177100	-9.394200	28.081809	2.707849E-5	20.919349
2362.626100	-3.007600	3.176300	-9.552100	28.067832	2.724350E-5	20.893901
2363.632832	-2.995300	3.174600	-9.507600	28.034606	2.651745E-5	20.928730
2364.624356	-3.010200	3.173400	-9.551500	28.092342	2.523036E-5	20.915254
2365.626666	-3.017800	3.173100	-9.575100	28.134416	2.664946E-5	20.921098
2366.629000	-3.020600	3.172800	-9.582700	28.095818	2.447130E-5	20.895995
2367.625413	-2.996100	3.173600	-9.507500	28.102062	2.361324E-5	20.931675
2368.625993	-2.995600	3.171600	-9.500000	28.105831	2.536237E-5	20.907022
2369.627758	-2.971900	3.172400	-9.427600	28.097627	2.631944E-5	20.908721
2370.633386	-3.004400	3.170700	-9.525500	28.142469	2.575839E-5	20.929678
2371.627319	-2.983900	3.170300	-9.458900	28.105085	2.595641E-5	20.923339
2372.630395	-2.996400	3.170900	-9.500200	28.038795	2.295319E-5	20.907819
2373.630371	-3.007400	3.170200	-9.533300	28.035352	2.394326E-5	20.902457
2374.626208	-3.020500	3.168500	-9.569800	28.007185	2.206212E-5	20.902079
2375.630107	-3.010100	3.168000	-9.535100	28.049183	2.328321E-5	20.905948
2376.631539	-3.002800	3.166500	-9.506800	28.106698	2.361324E-5	20.898412
2377.626412	-3.016400	3.166600	-9.551000	28.159774	2.450430E-5	20.915807
2378.629109	-3.009800	3.165400	-9.526700	28.152856	2.358023E-5	20.896042
2379.631220	-3.015200	3.165600	-9.544300	28.084460	2.090704E-5	20.897364
2380.627648	-2.975500	3.164100	-9.414100	28.087686	2.110505E-5	20.912463
2381.630595	-2.969500	3.164700	-9.396100	28.129110	2.226014E-5	20.901534
2382.634411	-2.987900	3.162900	-9.449700	28.202308	2.113806E-5	20.907420
2383.627929	-2.993200	3.162800	-9.466300	28.207735	2.107205E-5	20.902927
2384.628067	-3.000400	3.162100	-9.486700	28.159028	2.080803E-5	20.891351
2385.631957	-2.993800	3.161800	-9.465100	28.142615	2.103905E-5	20.909913
2386.630876	-2.967900	3.161600	-9.381300	28.178014	2.265617E-5	20.887705
2387.628969	-3.010300	3.159500	-9.510000	28.220947	2.130307E-5	20.883514
2388.630970	-2.976700	3.159800	-9.404800	28.173004	2.001597E-5	20.893093
2389.635634	-3.003400	3.157800	-9.483300	28.188721	2.150108E-5	20.893743
2390.634483	-2.989400	3.158200	-9.440700	28.179769	2.117106E-5	20.895635
2391.631527	-2.950200	3.158600	-9.318000	28.204334	2.077503E-5	20.908038
2392.632491	-2.989600	3.157600	-9.439800	28.214475	2.338222E-5	20.907815
2393.631623	-2.996100	3.155800	-9.454700	28.167727	2.272217E-5	20.887781
2394.631845	-3.015400	3.155900	-9.515700	28.104485	1.912491E-5	20.888599
2395.633760	-2.974200	3.154800	-9.382200	28.140206	2.107205E-5	20.868611
2396.636044	-3.021700	3.153500	-9.527800	28.121091	2.037900E-5	20.891566
2397.631192	-3.003300	3.153600	-9.470400	28.182920	1.994997E-5	20.881739
2398.634067	-2.971200	3.152900	-9.367600	28.140531	2.021399E-5	20.899755
2399.635496	-3.022200	3.151000	-9.521900	28.099575	1.994997E-5	20.872278
2400.631539	-2.982300	3.151100	-9.395800	28.186438	2.008198E-5	20.876746
2401.634491	-2.976600	3.150700	-9.377500	28.200713	1.866287E-5	20.869307
2402.631704	-2.961300	3.149000	-9.323800	28.206939	1.820084E-5	20.858033
2403.631509	-3.000100	3.148100	-9.443600	28.238268	1.872888E-5	20.887676
2404.633764	-2.997300	3.148600	-9.436900	28.299858	2.014798E-5	20.888046
2405.637004	-3.009600	3.146600	-9.468700	28.330792	1.813483E-5	20.894062
2406.636935	-3.001300	3.146700	-9.442400	28.317981	1.820084E-5	20.874527
2407.636740	-2.982100	3.145600	-9.379600	28.270539	1.935592E-5	20.892665
2408.631950	-3.006900	3.144200	-9.453200	28.262908	1.810183E-5	20.863173
2409.637732	-2.996600	3.144000	-9.420000	28.339889	1.826684E-5	20.871455
2410.634631	-2.988400	3.143800	-9.393800	28.293418	1.836585E-5	20.881089
2411.635839	-3.005400	3.141400	-9.439600	28.243995	1.694675E-5	20.862623
2412.633377	-3.009900	3.141000	-9.452400	28.266250	1.681474E-5	20.883132
2413.639017	-3.002900	3.140500	-9.428700	28.217100	1.635270E-5	20.856883
2414.638703	-3.002200	3.140600	-9.427600	28.197441	1.358050E-5	20.882608
2415.635341	-2.986700	3.138700	-9.373400	28.209415	1.681474E-5	20.877594
2416.641883	-2.987700	3.138800	-9.376700	28.257549	1.602268E-5	20.860622
2417.635987	-2.979000	3.138600	-9.349500	28.250830	1.562665E-5	20.881832
2418.639874	-3.013400	3.136100	-9.449500	28.257598	1.569265E-5	20.882482
2419.639004	-3.004400	3.135200	-9.419000	28.312223	1.605568E-5	20.862091
2420.642759	-2.999400	3.134800	-9.402000	28.293315	1.348149E-5	20.860123
2421.640635	-3.025200	3.133300	-9.477500	28.334727	1.503261E-5	20.860094
2422.640591	-2.997800	3.133600	-9.393100	28.419811	1.496660E-5	20.863266
2423.640906	-3.010300	3.132200	-9.427900	28.368061	1.440556E-5	20.850037
2424.640817	-3.006200	3.131100	-9.412200	28.380949	1.433956E-5	20.857799
2425.649040	-3.008400	3.130000	-9.415500	28.389768	1.582466E-5	20.834437
2426.637494	-3.007200	3.131000	-9.415000	28.384388	1.532963E-5	20.879278
2427.642185	-2.981600	3.130400	-9.332600	28.401365	1.272244E-5	20.857493
2428.645144	-3.005200	3.128200	-9.399900	28.357026	1.278844E-5	20.864055
2429.640259	-2.984300	3.127900	-9.334100	28.414945	1.397653E-5	20.868797
2430.646569	-2.970900	3.127900	-9.291900	28.448348	1.344849E-5	20.860233
2431.644271	-2.990800	3.126400	-9.348800	28.426567	1.542864E-5	20.857267
2432.638432	-2.985400	3.125100	-9.328900	28.441610	1.387752E-5	20.854871
2433.644405	-2.983100	3.124100	-9.318200	28.482024	1.262343E-5	20.842464
2434.645173	-2.981400	3.123500	-9.310900	28.427255	1.219440E-5	20.864123
2435.639066	-2.998600	3.122700	-9.362500	28.390752	1.235941E-5	20.861979
2436.646208	-2.999100	3.122200	-9.363000	28.392485	1.506561E-5	20.856613
2437.644805	-3.005300	3.121600	-9.380300	28.368595	1.061028E-5	20.855790
2438.647176	-2.961600	3.121500	-9.243800	28.419129	1.226040E-5	20.855941
2439.646090	-3.016900	3.119000	-9.409100	28.408574	1.123733E-5	20.849106
2440.643897	-2.998900	3.117000	-9.346400	28.459103	1.417454E-5	20.851150
2441.644408	-2.997100	3.117600	-9.342700	28.423392	1.219440E-5	20.850277
2442.644061	-2.990400	3.115400	-9.314400	28.452611	1.166636E-5	20.838923
2443.646404	-3.011500	3.115000	-9.380000	28.480212	1.074229E-5	20.852967
2444.644418	-2.985600	3.114500	-9.297800	28.447602	1.008224E-5	20.835302
2445.646004	-2.986600	3.113400	-9.297100	28.330127	8.828150E-6	20.846929
2446.646778	-2.972600	3.113400	-9.254300	28.318258	1.186437E-5	20.845884
2447.646671	-2.991100	3.112400	-9.307700	28.316225	9.422193E-6	20.838621
2448.651197	-2.981600	3.111000	-9.274300	28.333944	1.282144E-5	20.853617
2449.651198	-2.993600	3.109300	-9.307700	28.378780	1.021425E-5	20.845657
2450.645440	-3.008700	3.107900	-9.350200	28.336249	8.366116E-6	20.848351
2451.646853	-3.007700	3.106400	-9.342400	28.418580	9.917230E-6	20.844957
2452.658810	-3.000800	3.106200	-9.320800	28.476174	1.311847E-5	20.840841
2453.649644	-2.994800	3.106500	-9.302400	28.522612	9.686213E-6	20.838294
2454.652740	-2.988200	3.105000	-9.277100	28.548582	1.100631E-5	20.853542
2455.651605	-2.988900	3.103900	-9.275700	28.477983	9.323186E-6	20.845981
2456.653426	-3.006500	3.101500	-9.324300	28.481200	9.323186E-6	20.876245
2457.651564	-3.011900	3.102600	-9.344000	28.505708	9.785220E-6	20.846875
2458.650824	-3.008600	3.100500	-9.327400	28.486554	7.442048E-6	20.851767
2459.650095	-3.006600	3.100800	-9.321300	28.523104	7.409045E-6	20.845901
2460.650864	-3.001600	3.098800	-9.300000	28.488209	9.125172E-6	20.841106
2461.653250	-3.028100	3.096600	-9.375400	28.505113	1.103931E-5	20.831102
2462.651223	-3.022300	3.095900	-9.356300	28.449703	1.054428E-5	20.836469
2463.650951	-3.025800	3.095200	-9.364700	28.512646	8.003089E-6	20.862869
2464.654473	-3.008900	3.093600	-9.307500	28.509746	8.201104E-6	20.839087
2465.653336	-3.025100	3.093400	-9.356500	28.529296	8.828150E-6	20.827007
2466.659143	-2.984100	3.092700	-9.228400	28.525950	1.064328E-5	20.834069
2467.655598	-2.994500	3.092100	-9.258600	28.552662	9.323186E-6	20.823512
2468.653877	-2.973400	3.092400	-9.194400	28.595234	6.517980E-6	20.849791
2469.657268	-2.986300	3.090400	-9.227900	28.602792	7.310038E-6	20.834170
2470.654032	-3.010500	3.089800	-9.300700	28.569590	8.069094E-6	20.846724
2471.659038	-2.973700	3.087900	-9.180900	28.546713	6.715994E-6	20.839805
2472.653013	-3.005600	3.086100	-9.274200	28.501068	7.442048E-6	20.845046
2473.657834	-2.978600	3.086100	-9.191200	28.515267	7.739070E-6	20.841328
2474.659156	-3.000300	3.085500	-9.256200	28.539204	7.145026E-6	20.843624
2475.656193	-2.985700	3.084700	-9.208600	28.478271	5.956939E-6	20.827306
2476.667532	-3.002100	3.082100	-9.251300	28.470238	6.583985E-6	20.820164
2477.659018	-2.994600	3.082100	-9.228800	28.419260	6.881007E-6	20.817668
2478.661279	-3.000500	3.081000	-9.243600	28.345231	7.178028E-6	20.808084
2479.659390	-3.017600	3.078800	-9.289700	28.384265	8.201104E-6	20.813724
2480.660718	-2.987700	3.078300	-9.196300	28.432199	5.065873E-6	20.828325
2481.660947	-2.985300	3.077600	-9.186400	28.503793	6.781999E-6	20.819816
2482.660127	-3.020600	3.076100	-9.290500	28.508176	5.527907E-6	20.842722
2483.664686	-3.019100	3.075400	-9.284100	28.486889	6.319965E-6	20.820811
2484.661100	-3.012400	3.074300	-9.260600	28.424686	5.857931E-6	20.830243
2485.663571	-3.016800	3.072100	-9.267000	28.440053	5.296890E-6	20.833390
2486.662233	-3.010000	3.071700	-9.245400	28.474472	7.904082E-6	20.820635
2487.661404	-3.027700	3.069300	-9.292200	28.444808	8.069094E-6	20.821109
2488.660684	-3.014200	3.069800	-9.252500	28.437446	5.626914E-6	20.826971
2489.666146	-3.021600	3.067900	-9.269300	28.456205	4.108802E-6	20.815990
2490.664670	-2.997100	3.067800	-9.193900	28.513305	2.887713E-6	20.811378
2491.664183	-3.016100	3.065200	-9.243900	28.529285	7.244033E-6	20.826996
2492.665194	-3.020400	3.065000	-9.256800	28.562217	6.088948E-6	20.802315
2493.665877	-3.013600	3.064700	-9.234300	28.552155	6.187956E-6	20.816838
2494.663126	-3.037500	3.061100	-9.296000	28.608455	6.385970E-6	20.831339
2495.665971	-2.998100	3.061100	-9.176300	28.595419	3.844783E-6	20.817262
2496.663615	-3.010800	3.060200	-9.212900	28.632190	5.131878E-6	20.836752
2497.668039	-2.969700	3.060400	-9.087200	28.667918	6.220958E-6	20.806830
2498.671002	-3.012700	3.058300	-9.213600	28.671260	5.923936E-6	20.820153
2499.664992	-2.990300	3.056200	-9.137400	28.658203	4.372822E-6	20.835451
2500.669305	-3.010200	3.055100	-9.195600	28.666328	6.220958E-6	20.833677
2501.669597	-2.986300	3.054800	-9.122000	28.737931	5.494905E-6	20.819977
2502.664765	-2.984400	3.052700	-9.109600	28.749203	6.154953E-6	20.823745
2503.675955	-3.007300	3.052600	-9.179100	28.774622	2.887713E-6	20.830857
2504.669088	-3.000300	3.051100	-9.153500	28.806305	4.207810E-6	20.822944
2505.666920	-3.017700	3.050600	-9.204500	28.736044	3.052725E-6	20.831353
2506.667739	-3.008200	3.048900	-9.169700	28.701755	3.811781E-6	20.830006
2507.671805	-3.007300	3.046200	-9.160200	28.629750	3.712773E-6	20.803001
2508.665557	-3.008100	3.045600	-9.160700	28.607748	5.329892E-6	20.833946
2509.667860	-3.015400	3.043900	-9.178000	28.617585	3.580764E-6	20.819197
2510.667251	-2.973500	3.043100	-9.047600	28.651901	3.250739E-6	20.807767
2511.667015	-2.988200	3.042100	-9.089600	28.683888	4.273815E-6	20.821967
2512.675007	-3.013500	3.040800	-9.162400	28.714461	3.547761E-6	20.813407
2513.672583	-2.999400	3.040200	-9.118200	28.737552	2.722700E-6	20.797311
2514.675883	-3.013600	3.037900	-9.153900	28.662732	3.481756E-6	20.822470
2515.672991	-3.001600	3.037400	-9.116400	28.706038	1.105581E-6	20.815354
2516.672084	-3.016600	3.034400	-9.152300	28.743272	4.075800E-6	20.804969
2517.668632	-2.988800	3.034000	-9.067300	28.685846	3.217737E-6	20.804499
2518.669697	-2.994400	3.033000	-9.081600	28.634062	3.745776E-6	20.814930
2519.673151	-3.047700	3.031700	-9.238400	28.638445	4.273815E-6	20.816500
2520.671107	-3.009000	3.031200	-9.119900	28.647268	3.679771E-6	20.810214
2521.670622	-3.029600	3.029200	-9.175700	28.670482	2.392676E-6	20.812257
2522.674884	-3.030000	3.026500	-9.169200	28.635224	3.877785E-6	20.808989
2523.671812	-2.985600	3.027600	-9.038500	28.653089	3.712773E-6	20.811808
2524.672181	-2.992000	3.026200	-9.053700	28.684384	4.207810E-6	20.804448
2525.672860	-2.981100	3.025400	-9.017700	28.710150	3.646768E-6	20.836564
2526.670511	-2.984600	3.023100	-9.022000	28.718427	5.296890E-6	20.798909
2527.675888	-2.975800	3.021700	-8.991400	28.716548	3.514759E-6	20.823569
2528.674592	-2.965500	3.020900	-8.957800	28.745088	2.491683E-6	20.819126
2529.671886	-3.011700	3.018300	-9.089400	28.841657	4.603839E-6	20.805451
2530.674258	-2.997200	3.017200	-9.041400	28.896501	2.425679E-6	20.803328
2531.673419	-2.995700	3.016500	-9.035000	28.861426	3.118730E-6	20.812089
2532.672826	-3.003600	3.014600	-9.053900	28.830311	3.019722E-6	20.817254
2533.677943	-3.000900	3.013700	-9.042900	28.804893	2.656696E-6	20.791650
2534.672638	-2.990200	3.011500	-9.004400	28.819364	4.372822E-6	20.800537
2535.672349	-2.989100	3.010800	-8.998700	28.817156	4.075800E-6	20.788356
2536.672984	-2.991500	3.010600	-9.005200	28.809821	3.184734E-6	20.805623
2537.675350	-2.999900	3.007600	-9.021100	28.763225	-1.155085E-7	20.797566
2538.677457	-3.008100	3.006200	-9.042500	28.725938	2.887713E-6	20.803630
2539.674702	-3.011400	3.004700	-9.047400	28.703838	3.349747E-6	20.797965
2540.674261	-2.975700	3.004900	-8.940900	28.725242	3.283742E-6	20.810990
2541.673875	-3.007800	3.001700	-9.027300	28.746771	5.065873E-6	20.797588
2542.678557	-3.029400	2.999900	-9.086700	28.740555	4.603839E-6	20.814086
2543.680662	-3.017800	2.999900	-9.052400	28.733366	5.791926E-6	20.797361
2544.676970	-3.023600	2.998500	-9.064600	28.724918	1.864637E-6	20.793119
2545.681403	-3.008700	2.998200	-9.020200	28.719419	1.699625E-6	20.813658
2546.676032	-3.025200	2.995600	-9.060600	28.740701	2.359674E-6	20.792422
2547.677184	-3.030600	2.993800	-9.071900	28.706979	4.207810E-6	20.804448
2548.677296	-3.005200	2.994100	-8.996700	28.749050	3.580764E-6	20.790400
2549.677355	-3.015400	2.992500	-9.021900	28.829761	1.831635E-6	20.787778
2550.676672	-3.006800	2.991100	-8.992500	28.852508	1.600618E-6	20.783665
2551.680832	-2.968900	2.990100	-8.876300	28.840933	4.306817E-6	20.787178
2552.678843	-3.010700	2.987900	-8.994600	28.868503	2.293669E-6	20.806417
2553.680350	-2.995000	2.986700	-8.944200	28.875167	3.052725E-6	20.779939
2554.681880	-3.004900	2.985700	-8.970800	28.859264	4.537834E-6	20.798058
2555.679480	-2.990800	2.983900	-8.923800	28.878783	3.679771E-6	20.805393
2556.678170	-3.006600	2.981400	-8.963000	28.807064	2.656696E-6	20.790518
2557.683112	-2.967700	2.981100	-8.846400	28.785933	2.491683E-6	20.784404
2558.681184	-3.020300	2.978500	-8.995300	28.775577	2.359674E-6	20.782034
2559.683300	-2.988000	2.977500	-8.895900	28.793464	2.557688E-6	20.776344
2560.681072	-3.025100	2.975100	-8.998600	28.841700	8.745644E-7	20.778467
2561.685806	-3.006100	2.974000	-8.939600	28.856586	2.821708E-6	20.785877
2562.679468	-3.001200	2.972600	-8.920600	28.892432	2.491683E-6	20.786427
2563.679425	-2.976900	2.972800	-8.848400	28.903995	-8.745644E-7	20.800446
2564.697100	-2.990400	2.970200	-8.881300	28.899813	1.963645E-6	20.785328
2565.680880	-2.960300	2.968800	-8.787500	28.870607	-5.445401E-7	20.777716
2566.685068	-2.974400	2.968100	-8.827500	28.894365	1.815134E-7	20.774149
2567.680621	-2.974400	2.965300	-8.818800	28.934174	1.138584E-6	20.790073
2568.683770	-3.003500	2.963700	-8.899900	29.008058	3.382749E-6	20.768732
2569.684284	-3.000700	2.961900	-8.887000	28.985740	1.485109E-7	20.777066
2570.682693	-2.992300	2.960800	-8.859100	28.862181	1.006574E-6	20.795780
2571.686313	-2.993300	2.959500	-8.858300	28.867237	7.755571E-7	20.795184
2572.684836	-2.988300	2.958100	-8.837800	28.829558	4.785352E-7	20.776667
2573.683839	-2.985100	2.957900	-8.828900	28.826288	4.768851E-6	20.769105
2574.702431	-3.031900	2.955600	-8.959400	28.860223	-2.095654E-6	20.770574
2575.684535	-2.982100	2.954600	-8.809700	28.965578	-2.475182E-7	20.779512
2576.684346	-3.016000	2.953700	-8.907200	29.018558	2.194662E-6	20.775517
2577.688128	-3.009700	2.950200	-8.877700	29.048826	2.475182E-7	20.778513
2578.684018	-2.983100	2.950400	-8.799800	29.000079	1.369601E-6	20.766382
2579.686066	-3.020400	2.946200	-8.898100	29.052091	1.485109E-7	20.782752
2580.690621	-2.979100	2.945800	-8.775200	29.085998	1.600618E-6	20.806010
2581.685886	-2.995000	2.944600	-8.818500	29.083716	7.095522E-7	20.769572
2582.692060	-3.020500	2.942500	-8.887400	29.064127	2.475182E-7	20.784447
2583.689411	-3.002200	2.940500	-8.826800	28.992350	2.425679E-6	20.771397
2584.689282	-2.997600	2.939400	-8.810400	28.947366	-1.402603E-6	20.763534
2585.688741	-3.009200	2.937500	-8.837900	28.966341	-4.455328E-7	20.774116
2586.690700	-3.000800	2.936900	-8.811800	28.958436	-5.115377E-7	20.759514
2587.690030	-3.000300	2.935200	-8.805700	28.967328	-1.468608E-6	20.773689
2588.693938	-3.014700	2.934100	-8.844900	28.947562	-1.534613E-6	20.760886
2589.691072	-3.006400	2.930800	-8.810500	28.940281	1.402603E-6	20.767302
2590.688872	-3.001900	2.928900	-8.791800	28.950510	-1.666623E-6	20.774289
2591.701711	-3.009000	2.928900	-8.812300	28.983675	7.095522E-7	20.778305
2592.693903	-3.007500	2.927100	-8.802300	28.995141	-2.145158E-7	20.760933
2593.688974	-3.014700	2.924700	-8.816600	28.992417	1.171586E-6	20.754395
2594.694372	-3.004800	2.922200	-8.779900	29.004161	1.105581E-6	20.777134
2595.696007	-2.992500	2.922000	-8.743000	29.015898	1.699625E-6	20.762880
2596.690191	-3.017000	2.919200	-8.806400	29.102311	1.105581E-6	20.757962
2597.699852	-3.015500	2.917400	-8.796400	29.135624	2.821708E-6	20.771142
2598.703740	-3.029800	2.916800	-8.836400	29.038262	-4.125304E-7	20.765498
2599.692305	-2.979300	2.915200	-8.684300	29.062112	1.402603E-6	20.777202
2600.701859	-2.990900	2.912800	-8.709600	29.037417	1.815134E-7	20.779820
2601.693287	-3.048700	2.909500	-8.868900	28.995861	8.085595E-7	20.767348
2602.690240	-3.008000	2.908900	-8.749200	29.011313	6.435474E-7	20.751148
2603.696071	-2.987100	2.907100	-8.683300	29.059064	1.930642E-6	20.760854
2604.693483	-3.002900	2.906100	-8.725800	29.136587	3.465255E-7	20.748877
2605.691828	-2.971300	2.904100	-8.627800	29.183837	-2.458681E-6	20.782266
2606.695135	-2.971000	2.903300	-8.623300	29.176233	8.085595E-7	20.754689
2607.703634	-3.022400	2.898700	-8.759500	29.132819	5.775425E-7	20.763099
2608.698053	-2.977500	2.898800	-8.630600	29.124965	-1.831635E-6	20.757556
2609.694723	-2.976100	2.897600	-8.622300	29.161818	2.392676E-6	20.773828
2610.694883	-3.020200	2.894800	-8.741700	29.081402	3.135231E-7	20.742109
2611.692852	-3.011100	2.893100	-8.709900	29.040112	2.095654E-6	20.762147
2612.694773	-3.008500	2.890300	-8.694100	29.102624	1.303596E-6	20.751639
2613.696346	-2.998000	2.890100	-8.663700	29.097348	1.336598E-6	20.763867
2614.695628	-3.013500	2.887000	-8.699200	29.131820	1.303596E-6	20.766834
2615.697315	-3.013200	2.884900	-8.692100	29.205324	4.950364E-8	20.750813
2616.697080	-2.998100	2.883900	-8.645400	29.271099	1.336598E-6	20.763045
2617.707340	-3.007900	2.880900	-8.664500	29.269537	1.831635E-6	20.735392
2618.698003	-2.996500	2.880800	-8.631300	29.232785	-1.600618E-6	20.755727
2619.694969	-2.978100	2.877900	-8.570000	29.198758	6.765498E-7	20.768853
2620.695625	-2.981100	2.877700	-8.578000	29.153270	-1.815134E-7	20.755731
2621.697536	-3.008800	2.874000	-8.645700	29.090086	1.897640E-6	20.766033
2622.694796	-2.986700	2.873300	-8.580800	29.152499	1.204589E-6	20.757800
2623.699488	-2.992100	2.871300	-8.590500	29.070543	8.415620E-7	20.771946
2624.703303	-3.037700	2.867100	-8.708300	29.092414	-4.125304E-7	20.758421
2625.695474	-3.004800	2.867700	-8.614900	29.077652	1.831635E-6	20.748762
2626.704936	-3.007700	2.865800	-8.618900	29.173795	3.217737E-6	20.757922
2627.699062	-3.005600	2.863800	-8.606000	29.263464	2.788705E-6	20.750134
2628.697280	-3.001600	2.860600	-8.585000	29.310387	8.250607E-8	20.746215
2629.704722	-2.972600	2.860200	-8.500800	29.386801	5.445401E-7	20.761115
2630.699286	-3.028900	2.856700	-8.651900	29.407921	4.785352E-7	20.753952
2631.700028	-3.001000	2.855500	-8.567200	29.409057	1.864637E-6	20.775487
2632.701664	-3.014400	2.853200	-8.599200	29.450804	-3.135231E-7	20.768253
2633.703604	-3.013600	2.850400	-8.589700	29.446816	-8.085595E-7	20.747637
2634.705449	-2.971600	2.850200	-8.468500	29.342953	-8.415620E-7	20.754380
2635.710540	-2.996400	2.847200	-8.530400	29.241001	-1.732628E-6	20.762110
2636.701028	-2.979100	2.846100	-8.477800	29.165150	1.996647E-6	20.737356
2637.702037	-2.987500	2.843100	-8.493100	29.191775	3.580764E-6	20.770825
2638.706727	-2.986000	2.841400	-8.483200	29.194152	2.128657E-6	20.739081
2639.701833	-2.986700	2.838800	-8.477600	29.286518	-2.475182E-7	20.740176
2640.710210	-3.005700	2.835100	-8.520600	29.291942	3.795279E-7	20.757024
2641.706693	-2.982700	2.833900	-8.451800	29.258017	-4.125304E-7	20.765509
2642.705315	-2.990800	2.832100	-8.468300	29.274509	2.227664E-6	20.748938
2643.705439	-2.997900	2.829400	-8.481400	29.217258	-5.115377E-7	20.780858
2644.705815	-2.990800	2.826400	-8.452000	29.291272	1.204589E-6	20.758719
2645.703894	-3.029300	2.824600	-8.555600	29.252521	5.445401E-7	20.769453
2646.708738	-3.025800	2.823200	-8.541300	29.266265	3.465255E-7	20.752483
2647.714271	-2.997400	2.820100	-8.452300	29.354044	1.815134E-7	20.766507
2648.705368	-3.020900	2.816000	-8.505900	29.448131	9.405693E-7	20.768404
2649.705909	-3.019900	2.813700	-8.496200	29.419361	-1.699625E-6	20.763113
2650.706928	-2.990300	2.812800	-8.409800	29.365485	-2.029649E-6	20.753381
2651.716271	-2.974800	2.812100	-8.364600	29.298009	1.237591E-6	20.761715
2652.712071	-2.995900	2.807500	-8.409200	29.238826	1.815134E-7	20.751858
2653.710002	-2.967800	2.805500	-8.325200	29.259133	8.085595E-7	20.758572
2654.707540	-2.992900	2.803100	-8.388000	29.366301	1.864637E-6	20.762739
2655.708360	-3.005900	2.800000	-8.415600	29.462885	-4.455328E-7	20.765731
2656.711816	-3.030000	2.798000	-8.476600	29.464499	5.775425E-7	20.766885
2657.707194	-3.013200	2.794900	-8.420000	29.434763	3.465255E-7	20.775793
2658.706603	-3.018800	2.791600	-8.426100	29.451545	-1.155085E-7	20.763784
2659.711420	-3.045600	2.788700	-8.492300	29.403270	-1.402603E-6	20.772025
2660.714159	-3.029600	2.785400	-8.437500	29.293354	-7.425547E-7	20.764136
2661.713015	-2.986300	2.783600	-8.311700	29.357138	1.650122E-8	20.772944
2662.710467	-3.018400	2.781200	-8.394000	29.369298	1.204589E-6	20.784252
2663.714283	-2.988400	2.779600	-8.306100	29.388462	4.125304E-7	20.776540
2664.713091	-3.005400	2.775100	-8.338900	29.478682	5.445401E-7	20.752257
2665.709709	-3.016700	2.773500	-8.365800	29.591672	1.270594E-6	20.794084
2666.712480	-3.000500	2.769700	-8.309700	29.600484	4.950364E-8	20.777363
2667.718457	-3.027800	2.766100	-8.374200	29.594790	2.557688E-6	20.767355
2668.718412	-2.995100	2.763500	-8.276300	29.606623	1.138584E-6	20.776440
2669.709550	-2.984800	2.761500	-8.242200	29.571942	3.135231E-7	20.776565
2670.713377	-2.975100	2.758800	-8.206400	29.508862	1.204589E-6	20.768454
2671.716744	-2.998400	2.753600	-8.255200	29.431620	2.029649E-6	20.772625
2672.712116	-2.976700	2.751200	-8.188300	29.504832	5.775425E-7	20.777668
2673.723763	-3.006500	2.748400	-8.262500	29.532289	2.029649E-6	20.784957
2674.717519	-2.981100	2.745300	-8.182500	29.457817	-9.405693E-7	20.781487
2675.714923	-3.012100	2.741500	-8.256900	29.500798	-1.485109E-7	20.773128
2676.717758	-2.987500	2.738300	-8.179600	29.423577	-7.425547E-7	20.783010
2677.720168	-3.015800	2.733600	-8.243200	29.397553	2.359674E-6	20.774324
2678.721467	-2.998500	2.731300	-8.188600	29.429051	-9.735717E-7	20.785208
2679.720391	-3.015700	2.727300	-8.224100	29.376608	-1.485109E-7	20.787827
2680.718421	-3.007800	2.724800	-8.195000	29.455519	1.039577E-6	20.781541
2681.714551	-3.007000	2.721700	-8.182800	29.554079	1.105581E-6	20.805500
2682.715719	-2.992100	2.718900	-8.134300	29.553834	9.075668E-7	20.771587
2683.719168	-2.991400	2.713300	-8.115900	29.590497	-1.006574E-6	20.780571
2684.718597	-3.035600	2.709600	-8.224800	29.557946	-1.155085E-7	20.783319
2685.715917	-3.018900	2.705200	-8.166000	29.582308	7.095522E-7	20.788912
2686.719378	-3.003100	2.702300	-8.113200	29.626966	4.950364E-8	20.800267
2687.720752	-2.986100	2.698700	-8.058200	29.698654	2.755703E-6	20.790036
2688.715287	-3.015700	2.693900	-8.123300	29.708434	1.369601E-6	20.806535
2689.718596	-3.024500	2.689800	-8.134000	29.647568	-1.666623E-6	20.794010
2690.715963	-3.003000	2.685900	-8.064600	29.666035	7.095522E-7	20.799825
2691.726053	-2.996100	2.683500	-8.039000	29.694453	3.481756E-6	20.768258
2692.718740	-3.005300	2.678000	-8.047800	29.761879	-8.250608E-8	20.807789
2693.716045	-3.016300	2.674100	-8.065100	29.739381	1.435606E-6	20.793640
2694.718163	-3.045100	2.668300	-8.123600	29.709353	2.805207E-7	20.797031
2695.720861	-2.982600	2.665300	-7.948200	29.676311	-4.785352E-7	20.790744
2696.715820	-2.987000	2.660600	-7.946000	29.641041	1.237591E-6	20.796438
2697.717867	-2.939600	2.657800	-7.811700	29.614777	-2.475182E-7	20.805997
2698.716050	-2.998500	2.651000	-7.948300	29.657652	1.501611E-6	20.791847
2699.716435	-3.028300	2.645100	-8.009500	29.748769	-1.650122E-8	20.818278
2700.716613	-2.999700	2.642400	-7.925400	29.736616	1.501611E-6	20.811715
2701.717798	-3.021800	2.637300	-7.969100	29.749984	8.250607E-8	20.801959
2702.718347	-2.997100	2.631200	-7.885200	29.842179	1.435606E-6	20.824744
2703.727727	-2.995300	2.627300	-7.868700	29.831193	1.567615E-6	20.814614
2704.720605	-2.976300	2.622700	-7.804800	29.801646	1.039577E-6	20.812323
2705.718006	-2.989300	2.618400	-7.826400	29.816890	1.650122E-8	20.804460
2706.720911	-2.996000	2.612600	-7.826900	29.788254	3.085727E-6	20.810674
2707.723464	-3.017700	2.605400	-7.861300	29.870867	1.765630E-6	20.802462
2708.724061	-2.997100	2.601900	-7.797200	29.944494	2.557688E-6	20.804162
2709.732796	-3.005500	2.597600	-7.806300	29.973870	1.435606E-6	20.817664
2710.720633	-2.984200	2.590100	-7.728700	29.994707	8.085595E-7	20.817815
2711.734827	-2.987900	2.584200	-7.720000	29.985229	1.930642E-6	20.823429
2712.726041	-3.048100	2.576200	-7.851000	29.936009	9.075668E-7	20.820735
2713.722131	-2.989200	2.574800	-7.695800	29.943358	1.501611E-6	20.811551
2714.721625	-2.997000	2.566700	-7.690900	29.996937	-6.765498E-7	20.836185
2715.725966	-3.008600	2.561700	-7.706200	30.070505	1.006574E-6	20.810807
2716.721874	-3.039800	2.555700	-7.767600	30.066299	-3.465255E-7	20.826479
2717.729159	-2.996100	2.549100	-7.636100	29.936975	-1.072579E-6	20.824080
2718.726515	-2.951500	2.545000	-7.510400	29.921782	1.072579E-6	20.805915
2719.720463	-3.000400	2.538000	-7.614400	29.928664	1.303596E-6	20.828502
2720.730094	-3.008500	2.530600	-7.612400	29.944306	9.075668E-7	20.809187
2721.725076	-3.001000	2.524600	-7.575900	29.933566	8.745644E-7	20.825384
2722.724531	-2.980000	2.518700	-7.504000	29.930449	1.336598E-6	20.827456
2723.723638	-2.989400	2.512600	-7.510100	29.917280	1.171586E-6	20.805168
2724.723976	-2.969600	2.506300	-7.442100	29.931240	1.303596E-6	20.816874
2725.725909	-2.968600	2.499500	-7.418400	29.957004	1.600618E-6	20.840485
