LabVIEW Measurement	
Writer_Version	2
Reader_Version	2
Separator	Tab
Decimal_Separator	.
Multi_Headings	No
X_Columns	One
Time_Pref	Absolute
Operator	admin
Description	Clolumns are: time, Current, Voltage, Power, Battery Temp, and Chamber Temp
Date	2024/08/16
Time	13:07:17.8513970375061035156
***End_of_Header***	
	
Channels	6						
Samples	1	1	1	1	1	1	
Date	2024/09/07	2024/09/07	2024/09/07	2024/09/07	2024/09/07	2024/09/07	
Time	23:33:55.9245777130126953125	23:33:55.9295759201049804688	23:33:55.9345889091491699219	23:33:55.9032702445983886719	23:33:55.9032702445983886719	23:33:55.9032702445983886719	
X_Dimension	Time	Time	Time	Time	Time	Time	
X0	0.0000000000000000E+0	0.0000000000000000E+0	0.0000000000000000E+0	0.0000000000000000E+0	0.0000000000000000E+0	0.0000000000000000E+0	
Delta_X	1.000000	1.000000	1.000000	1.000000	1.000000	1.000000	
***End_of_Header***							
X_Value	Untitled	Untitled 1	Untitled 2	Untitled 3	Untitled 4	Untitled 5	Comment
0.000000	0.022722	4.086100	0.092842	20.830515	0.000467	20.784048
0.993986	-2.995600	3.920800	-11.744000	20.865352	0.000464	20.797076
1.994123	-3.000900	3.915000	-11.748000	20.843315	0.000464	20.799693
2.997058	-3.018800	3.910000	-11.803000	20.846184	0.000463	20.785019
3.996995	-3.022600	3.906500	-11.807000	20.850350	0.000463	20.789185
4.995205	-2.980700	3.905400	-11.640000	20.853919	0.000462	20.799867
6.005642	-2.967800	3.902200	-11.580000	20.879969	0.000459	20.807427
7.000832	-2.994800	3.899300	-11.675000	20.883911	0.000460	20.813740
7.999449	-2.987500	3.897300	-11.642000	20.885433	0.000459	20.796296
8.999768	-3.007800	3.895500	-11.715000	20.886029	0.000459	20.807797
9.996617	-3.000300	3.893900	-11.682000	20.901973	0.000458	20.799561
10.998416	-2.982300	3.890800	-11.602000	20.895435	0.000457	20.794444
11.998953	-2.996600	3.890400	-11.657000	20.907112	0.000456	20.800907
12.996524	-2.966600	3.889700	-11.539000	20.918937	0.000458	20.801828
14.001060	-2.995700	3.889200	-11.650000	20.914921	0.000455	20.806820
15.001087	-3.016900	3.886900	-11.725000	20.952348	0.000455	20.803948
15.998702	-3.000600	3.886800	-11.661000	20.950201	0.000456	20.791370
17.003123	-3.015500	3.884600	-11.713000	20.959285	0.000454	20.811835
17.999459	-3.030600	3.883700	-11.769000	20.953118	0.000454	20.804718
19.000484	-3.013600	3.881800	-11.697000	20.960753	0.000454	20.803346
20.004670	-3.019400	3.882500	-11.722000	20.957085	0.000452	20.817694
21.000932	-2.980200	3.881900	-11.568000	20.993040	0.000454	20.805766
22.005482	-2.999100	3.880000	-11.636000	20.994411	0.000453	20.813301
22.999904	-2.993400	3.879600	-11.612000	20.996980	0.000453	20.804965
24.000760	-2.985500	3.880800	-11.586000	21.005364	0.000451	20.806712
25.002557	-2.992300	3.879300	-11.608000	21.019010	0.000453	20.805188
26.000545	-2.999100	3.878100	-11.630000	21.042065	0.000451	20.823506
27.001459	-2.983600	3.877600	-11.568000	21.045605	0.000451	20.818038
28.005796	-3.012000	3.877800	-11.679000	21.040117	0.000452	20.804963
29.001993	-2.988600	3.877300	-11.587000	21.053391	0.000449	20.786945
30.008175	-2.989700	3.876900	-11.590000	21.053142	0.000448	20.815620
31.002331	-3.023000	3.875400	-11.714000	21.082829	0.000450	20.820183
32.003486	-3.003400	3.875600	-11.639000	21.082904	0.000448	20.819309
33.005631	-2.988600	3.875300	-11.580000	21.086820	0.000450	20.824649
34.004026	-3.003700	3.875500	-11.639000	21.082005	0.000450	20.822678
35.009764	-3.001200	3.874700	-11.628000	21.117108	0.000451	20.811323
36.006940	-2.993000	3.874700	-11.596000	21.104833	0.000450	20.827968
37.005110	-3.000000	3.874200	-11.621000	21.122271	0.000450	20.811746
38.005709	-3.002200	3.874100	-11.629000	21.138338	0.000448	20.828765
39.007236	-3.025400	3.872200	-11.714000	21.127210	0.000448	20.838971
40.006328	-2.997000	3.872800	-11.605000	21.158944	0.000446	20.829937
41.010213	-3.013600	3.871700	-11.667000	21.153628	0.000450	20.812766
42.006896	-3.000000	3.871500	-11.614000	21.173586	0.000446	20.822299
43.007350	-2.992200	3.871100	-11.582000	21.178376	0.000449	20.835625
44.009478	-2.991500	3.871500	-11.580000	21.177701	0.000446	20.818829
45.008884	-3.008700	3.871100	-11.646000	21.207389	0.000446	20.832879
46.009739	-3.006300	3.870700	-11.635000	21.198929	0.000448	20.836271
47.009282	-3.009300	3.869900	-11.645000	21.218137	0.000447	20.812338
48.008601	-3.002800	3.870200	-11.621000	21.211154	0.000447	20.824792
49.009595	-3.006100	3.869300	-11.630000	21.231036	0.000446	20.835198
50.011826	-3.020300	3.869000	-11.685000	21.232381	0.000448	20.826113
51.009840	-3.002100	3.869100	-11.614000	21.237044	0.000447	20.822243
52.011790	-3.012400	3.869100	-11.654000	21.266383	0.000445	20.831204
53.012013	-3.002500	3.868500	-11.615000	21.246973	0.000447	20.843555
54.009793	-3.001500	3.868300	-11.610000	21.279352	0.000446	20.837066
55.013990	-2.977800	3.869900	-11.522000	21.288557	0.000446	20.813085
56.012755	-2.992300	3.868700	-11.575000	21.304744	0.000447	20.837339
57.014452	-2.981900	3.869000	-11.535000	21.320958	0.000448	20.839809
58.014687	-2.988100	3.867900	-11.556000	21.332655	0.000447	20.817848
59.013790	-2.986000	3.867500	-11.548000	21.335074	0.000446	20.828328
60.014104	-3.004700	3.866700	-11.617000	21.331955	0.000446	20.834217
61.012869	-3.002100	3.867000	-11.608000	21.358195	0.000446	20.823486
62.015005	-2.976900	3.866000	-11.508000	21.355724	0.000446	20.839031
63.017867	-2.998000	3.866000	-11.589000	21.368744	0.000446	20.834987
64.017511	-3.022900	3.866100	-11.685000	21.381266	0.000445	20.854628
65.017077	-3.006100	3.865700	-11.620000	21.370114	0.000447	20.842996
66.017003	-3.000800	3.865700	-11.599000	21.381339	0.000446	20.838580
67.017414	-3.008500	3.865500	-11.628000	21.400519	0.000446	20.841648
68.018710	-3.010900	3.864000	-11.633000	21.408573	0.000445	20.847336
69.017797	-2.997700	3.863700	-11.581000	21.397200	0.000446	20.835008
70.016358	-2.992200	3.864600	-11.562000	21.441144	0.000444	20.816862
71.018682	-2.972400	3.865700	-11.489000	21.414956	0.000446	20.834756
72.016610	-3.014000	3.864300	-11.645000	21.428123	0.000445	20.836551
73.020353	-3.001800	3.864000	-11.598000	21.461246	0.000445	20.835079
74.019126	-3.007800	3.863700	-11.621000	21.441992	0.000446	20.831936
75.020383	-2.997800	3.864000	-11.583000	21.457976	0.000445	20.858833
76.020030	-3.015000	3.863000	-11.646000	21.468925	0.000446	20.838969
77.018300	-2.998900	3.864300	-11.588000	21.496909	0.000445	20.852744
78.022407	-2.998700	3.862900	-11.583000	21.486630	0.000447	20.850994
79.023492	-2.988500	3.864800	-11.550000	21.494835	0.000446	20.843557
80.018893	-3.002300	3.863600	-11.599000	21.516536	0.000446	20.848675
81.020113	-2.994200	3.861800	-11.562000	21.514713	0.000444	20.833576
82.025533	-2.993700	3.862800	-11.563000	21.530847	0.000448	20.857779
83.021032	-3.013000	3.862000	-11.635000	21.533566	0.000447	20.849595
84.024779	-3.024000	3.862300	-11.678000	21.560697	0.000447	20.847821
85.019586	-3.012000	3.863000	-11.635000	21.572744	0.000447	20.846125
86.022355	-2.985700	3.861800	-11.528000	21.574637	0.000448	20.848019
87.022752	-2.971100	3.861700	-11.473000	21.592119	0.000448	20.858401
88.025449	-3.007700	3.861400	-11.613000	21.584511	0.000446	20.853632
89.023277	-2.992500	3.862100	-11.556000	21.588053	0.000447	20.869978
90.022726	-2.994900	3.861800	-11.564000	21.580596	0.000446	20.846870
91.022090	-3.005800	3.862400	-11.608000	21.615634	0.000447	20.870552
92.021833	-3.006200	3.861400	-11.607000	21.615883	0.000447	20.861318
93.022331	-3.009000	3.860200	-11.614000	21.627728	0.000450	20.848042
94.026965	-3.008400	3.860500	-11.613000	21.639795	0.000446	20.851109
95.023345	-3.005200	3.860600	-11.601000	21.640043	0.000448	20.830970
96.023623	-2.991300	3.859900	-11.545000	21.653186	0.000448	20.860716
97.025805	-3.015400	3.858100	-11.632000	21.668445	0.000450	20.858917
98.023816	-2.980900	3.859600	-11.505000	21.651139	0.000449	20.855823
99.024985	-2.995300	3.860800	-11.563000	21.670514	0.000450	20.846289
100.025265	-3.003200	3.858900	-11.588000	21.709464	0.000449	20.850181
101.026857	-2.997300	3.860300	-11.570000	21.718914	0.000450	20.863906
102.025685	-3.006800	3.860300	-11.606000	21.718438	0.000448	20.868172
103.023538	-3.012400	3.859400	-11.625000	21.723600	0.000450	20.843467
104.032353	-2.982000	3.861100	-11.513000	21.706342	0.000449	20.863178
105.026441	-3.018100	3.859600	-11.648000	21.727240	0.000448	20.873186
106.026388	-2.998200	3.858500	-11.567000	21.750127	0.000450	20.868592
107.026358	-3.008700	3.857700	-11.606000	21.746985	0.000450	20.870188
108.025709	-2.981800	3.858600	-11.504000	21.761247	0.000451	20.870238
109.026352	-3.002400	3.857300	-11.580000	21.766107	0.000452	20.868464
110.026818	-2.976600	3.858800	-11.485000	21.756082	0.000450	20.875025
111.027324	-2.991800	3.858100	-11.542000	21.770694	0.000451	20.871632
112.026336	-3.002800	3.857900	-11.584000	21.779794	0.000452	20.875524
113.028852	-3.008500	3.857500	-11.604000	21.814626	0.000451	20.877195
114.026442	-2.993400	3.857400	-11.545000	21.814525	0.000453	20.876620
115.030720	-2.969900	3.857300	-11.455000	21.828933	0.000452	20.878239
116.026427	-2.991100	3.856300	-11.533000	21.845439	0.000452	20.878164
117.027176	-3.000700	3.856700	-11.572000	21.826265	0.000450	20.895007
118.026978	-3.005100	3.856000	-11.587000	21.862717	0.000454	20.897353
119.025927	-2.997400	3.856200	-11.558000	21.840874	0.000454	20.886871
120.026919	-2.999100	3.857700	-11.569000	21.868348	0.000454	20.871223
121.030811	-3.010800	3.855300	-11.607000	21.887993	0.000454	20.874291
122.026929	-3.015100	3.856100	-11.626000	21.876076	0.000454	20.888914
123.027900	-3.012300	3.856000	-11.614000	21.898289	0.000454	20.876536
124.031678	-2.998200	3.855500	-11.558000	21.892603	0.000456	20.880801
125.027401	-2.984600	3.856300	-11.509000	21.896990	0.000454	20.885666
126.029912	-3.014500	3.855300	-11.621000	21.909505	0.000453	20.891080
127.027835	-3.025300	3.854500	-11.660000	21.919179	0.000455	20.884169
128.030361	-2.990700	3.855000	-11.528000	21.915237	0.000456	20.879749
129.028809	-2.983100	3.856000	-11.501000	21.934358	0.000455	20.880872
130.027795	-3.030000	3.854200	-11.678000	21.919697	0.000457	20.897489
131.028930	-2.990300	3.855500	-11.528000	21.939244	0.000457	20.896666
132.028885	-3.011000	3.854900	-11.606000	21.949912	0.000455	20.911136
133.031013	-2.989700	3.854800	-11.523000	21.987158	0.000458	20.888679
134.029081	-2.983200	3.854100	-11.497000	21.961501	0.000456	20.890972
135.030958	-3.007100	3.853600	-11.587000	21.977008	0.000458	20.899381
136.032722	-3.003900	3.853300	-11.574000	21.992937	0.000459	20.876448
137.033072	-3.001900	3.852900	-11.565000	22.003606	0.000457	20.873852
138.032006	-2.987500	3.854300	-11.514000	21.984660	0.000458	20.890446
139.031299	-2.999700	3.852400	-11.554000	22.011059	0.000459	20.916870
140.034111	-3.004500	3.854200	-11.579000	22.007917	0.000459	20.890494
141.031584	-2.998500	3.852700	-11.550000	22.058173	0.000458	20.880113
142.036311	-2.998800	3.853200	-11.554000	22.043687	0.000458	20.903541
143.031629	-3.012200	3.851500	-11.600000	22.055576	0.000459	20.902641
144.032243	-3.016900	3.851300	-11.618000	22.060860	0.000461	20.889915
145.032646	-3.013900	3.851300	-11.606000	22.074844	0.000460	20.895378
146.032798	-3.010900	3.852200	-11.598000	22.072052	0.000462	20.912970
147.035431	-3.008900	3.851600	-11.588000	22.078581	0.000461	20.908602
148.037681	-3.018100	3.852100	-11.624000	22.103456	0.000460	20.922598
149.034972	-3.007600	3.852300	-11.585000	22.098422	0.000462	20.902861
150.036070	-2.990300	3.851700	-11.517000	22.120531	0.000463	20.912192
151.038912	-3.005200	3.851200	-11.572000	22.100488	0.000464	20.903507
152.036038	-3.009300	3.849900	-11.585000	22.134562	0.000463	20.917704
153.040106	-3.000600	3.850400	-11.553000	22.146127	0.000463	20.908421
154.037682	-2.992300	3.851000	-11.523000	22.153630	0.000462	20.913561
155.038827	-3.022800	3.850600	-11.639000	22.151634	0.000461	20.927209
156.041940	-2.994200	3.850900	-11.529000	22.158538	0.000464	20.913259
157.045724	-3.018700	3.848800	-11.618000	22.158587	0.000462	20.888655
158.051905	-3.013800	3.849300	-11.600000	22.172270	0.000464	20.917050
159.039818	-3.018000	3.847900	-11.612000	22.173166	0.000463	20.908939
160.042272	-2.998800	3.850000	-11.544000	22.185330	0.000468	20.906419
161.047209	-3.018600	3.848000	-11.615000	22.194526	0.000465	20.921316
162.039992	-3.007000	3.849200	-11.572000	22.236772	0.000464	20.899130
163.044377	-3.002000	3.849800	-11.556000	22.208258	0.000464	20.899031
164.041670	-2.973400	3.849500	-11.445000	22.241431	0.000467	20.895261
165.041602	-3.007800	3.849500	-11.578000	22.240085	0.000467	20.908136
166.041280	-3.024700	3.847700	-11.638000	22.245368	0.000466	20.909159
167.042426	-2.976500	3.850200	-11.459000	22.228843	0.000470	20.887874
168.045182	-2.996100	3.849100	-11.531000	22.236394	0.000467	20.904441
169.043316	-2.985300	3.848900	-11.489000	22.247983	0.000467	20.899924
170.042879	-2.991100	3.849100	-11.511000	22.251746	0.000465	20.913648
171.046209	-3.003500	3.846900	-11.553000	22.277864	0.000469	20.890490
172.043316	-3.022300	3.846000	-11.623000	22.279136	0.000467	20.907882
173.047701	-2.951600	3.847700	-11.355000	22.297153	0.000468	20.893682
174.048048	-3.017600	3.846600	-11.606000	22.306324	0.000468	20.894804
175.044168	-3.005600	3.846600	-11.560000	22.285089	0.000471	20.885871
176.044846	-2.995800	3.847300	-11.525000	22.282348	0.000469	20.892608
177.047234	-2.990300	3.846400	-11.501000	22.293634	0.000471	20.900116
178.044655	-3.000100	3.845800	-11.537000	22.286257	0.000469	20.880402
179.046789	-3.006400	3.846100	-11.562000	22.296325	0.000470	20.891905
180.047441	-2.987900	3.844500	-11.486000	22.308461	0.000469	20.873713
181.046539	-2.994300	3.844900	-11.512000	22.330068	0.000470	20.890131
182.047813	-3.017000	3.845600	-11.601000	22.348808	0.000469	20.900835
183.046228	-2.972400	3.845500	-11.430000	22.362889	0.000473	20.886013
184.052826	-2.974400	3.846400	-11.439000	22.384145	0.000473	20.878376
185.059792	-2.977100	3.844500	-11.444000	22.390524	0.000470	20.886185
186.049582	-3.009100	3.845100	-11.569000	22.372604	0.000471	20.890525
187.049200	-2.971600	3.845200	-11.425000	22.372728	0.000473	20.892546
188.047408	-3.026700	3.844000	-11.634000	22.425185	0.000472	20.894341
189.051149	-2.990800	3.843800	-11.494000	22.411127	0.000471	20.867464
190.053967	-2.991800	3.843200	-11.497000	22.430366	0.000475	20.872031
191.050521	-2.994800	3.844100	-11.512000	22.405247	0.000474	20.878644
192.051810	-3.002300	3.844000	-11.540000	22.425779	0.000473	20.879764
193.052262	-3.009000	3.842500	-11.561000	22.443273	0.000475	20.882110
194.049742	-2.985200	3.844200	-11.475000	22.445514	0.000473	20.882932
195.053659	-3.004900	3.844000	-11.550000	22.461038	0.000474	20.877142
196.051914	-2.996700	3.843000	-11.515000	22.446085	0.000476	20.877815
197.051996	-2.985000	3.843400	-11.471000	22.475165	0.000475	20.883229
198.053795	-3.010400	3.842500	-11.566000	22.466643	0.000475	20.882281
199.051690	-2.997700	3.842900	-11.519000	22.474765	0.000477	20.852958
200.054424	-3.008500	3.842400	-11.559000	22.478476	0.000478	20.870898
201.050121	-2.984000	3.842100	-11.465000	22.508804	0.000477	20.874718
202.053573	-3.017700	3.840800	-11.590000	22.512490	0.000474	20.862290
203.052735	-2.996300	3.841700	-11.510000	22.515005	0.000476	20.845368
204.053090	-3.006500	3.841200	-11.548000	22.525045	0.000476	20.859216
205.055499	-2.998300	3.841600	-11.517000	22.524945	0.000479	20.853901
206.056897	-2.998900	3.841400	-11.519000	22.548816	0.000479	20.847462
207.053266	-3.001300	3.840700	-11.525000	22.580483	0.000478	20.860212
208.053206	-2.999700	3.839800	-11.518000	22.544328	0.000478	20.856244
209.056394	-3.002400	3.840200	-11.528000	22.526112	0.000480	20.859337
210.054487	-2.988100	3.840600	-11.475000	22.548986	0.000480	20.860434
211.056801	-2.999100	3.839100	-11.513000	22.540464	0.000480	20.856641
212.054557	-2.993900	3.839900	-11.496000	22.536998	0.000479	20.845584
213.056245	-2.995700	3.839100	-11.500000	22.542456	0.000482	20.856739
214.056049	-3.008100	3.839400	-11.549000	22.566374	0.000481	20.865520
215.055730	-2.994100	3.839200	-11.494000	22.576814	0.000485	20.859382
216.056431	-3.024400	3.838900	-11.610000	22.583615	0.000480	20.864297
217.056067	-2.992400	3.840700	-11.492000	22.595249	0.000482	20.862198
218.057938	-2.998400	3.838800	-11.509000	22.613660	0.000481	20.858354
219.055309	-3.002400	3.837700	-11.522000	22.617197	0.000484	20.851940
220.059726	-3.004600	3.837600	-11.529000	22.627039	0.000481	20.857056
221.055632	-2.998800	3.838300	-11.509000	22.624720	0.000483	20.845251
222.058419	-3.013200	3.837600	-11.563000	22.655914	0.000484	20.874123
223.056520	-2.968600	3.838500	-11.394000	22.660124	0.000483	20.860322
224.060964	-2.983300	3.837800	-11.447000	22.680777	0.000484	20.855405
225.068301	-2.993500	3.837600	-11.487000	22.664631	0.000484	20.842552
226.059657	-3.003300	3.836500	-11.522000	22.649257	0.000486	20.867455
227.060738	-3.011000	3.834900	-11.546000	22.660243	0.000485	20.864708
228.061149	-3.000600	3.836300	-11.511000	22.681545	0.000486	20.865657
229.061350	-2.994300	3.837500	-11.490000	22.698460	0.000486	20.852255
230.063080	-3.004300	3.836500	-11.526000	22.686850	0.000488	20.862436
231.063324	-3.003600	3.836600	-11.523000	22.693675	0.000486	20.861686
232.063034	-2.988900	3.835600	-11.463000	22.717416	0.000486	20.858914
233.063249	-3.017300	3.835100	-11.571000	22.703811	0.000487	20.838649
234.061679	-2.990600	3.836200	-11.472000	22.742128	0.000486	20.836254
235.065522	-3.013700	3.835600	-11.558000	22.731140	0.000486	20.845161
236.070104	-3.011900	3.835300	-11.551000	22.738739	0.000487	20.858936
237.062544	-3.004500	3.834000	-11.519000	22.725957	0.000490	20.849452
238.066307	-3.001600	3.835100	-11.511000	22.739211	0.000489	20.858460
239.062590	-2.992300	3.836500	-11.477000	22.794315	0.000490	20.839218
240.063549	-3.019500	3.834700	-11.578000	22.769079	0.000489	20.837173
241.062966	-3.015800	3.834300	-11.563000	22.783627	0.000491	20.854590
242.062550	-2.998400	3.833400	-11.493000	22.795260	0.000489	20.838743
243.063091	-2.975600	3.834700	-11.410000	22.814093	0.000490	20.850971
244.063248	-3.005500	3.832700	-11.519000	22.826673	0.000489	20.840813
245.062837	-2.978800	3.833100	-11.417000	22.812645	0.000491	20.848572
246.064979	-2.994200	3.832100	-11.474000	22.815111	0.000491	20.847723
247.069488	-2.992700	3.834100	-11.473000	22.795854	0.000490	20.848821
248.064606	-3.012100	3.832700	-11.543000	22.790472	0.000491	20.836792
249.067654	-3.014100	3.830800	-11.546000	22.789276	0.000492	20.833696
250.064525	-3.009800	3.831500	-11.531000	22.797172	0.000493	20.842554
251.063478	-2.989700	3.831700	-11.455000	22.826067	0.000491	20.846371
252.064316	-2.986500	3.831700	-11.442000	22.838375	0.000493	20.851588
253.067737	-3.002000	3.830100	-11.497000	22.835734	0.000492	20.843726
254.066350	-2.988800	3.830000	-11.446000	22.850155	0.000494	20.829725
255.064759	-3.006000	3.830200	-11.513000	22.855038	0.000492	20.825134
256.063374	-3.004700	3.830800	-11.510000	22.885003	0.000492	20.843773
257.063946	-2.988000	3.830700	-11.445000	22.920948	0.000494	20.845171
258.063823	-2.970200	3.831300	-11.379000	22.917708	0.000494	20.847140
259.066321	-2.975800	3.829500	-11.395000	22.915639	0.000494	20.823732
260.068534	-2.984000	3.830600	-11.430000	22.909861	0.000495	20.850658
261.064149	-2.996700	3.829100	-11.473000	22.916061	0.000495	20.826051
262.065542	-2.983800	3.829600	-11.425000	22.906846	0.000496	20.814448
263.067665	-2.989300	3.830500	-11.450000	22.899819	0.000498	20.835383
264.066138	-3.002000	3.830400	-11.498000	22.933523	0.000496	20.824105
265.065476	-2.999800	3.828700	-11.485000	22.962064	0.000494	20.836579
266.065570	-3.009200	3.827800	-11.517000	22.956784	0.000498	20.824651
267.069973	-3.021800	3.827200	-11.564000	22.961940	0.000495	20.849256
268.066920	-2.995300	3.827700	-11.465000	22.952425	0.000495	20.829767
269.067234	-3.022000	3.827100	-11.564000	22.958402	0.000498	20.840496
270.071377	-2.995400	3.828000	-11.465000	22.955786	0.000498	20.842142
271.064785	-3.009900	3.826300	-11.516000	22.968663	0.000500	20.820906
272.065221	-2.994600	3.827000	-11.459000	22.984257	0.000498	20.840322
273.069497	-3.017300	3.827000	-11.546000	22.996883	0.000498	20.836851
274.066036	-3.012600	3.825600	-11.524000	22.986571	0.000498	20.840269
275.072641	-2.996700	3.827100	-11.468000	22.993621	0.000499	20.810824
276.067190	-2.997100	3.826500	-11.467000	22.998327	0.000502	20.830712
277.066988	-2.995600	3.827000	-11.463000	22.999298	0.000499	20.822202
278.067872	-3.004000	3.825500	-11.491000	22.994939	0.000501	20.831110
279.068599	-3.023100	3.823600	-11.558000	22.999497	0.000498	20.820979
280.067422	-3.024800	3.826300	-11.573000	22.996583	0.000502	20.819482
281.070574	-3.004300	3.824800	-11.490000	22.989460	0.000501	20.826095
282.067444	-2.986700	3.824900	-11.423000	23.018700	0.000503	20.834054
283.068519	-2.994800	3.825300	-11.454000	23.017852	0.000503	20.813766
284.073034	-2.996400	3.825300	-11.461000	23.045846	0.000500	20.815735
285.069537	-3.013300	3.823600	-11.520000	23.062435	0.000502	20.817184
286.075315	-3.001000	3.824800	-11.477000	23.068385	0.000503	20.816508
287.069977	-2.992400	3.825000	-11.445000	23.072370	0.000504	20.816708
288.071856	-3.011000	3.822600	-11.509000	23.076030	0.000503	20.825117
289.074678	-2.997900	3.823500	-11.462000	23.101160	0.000504	20.814262
290.071971	-3.023100	3.822100	-11.554000	23.114482	0.000503	20.820973
291.074996	-2.971600	3.824300	-11.363000	23.119664	0.000506	20.811466
292.073897	-2.998600	3.821700	-11.459000	23.136100	0.000506	20.835996
293.073779	-3.007200	3.822500	-11.494000	23.144840	0.000505	20.809194
294.073182	-3.008900	3.821200	-11.495000	23.145388	0.000504	20.832027
295.074923	-3.001400	3.821100	-11.468000	23.151888	0.000505	20.829058
296.084030	-2.995700	3.823000	-11.452000	23.143768	0.000505	20.820921
297.076248	-3.007000	3.822400	-11.493000	23.166631	0.000507	20.815857
298.082934	-2.995600	3.820500	-11.444000	23.188744	0.000507	20.802455
299.075733	-3.014800	3.821100	-11.518000	23.172781	0.000506	20.813959
300.075693	-2.991700	3.822400	-11.435000	23.193922	0.000505	20.816179
301.081880	-2.997000	3.821000	-11.450000	23.180424	0.000506	20.823040
302.076768	-2.995300	3.821000	-11.444000	23.185356	0.000508	20.800482
303.075775	-2.995900	3.821200	-11.447000	23.182641	0.000508	20.794916
304.076169	-3.010200	3.820100	-11.497000	23.181271	0.000508	20.799234
305.075060	-2.992200	3.820700	-11.432000	23.179179	0.000509	20.822266
306.076258	-2.991300	3.820400	-11.427000	23.167100	0.000507	20.820594
307.079810	-2.988900	3.819300	-11.415000	23.159903	0.000508	20.817649
308.077149	-2.975000	3.820200	-11.365000	23.198254	0.000507	20.807243
309.076806	-3.000600	3.819500	-11.460000	23.215188	0.000509	20.814730
310.076643	-2.992500	3.818200	-11.425000	23.205351	0.000509	20.798234
311.075536	-3.000100	3.818700	-11.455000	23.206273	0.000509	20.808640
312.076222	-2.990100	3.818000	-11.415000	23.212372	0.000508	20.827555
313.077113	-3.000800	3.818800	-11.458000	23.192277	0.000508	20.795563
314.076156	-2.998200	3.818700	-11.449000	23.210579	0.000508	20.803473
315.077425	-3.005300	3.818200	-11.474000	23.203606	0.000510	20.798856
316.078030	-3.004100	3.818400	-11.470000	23.223453	0.000508	20.826332
317.076835	-3.004200	3.816600	-11.465000	23.243350	0.000510	20.818296
318.082738	-3.005500	3.817100	-11.471000	23.297212	0.000511	20.798781
319.077915	-3.009500	3.817200	-11.487000	23.271986	0.000511	20.820916
320.077474	-3.005700	3.817300	-11.473000	23.294671	0.000511	20.792916
321.081589	-2.976300	3.817000	-11.360000	23.278484	0.000510	20.808462
322.079039	-3.014700	3.815000	-11.500000	23.294993	0.000513	20.804619
323.080449	-2.995800	3.817000	-11.434000	23.326716	0.000512	20.797532
324.081893	-3.001500	3.815400	-11.451000	23.322283	0.000514	20.775070
325.083324	-2.999700	3.816800	-11.448000	23.328285	0.000513	20.780611
326.080648	-2.992300	3.816900	-11.420000	23.282790	0.000512	20.793811
327.083935	-3.008600	3.815900	-11.479000	23.293571	0.000513	20.805564
328.086354	-3.017000	3.815300	-11.509000	23.278878	0.000514	20.787046
329.083084	-2.997500	3.814300	-11.431000	23.273052	0.000514	20.788319
330.089023	-3.009200	3.813500	-11.475000	23.302284	0.000513	20.795330
331.084053	-2.992800	3.814600	-11.414000	23.320138	0.000516	20.789516
332.081819	-3.002700	3.812600	-11.447000	23.337567	0.000516	20.790388
333.081255	-2.982800	3.814400	-11.377000	23.337120	0.000515	20.798950
334.086385	-2.983800	3.812800	-11.375000	23.391697	0.000514	20.785846
335.082592	-2.998400	3.812700	-11.430000	23.401656	0.000516	20.787767
336.084221	-2.978900	3.813000	-11.358000	23.420205	0.000516	20.782177
337.084502	-2.991000	3.813700	-11.406000	23.437258	0.000516	20.782200
338.086958	-2.977100	3.812200	-11.349000	23.414652	0.000517	20.786095
339.085031	-2.973700	3.812100	-11.335000	23.412062	0.000515	20.783024
340.082198	-3.008400	3.811800	-11.465000	23.397523	0.000518	20.777934
341.085656	-2.998600	3.812000	-11.430000	23.415921	0.000517	20.790686
342.086570	-2.995500	3.810600	-11.413000	23.394733	0.000518	20.763758
343.084338	-3.001500	3.811500	-11.439000	23.399538	0.000517	20.792756
344.085415	-3.022100	3.809900	-11.512000	23.383751	0.000516	20.782623
345.091064	-3.023400	3.809500	-11.516000	23.414626	0.000518	20.770421
346.082478	-2.996000	3.812000	-11.419000	23.435016	0.000519	20.785168
347.084699	-2.995100	3.809900	-11.409000	23.439446	0.000520	20.779177
348.087916	-3.003700	3.809100	-11.440000	23.460660	0.000516	20.781949
349.089554	-3.011700	3.809700	-11.472000	23.456725	0.000522	20.765202
350.089853	-3.009700	3.809600	-11.465000	23.472110	0.000519	20.770667
351.090822	-2.997800	3.810100	-11.421000	23.437778	0.000518	20.791731
352.088133	-3.020400	3.809600	-11.505000	23.462799	0.000521	20.787412
353.086684	-3.016600	3.807700	-11.485000	23.476144	0.000520	20.785142
354.086155	-3.010500	3.807100	-11.461000	23.476816	0.000520	20.782022
355.087982	-3.010900	3.806900	-11.462000	23.462350	0.000521	20.800239
356.088906	-2.996900	3.807800	-11.410000	23.469420	0.000520	20.785514
357.090337	-2.985600	3.809000	-11.371000	23.448232	0.000523	20.779923
358.087240	-3.033700	3.806400	-11.547000	23.447984	0.000523	20.785365
359.088981	-3.003000	3.807500	-11.432000	23.485627	0.000521	20.802234
360.089502	-2.992800	3.807300	-11.394000	23.498922	0.000521	20.777627
361.093165	-2.996800	3.806700	-11.407000	23.518365	0.000521	20.765823
362.088271	-3.017500	3.806200	-11.485000	23.525508	0.000520	20.787209
363.089021	-3.002600	3.806100	-11.428000	23.525608	0.000522	20.784937
364.097728	-3.029800	3.805500	-11.528000	23.501011	0.000522	20.771661
365.089607	-2.977900	3.805200	-11.331000	23.495186	0.000524	20.787633
366.093582	-2.981000	3.805000	-11.342000	23.506937	0.000524	20.782817
367.093033	-3.017900	3.803900	-11.478000	23.523192	0.000523	20.757859
368.091750	-3.017300	3.804600	-11.479000	23.508404	0.000525	20.779546
369.092234	-3.012000	3.805100	-11.460000	23.519283	0.000525	20.779546
370.095516	-3.003400	3.805200	-11.428000	23.519732	0.000523	20.751071
371.092902	-3.014700	3.805600	-11.472000	23.527424	0.000525	20.773956
372.095299	-3.016800	3.803600	-11.474000	23.536337	0.000523	20.777674
373.091089	-2.984200	3.804900	-11.354000	23.556028	0.000525	20.774654
374.092578	-3.007400	3.804500	-11.441000	23.551273	0.000524	20.786483
375.098112	-3.012000	3.803400	-11.455000	23.563148	0.000523	20.778472
376.092985	-2.988900	3.803000	-11.366000	23.584879	0.000523	20.784135
377.096416	-2.994900	3.802900	-11.388000	23.593542	0.000526	20.776224
378.094798	-3.006800	3.801600	-11.430000	23.605417	0.000527	20.779120
379.096182	-3.020600	3.800600	-11.478000	23.631132	0.000525	20.775501
380.093749	-2.988200	3.801400	-11.359000	23.647213	0.000527	20.777872
381.095179	-3.036500	3.801500	-11.542000	23.685173	0.000526	20.778470
382.095379	-2.992100	3.802800	-11.376000	23.635536	0.000525	20.774226
383.093757	-2.998200	3.800100	-11.393000	23.637926	0.000527	20.786105
384.094322	-3.004300	3.800300	-11.416000	23.639692	0.000529	20.771755
385.094215	-2.978400	3.802100	-11.323000	23.624683	0.000527	20.775674
386.093920	-2.980400	3.801500	-11.329000	23.634289	0.000525	20.760174
387.095019	-3.010300	3.799300	-11.437000	23.635609	0.000528	20.786154
388.095556	-2.978600	3.800700	-11.319000	23.661101	0.000526	20.769984
389.097206	-3.005900	3.799600	-11.420000	23.693283	0.000528	20.756255
390.100929	-2.995000	3.800400	-11.381000	23.672226	0.000528	20.777344
391.098510	-3.000400	3.798000	-11.395000	23.704286	0.000527	20.787202
392.099383	-2.998000	3.799400	-11.390000	23.710334	0.000530	20.778092
393.098628	-3.011300	3.796900	-11.433000	23.731740	0.000528	20.789122
394.098393	-3.004700	3.798400	-11.412000	23.755186	0.000530	20.785128
395.098693	-3.012100	3.798200	-11.439000	23.735747	0.000528	20.774647
396.099772	-3.019400	3.798200	-11.466000	23.738808	0.000530	20.778190
397.098574	-3.022200	3.796300	-11.472000	23.702915	0.000529	20.782981
398.101966	-3.004100	3.797600	-11.407000	23.694526	0.000530	20.781683
399.106796	-3.014600	3.796100	-11.443000	23.719441	0.000530	20.795283
400.100013	-3.009700	3.795500	-11.422000	23.692110	0.000530	20.796805
401.099703	-3.016300	3.795300	-11.447000	23.726186	0.000531	20.778338
402.104326	-3.015500	3.796400	-11.447000	23.705452	0.000530	20.779361
403.100042	-3.019300	3.796300	-11.462000	23.714115	0.000531	20.777141
404.103773	-3.018000	3.795900	-11.455000	23.671648	0.000532	20.788144
405.101511	-3.004500	3.795700	-11.403000	23.719987	0.000529	20.796779
406.102434	-3.021100	3.794800	-11.464000	23.711947	0.000530	20.787770
407.105655	-3.004700	3.795600	-11.404000	23.715258	0.000531	20.784925
408.104535	-3.008100	3.795000	-11.415000	23.701965	0.000531	20.775865
409.106043	-3.004000	3.794300	-11.397000	23.713887	0.000532	20.771223
410.103293	-3.010700	3.795100	-11.426000	23.747316	0.000532	20.769651
411.102791	-3.015100	3.794600	-11.441000	23.757196	0.000533	20.786195
412.106255	-3.013100	3.793600	-11.430000	23.777656	0.000530	20.770198
413.103492	-3.000400	3.793300	-11.381000	23.800155	0.000532	20.785171
414.106358	-3.005800	3.793300	-11.401000	23.785568	0.000534	20.777183
415.105093	-2.979200	3.792700	-11.298000	23.800802	0.000533	20.789612
416.105783	-2.972400	3.793900	-11.276000	23.804585	0.000532	20.790561
417.108478	-2.995700	3.792700	-11.360000	23.802219	0.000533	20.782499
418.105716	-3.011400	3.791800	-11.416000	23.815958	0.000532	20.808128
419.108145	-2.971200	3.792200	-11.267000	23.847788	0.000532	20.787887
420.106465	-3.010700	3.791100	-11.414000	23.824817	0.000535	20.788088
421.107145	-2.979200	3.793200	-11.300000	23.824318	0.000533	20.772414
422.105323	-3.020800	3.791300	-11.452000	23.819166	0.000533	20.799017
423.105874	-3.008900	3.791300	-11.407000	23.834348	0.000532	20.804756
424.120943	-2.990300	3.790300	-11.333000	23.841764	0.000531	20.801287
425.106091	-3.006600	3.790200	-11.395000	23.863017	0.000533	20.789407
426.107572	-3.023400	3.789700	-11.457000	23.897809	0.000535	20.799638
427.106144	-3.008500	3.789400	-11.399000	23.886885	0.000535	20.783468
428.112826	-2.974300	3.790300	-11.273000	23.858860	0.000536	20.804679
429.107698	-3.001900	3.790000	-11.376000	23.861397	0.000534	20.799636
430.109462	-3.015000	3.788700	-11.422000	23.835166	0.000536	20.792300
431.107689	-2.999900	3.788600	-11.365000	23.852960	0.000534	20.790702
432.108191	-3.001200	3.788400	-11.369000	23.856120	0.000534	20.794819
433.109148	-3.010500	3.789300	-11.407000	23.881282	0.000534	20.796342
434.110139	-3.013200	3.787800	-11.412000	23.887926	0.000534	20.792572
435.111039	-2.998200	3.788000	-11.356000	23.903952	0.000537	20.796789
436.110411	-2.998300	3.788200	-11.358000	23.903952	0.000536	20.814806
437.108505	-2.995300	3.786800	-11.341000	23.936702	0.000534	20.802603
438.109544	-3.001700	3.786800	-11.366000	23.965471	0.000535	20.806322
439.109961	-3.014400	3.787400	-11.415000	23.978983	0.000536	20.782888
440.112492	-2.973900	3.787400	-11.262000	23.994187	0.000536	20.784385
441.115304	-2.997900	3.786800	-11.352000	23.972463	0.000535	20.817126
442.110493	-2.991400	3.785900	-11.324000	23.956062	0.000536	20.806370
443.113344	-3.007700	3.785800	-11.386000	23.929460	0.000538	20.803401
444.112457	-3.023700	3.785700	-11.445000	23.964248	0.000536	20.801302
445.112209	-3.000500	3.784800	-11.356000	23.996028	0.000537	20.813731
446.113332	-3.025500	3.783600	-11.446000	23.978681	0.000536	20.812457
447.112692	-3.000100	3.784000	-11.351000	23.990153	0.000537	20.801202
448.111937	-2.998400	3.784100	-11.346000	23.945806	0.000539	20.804620
449.115092	-2.995500	3.785100	-11.337000	23.968826	0.000536	20.789772
450.114161	-2.985600	3.784900	-11.299000	23.999409	0.000538	20.805268
451.119077	-3.004600	3.784400	-11.370000	24.000254	0.000537	20.804219
452.122709	-3.001800	3.782800	-11.354000	24.003516	0.000537	20.795162
453.114806	-3.023400	3.783100	-11.437000	24.016678	0.000537	20.807888
454.113838	-3.021800	3.781700	-11.427000	24.019564	0.000539	20.803195
455.113375	-2.995800	3.782500	-11.331000	24.002296	0.000539	20.829974
456.113361	-3.023100	3.783000	-11.435000	24.013765	0.000538	20.794060
457.118382	-3.019500	3.781400	-11.417000	23.995598	0.000539	20.806662
458.114585	-2.983900	3.783000	-11.287000	24.024315	0.000537	20.807012
459.114037	-3.020000	3.780800	-11.417000	24.028195	0.000539	20.792886
460.116861	-2.992600	3.781800	-11.317000	24.039518	0.000539	20.822732
461.117411	-3.003000	3.781400	-11.355000	24.054671	0.000538	20.830342
462.118091	-2.997700	3.781900	-11.336000	24.058802	0.000538	20.820261
463.122321	-2.977900	3.780900	-11.259000	24.043646	0.000538	20.823553
464.115054	-2.996200	3.779300	-11.323000	24.050166	0.000540	20.821083
465.115357	-3.008700	3.779900	-11.372000	24.004628	0.000539	20.830891
466.114418	-3.006300	3.778800	-11.360000	24.039740	0.000538	20.837179
467.115483	-2.993300	3.780900	-11.317000	24.028018	0.000541	20.815941
468.114143	-2.994200	3.780000	-11.317000	24.058027	0.000538	20.806208
469.118273	-3.007900	3.779000	-11.366000	24.081517	0.000540	20.823602
470.116285	-2.990600	3.778000	-11.298000	24.081342	0.000539	20.826745
471.116922	-3.014300	3.777500	-11.386000	24.113166	0.000539	20.820255
472.118550	-3.010400	3.777600	-11.371000	24.108986	0.000537	20.814167
473.116292	-2.987800	3.778000	-11.287000	24.127001	0.000542	20.835554
474.121883	-3.013500	3.778400	-11.385000	24.141406	0.000541	20.824397
475.117916	-3.018700	3.777100	-11.402000	24.159220	0.000541	20.830884
476.118867	-2.990500	3.778100	-11.298000	24.128316	0.000540	20.829287
477.116751	-2.997700	3.777900	-11.323000	24.135059	0.000541	20.831308
478.121149	-3.002300	3.776900	-11.338000	24.141205	0.000541	20.851221
479.116896	-3.001900	3.775900	-11.334000	24.128861	0.000541	20.835997
480.117364	-3.019400	3.775000	-11.397000	24.096291	0.000539	20.842211
481.116447	-2.989900	3.775400	-11.287000	24.153693	0.000542	20.834824
482.117455	-2.978400	3.774900	-11.242000	24.169618	0.000540	20.836572
483.118644	-2.983000	3.775300	-11.260000	24.135280	0.000539	20.822520
484.125659	-2.987700	3.775500	-11.279000	24.132667	0.000540	20.827960
485.115212	-2.995500	3.774200	-11.305000	24.154810	0.000539	20.829781
486.116378	-2.989000	3.774700	-11.282000	24.182725	0.000542	20.834546
487.123405	-2.987000	3.775000	-11.275000	24.191185	0.000540	20.836392
488.120269	-2.987400	3.774200	-11.274000	24.192800	0.000540	20.840858
489.117557	-2.996300	3.774800	-11.310000	24.209693	0.000541	20.826034
490.117412	-3.006900	3.773200	-11.345000	24.164635	0.000540	20.855755
491.119936	-3.015100	3.773200	-11.375000	24.148833	0.000542	20.836114
492.119423	-2.998400	3.772800	-11.311000	24.173988	0.000540	20.843325
493.118829	-3.008300	3.771200	-11.344000	24.253354	0.000541	20.828576
494.120893	-3.019400	3.772400	-11.390000	24.256189	0.000541	20.841377
495.119809	-3.008600	3.772200	-11.349000	24.233946	0.000543	20.851307
496.119884	-3.021400	3.771700	-11.395000	24.194214	0.000544	20.846068
497.120231	-3.014900	3.772000	-11.371000	24.192745	0.000541	20.838905
498.120142	-3.010500	3.770000	-11.349000	24.210234	0.000541	20.861662
499.121107	-3.000700	3.770400	-11.312000	24.164278	0.000543	20.843069
500.122897	-3.020000	3.769100	-11.382000	24.170298	0.000543	20.840573
501.121261	-3.004100	3.771100	-11.327000	24.221227	0.000544	20.826223
502.120739	-2.995500	3.769700	-11.292000	24.234762	0.000543	20.835532
503.122467	-3.005900	3.769000	-11.328000	24.263397	0.000543	20.853823
504.125748	-3.007100	3.770600	-11.338000	24.286086	0.000543	20.842442
505.121884	-2.973500	3.770200	-11.210000	24.286932	0.000540	20.842817
506.121325	-2.998900	3.770000	-11.305000	24.279068	0.000541	20.857688
507.122595	-3.002700	3.767900	-11.313000	24.280237	0.000541	20.855067
508.121045	-3.012700	3.768000	-11.351000	24.282576	0.000543	20.847456
509.124428	-2.992500	3.768200	-11.275000	24.293721	0.000541	20.857213
510.124169	-3.003100	3.767400	-11.313000	24.263990	0.000541	20.854891
511.121976	-3.021400	3.766700	-11.380000	24.273344	0.000541	20.855265
512.126229	-3.014800	3.766500	-11.354000	24.264960	0.000542	20.882889
513.129982	-3.029600	3.767300	-11.413000	24.243016	0.000542	20.836698
514.121429	-3.000700	3.765300	-11.297000	24.240130	0.000543	20.850872
515.126181	-2.962000	3.767800	-11.160000	24.279688	0.000540	20.857835
516.120812	-3.009900	3.765100	-11.331000	24.312774	0.000542	20.878695
517.122224	-3.023700	3.765100	-11.384000	24.320959	0.000542	20.858457
518.124773	-2.996700	3.765700	-11.283000	24.313520	0.000543	20.852418
519.124026	-3.010100	3.765200	-11.332000	24.321007	0.000544	20.843808
520.127532	-3.010300	3.764700	-11.332000	24.292323	0.000543	20.881887
521.126369	-2.983100	3.765900	-11.233000	24.303990	0.000541	20.848548
522.126667	-2.998700	3.765800	-11.291000	24.292497	0.000543	20.870683
523.126094	-2.993800	3.764700	-11.270000	24.301651	0.000542	20.884607
524.126089	-3.000100	3.764300	-11.293000	24.271348	0.000544	20.856108
525.128108	-2.999400	3.764000	-11.289000	24.258610	0.000541	20.881262
526.132150	-2.996700	3.764300	-11.280000	24.292570	0.000541	20.875972
527.129470	-2.989600	3.764600	-11.254000	24.295456	0.000542	20.867961
528.129223	-2.988800	3.764700	-11.251000	24.288514	0.000542	20.876171
529.132013	-3.009900	3.762000	-11.322000	24.282193	0.000544	20.882158
530.135506	-3.012100	3.761200	-11.329000	24.308116	0.000542	20.862644
531.133498	-3.001500	3.763700	-11.296000	24.321152	0.000542	20.868608
532.131149	-3.007800	3.762100	-11.315000	24.348815	0.000541	20.878339
533.132715	-3.009400	3.761500	-11.319000	24.357597	0.000542	20.883829
534.132614	-2.998800	3.763500	-11.285000	24.380631	0.000542	20.876592
535.132103	-3.020900	3.760500	-11.360000	24.382372	0.000542	20.872174
536.132437	-3.011300	3.761100	-11.325000	24.400929	0.000543	20.886048
537.133987	-3.000300	3.761300	-11.285000	24.406973	0.000542	20.884999
538.131766	-2.998100	3.761600	-11.276000	24.388142	0.000543	20.876066
539.130449	-2.991600	3.760800	-11.249000	24.410182	0.000544	20.879684
540.131482	-3.004300	3.760700	-11.297000	24.418341	0.000545	20.891188
541.131404	-3.007900	3.760000	-11.307000	24.400429	0.000543	20.881280
542.135138	-3.008800	3.759300	-11.311000	24.408390	0.000541	20.891636
543.137764	-3.009400	3.759000	-11.311000	24.392543	0.000543	20.897549
544.132416	-3.002200	3.758800	-11.284000	24.371846	0.000541	20.870624
545.136907	-2.986300	3.759800	-11.227000	24.383363	0.000542	20.897823
546.134325	-2.996600	3.759200	-11.264000	24.411870	0.000544	20.881377
547.139344	-2.987500	3.758900	-11.229000	24.420080	0.000543	20.887243
548.135734	-2.976200	3.758900	-11.187000	24.424657	0.000544	20.881403
549.132675	-3.002100	3.757500	-11.279000	24.434880	0.000543	20.900193
550.133787	-2.994900	3.759000	-11.257000	24.474206	0.000543	20.904559
551.134849	-3.008500	3.757800	-11.305000	24.503805	0.000544	20.896324
552.141332	-2.997200	3.756500	-11.258000	24.480623	0.000542	20.874490
553.141203	-3.004300	3.757300	-11.286000	24.474006	0.000544	20.885394
554.137437	-2.998000	3.757300	-11.263000	24.454653	0.000543	20.889211
555.137424	-2.998900	3.755700	-11.262000	24.449031	0.000542	20.894950
556.141920	-3.010200	3.755400	-11.304000	24.439777	0.000541	20.901313
557.137566	-2.991200	3.756200	-11.234000	24.471269	0.000544	20.918206
558.141381	-2.986900	3.756500	-11.219000	24.465595	0.000543	20.896869
559.139143	-3.002000	3.754900	-11.271000	24.481540	0.000544	20.898167
560.138397	-2.975900	3.754600	-11.173000	24.529047	0.000542	20.912640
561.138321	-2.996100	3.755100	-11.250000	24.516113	0.000542	20.895396
562.140450	-3.010600	3.754300	-11.302000	24.476216	0.000542	20.888085
563.141910	-3.015900	3.754600	-11.322000	24.452983	0.000542	20.913612
564.139921	-3.006600	3.754700	-11.288000	24.449127	0.000543	20.915907
565.141201	-3.020300	3.752800	-11.333000	24.455992	0.000544	20.908097
566.140134	-3.009300	3.754600	-11.298000	24.491388	0.000544	20.903780
567.140268	-2.995500	3.753100	-11.242000	24.474448	0.000543	20.894371
568.140970	-2.999100	3.753700	-11.256000	24.465144	0.000541	20.909218
569.142148	-3.011200	3.752800	-11.299000	24.458627	0.000543	20.902206
570.140704	-2.991700	3.753400	-11.228000	24.470242	0.000543	20.920495
571.141381	-3.001300	3.752500	-11.262000	24.487753	0.000542	20.911512
572.145465	-2.991500	3.752400	-11.224000	24.521679	0.000542	20.920893
573.146155	-3.018800	3.750200	-11.321000	24.572493	0.000543	20.920194
574.148674	-3.009500	3.752500	-11.292000	24.586868	0.000543	20.909489
575.144566	-3.004700	3.752000	-11.273000	24.597413	0.000540	20.921965
576.144858	-2.993700	3.751600	-11.229000	24.572989	0.000544	20.893194
577.145077	-3.009700	3.751200	-11.290000	24.566671	0.000542	20.907242
578.144926	-3.031700	3.749000	-11.365000	24.556947	0.000542	20.915028
579.144511	-3.004300	3.750600	-11.267000	24.536948	0.000544	20.929099
580.149786	-2.994200	3.749300	-11.224000	24.540952	0.000544	20.915574
581.151269	-3.013300	3.749700	-11.297000	24.555576	0.000542	20.923134
582.145780	-2.996900	3.749400	-11.236000	24.560849	0.000542	20.935062
583.150702	-2.996100	3.748500	-11.229000	24.593654	0.000542	20.934312
584.143541	-2.989700	3.749600	-11.209000	24.594897	0.000543	20.945515
585.150131	-2.993100	3.747600	-11.216000	24.646726	0.000542	20.924030
586.144941	-2.974700	3.750000	-11.154000	24.669780	0.000542	20.934360
587.148333	-2.999700	3.747600	-11.241000	24.653665	0.000543	20.928147
588.145670	-2.979700	3.748800	-11.168000	24.631131	0.000542	20.948681
589.146378	-3.010300	3.746800	-11.277000	24.618745	0.000543	20.929144
590.147622	-2.995100	3.748300	-11.226000	24.608697	0.000543	20.943241
591.146714	-3.006300	3.747600	-11.265000	24.623120	0.000541	20.954868
592.146798	-3.007300	3.746300	-11.265000	24.628841	0.000540	20.945435
593.147758	-3.006900	3.746900	-11.265000	24.619937	0.000542	20.941243
594.147409	-3.015300	3.746300	-11.295000	24.638664	0.000541	20.935379
595.148619	-3.032200	3.745200	-11.355000	24.642816	0.000540	20.951397
596.149625	-3.015100	3.744700	-11.289000	24.670670	0.000541	20.941891
597.147915	-2.998200	3.745400	-11.228000	24.646894	0.000541	20.938422
598.148541	-2.991700	3.746300	-11.207000	24.616552	0.000540	20.944958
599.148430	-3.004100	3.744400	-11.247000	24.592451	0.000540	20.947802
600.149557	-3.008300	3.745000	-11.266000	24.634059	0.000542	20.937871
601.151250	-3.020300	3.744800	-11.309000	24.598594	0.000541	20.957758
602.148793	-3.003300	3.743800	-11.242000	24.625279	0.000541	20.948025
603.147624	-2.997000	3.745100	-11.224000	24.653533	0.000540	20.911895
604.149249	-2.986800	3.744100	-11.182000	24.628064	0.000541	20.934701
605.150273	-2.995100	3.742900	-11.210000	24.624134	0.000543	20.936921
606.156354	-2.994200	3.744500	-11.211000	24.642115	0.000542	20.921775
607.156419	-2.994300	3.744000	-11.210000	24.672531	0.000540	20.932853
608.152576	-2.979600	3.744600	-11.157000	24.650645	0.000542	20.922273
609.150293	-3.017200	3.741800	-11.289000	24.648307	0.000541	20.948847
610.150432	-3.010300	3.742600	-11.265000	24.696528	0.000540	20.919951
611.159872	-3.004300	3.743100	-11.244000	24.702148	0.000539	20.928908
612.153701	-2.979000	3.741200	-11.144000	24.725051	0.000540	20.924391
613.161077	-2.977300	3.742300	-11.141000	24.718983	0.000541	20.933474
614.152076	-2.987100	3.741500	-11.175000	24.723011	0.000540	20.935145
615.153025	-3.006500	3.741200	-11.247000	24.722389	0.000542	20.926461
616.155225	-2.981000	3.741300	-11.152000	24.729178	0.000541	20.929006
617.154149	-3.013000	3.739100	-11.265000	24.762824	0.000541	20.895444
618.154349	-3.000600	3.740700	-11.223000	24.766155	0.000539	20.918225
619.152557	-2.982100	3.739500	-11.151000	24.785252	0.000539	20.934544
620.153717	-2.967600	3.740600	-11.100000	24.765607	0.000538	20.906771
621.154468	-2.991000	3.740400	-11.187000	24.769784	0.000541	20.917126
622.160487	-2.993400	3.739600	-11.193000	24.760433	0.000539	20.923389
623.157489	-2.985000	3.739200	-11.161000	24.731338	0.000536	20.909365
624.154937	-2.981500	3.738800	-11.146000	24.717286	0.000541	20.926556
625.154895	-2.973600	3.738600	-11.117000	24.699952	0.000539	20.912008
626.157313	-2.997000	3.737900	-11.202000	24.662126	0.000540	20.935688
627.155049	-3.002400	3.738400	-11.223000	24.638523	0.000538	20.908688
628.156607	-2.999500	3.737600	-11.210000	24.643099	0.000536	20.922287
629.155657	-2.971300	3.738400	-11.107000	24.629793	0.000539	20.913204
630.156224	-2.995600	3.737300	-11.195000	24.632230	0.000539	20.905318
631.156097	-2.982300	3.737500	-11.145000	24.685028	0.000538	20.900826
632.158020	-3.001100	3.736000	-11.211000	24.692861	0.000540	20.905367
633.158562	-2.994100	3.737300	-11.189000	24.693506	0.000537	20.911704
634.156502	-2.982600	3.738100	-11.149000	24.733072	0.000539	20.898778
635.159255	-2.995900	3.736700	-11.194000	24.722354	0.000537	20.912677
636.158285	-2.979200	3.736300	-11.130000	24.712953	0.000538	20.913674
637.158456	-2.992400	3.735700	-11.177000	24.736552	0.000537	20.902744
638.163226	-3.012900	3.735700	-11.254000	24.744186	0.000538	20.907560
639.159829	-2.991400	3.735200	-11.172000	24.719815	0.000535	20.894010
640.159775	-3.015800	3.735100	-11.264000	24.679328	0.000537	20.897478
641.160450	-2.998400	3.735200	-11.199000	24.681018	0.000535	20.904863
642.164166	-3.013000	3.733500	-11.248000	24.705936	0.000537	20.902367
643.164557	-2.985500	3.734900	-11.150000	24.721156	0.000537	20.880658
644.166361	-2.999100	3.733800	-11.197000	24.734187	0.000537	20.881880
645.167069	-3.015000	3.733000	-11.254000	24.737942	0.000537	20.903191
646.166176	-2.977900	3.733900	-11.118000	24.774671	0.000537	20.905910
647.167977	-2.976000	3.734000	-11.111000	24.795856	0.000536	20.923849
648.165411	-2.993200	3.733300	-11.173000	24.790659	0.000538	20.898722
649.164058	-2.984900	3.733500	-11.144000	24.813486	0.000536	20.885596
650.166516	-2.988600	3.731900	-11.153000	24.784839	0.000535	20.892408
651.164172	-3.011700	3.731100	-11.236000	24.785983	0.000535	20.888814
652.166192	-2.983600	3.732700	-11.136000	24.807667	0.000536	20.887342
653.166949	-3.010900	3.732400	-11.237000	24.802345	0.000535	20.895277
654.167106	-2.990900	3.731000	-11.157000	24.779890	0.000536	20.908303
655.167219	-3.009400	3.730700	-11.226000	24.737764	0.000534	20.882151
656.166262	-2.988200	3.731100	-11.148000	24.753306	0.000535	20.892057
657.166272	-3.012800	3.731100	-11.240000	24.746145	0.000537	20.921852
658.166583	-3.009800	3.731500	-11.230000	24.725080	0.000536	20.896448
659.166618	-3.002500	3.729800	-11.198000	24.730228	0.000533	20.889287
660.173302	-2.971200	3.732000	-11.088000	24.712521	0.000533	20.873416
661.166161	-2.977400	3.731000	-11.108000	24.758353	0.000535	20.888588
662.166461	-2.992300	3.729100	-11.158000	24.768449	0.000535	20.876435
663.167650	-2.971300	3.729800	-11.082000	24.733384	0.000533	20.882023
664.173798	-3.024600	3.727700	-11.273000	24.724209	0.000534	20.898419
665.173232	-2.997500	3.729200	-11.177000	24.728685	0.000533	20.868773
666.167905	-2.996700	3.728900	-11.173000	24.751936	0.000534	20.890208
667.165702	-2.994100	3.729300	-11.164000	24.758849	0.000533	20.883396
668.168165	-3.005800	3.728200	-11.205000	24.793066	0.000533	20.864156
669.168689	-2.993700	3.727800	-11.159000	24.799904	0.000534	20.879553
670.173640	-3.002200	3.726500	-11.187000	24.842450	0.000535	20.883371
671.170512	-2.986000	3.727300	-11.129000	24.858538	0.000534	20.878180
672.168036	-2.984500	3.728500	-11.127000	24.870125	0.000534	20.912091
673.168654	-3.021800	3.726000	-11.258000	24.855430	0.000534	20.879328
674.168854	-2.981900	3.725900	-11.108000	24.853565	0.000533	20.888361
675.176472	-2.994300	3.725300	-11.154000	24.839590	0.000533	20.888086
676.168056	-3.004500	3.725700	-11.193000	24.837004	0.000533	20.875061
677.169456	-2.983900	3.727500	-11.122000	24.841505	0.000534	20.899490
678.168330	-2.981500	3.727200	-11.110000	24.845682	0.000534	20.890881
679.170825	-2.990500	3.726300	-11.142000	24.859632	0.000534	20.863632
680.171281	-2.996200	3.725300	-11.161000	24.894467	0.000534	20.861610
681.171046	-3.026400	3.723200	-11.267000	24.889693	0.000534	20.872465
682.171442	-2.996100	3.724100	-11.157000	24.874874	0.000532	20.880825
683.170889	-2.991400	3.723800	-11.138000	24.863138	0.000533	20.887063
684.171167	-2.986500	3.724000	-11.121000	24.847795	0.000533	20.881149
685.172986	-2.994500	3.724800	-11.153000	24.869005	0.000533	20.853125
686.175663	-2.978400	3.724000	-11.091000	24.822059	0.000533	20.864803
687.172585	-2.993800	3.723800	-11.147000	24.838571	0.000529	20.881848
688.175429	-3.022200	3.722200	-11.248000	24.896979	0.000530	20.869346
689.175134	-2.998600	3.723100	-11.163000	24.896332	0.000532	20.866326
690.173906	-3.007400	3.723100	-11.196000	24.844439	0.000531	20.859289
691.178013	-3.003500	3.721700	-11.178000	24.872562	0.000530	20.878030
692.176353	-3.008500	3.721900	-11.196000	24.886436	0.000532	20.861136
693.176005	-3.002600	3.722400	-11.176000	24.872934	0.000530	20.860861
694.187240	-3.022600	3.720600	-11.245000	24.850356	0.000530	20.869495
695.177350	-3.010700	3.720800	-11.201000	24.886834	0.000531	20.855846
696.180165	-3.021800	3.719800	-11.240000	24.855851	0.000529	20.866475
697.180009	-2.970100	3.721300	-11.051000	24.816440	0.000529	20.863906
698.177457	-3.008800	3.719600	-11.190000	24.820568	0.000530	20.872790
699.177025	-3.012900	3.721100	-11.210000	24.860352	0.000531	20.866251
700.179376	-3.006600	3.720700	-11.185000	24.908142	0.000530	20.871068
701.177273	-3.003800	3.720500	-11.175000	24.925473	0.000528	20.860961
702.179102	-3.005900	3.720100	-11.180000	24.900136	0.000530	20.870144
703.176668	-3.011900	3.720200	-11.204000	24.881985	0.000529	20.856669
704.177808	-3.002000	3.719400	-11.164000	24.894740	0.000528	20.849082
705.179982	-3.018400	3.718400	-11.222000	24.893672	0.000529	20.861286
706.179320	-2.995500	3.718900	-11.139000	24.856821	0.000528	20.862234
707.183173	-2.968000	3.720600	-11.042000	24.895710	0.000527	20.869969
708.180044	-2.990500	3.719500	-11.122000	24.878131	0.000528	20.867025
709.178961	-3.003100	3.719600	-11.169000	24.851500	0.000526	20.858316
710.178624	-2.994500	3.718100	-11.133000	24.866047	0.000528	20.851104
711.177899	-3.003900	3.716600	-11.163000	24.901702	0.000527	20.849431
712.179670	-3.000700	3.716500	-11.151000	24.898271	0.000526	20.865428
713.179190	-3.018100	3.717000	-11.217000	24.873133	0.000527	20.855371
714.178325	-2.979300	3.717600	-11.075000	24.889469	0.000527	20.856594
715.179145	-3.008700	3.715700	-11.178000	24.891085	0.000526	20.854897
716.188351	-3.012800	3.716300	-11.194000	24.874774	0.000526	20.856544
717.179341	-2.998600	3.716500	-11.143000	24.884795	0.000528	20.850481
718.182589	-3.004100	3.715200	-11.160000	24.910579	0.000526	20.852651
719.178967	-2.999300	3.714700	-11.141000	24.937382	0.000526	20.845415
720.178796	-2.996600	3.715400	-11.133000	24.915874	0.000528	20.857017
721.179736	-3.002900	3.715700	-11.157000	24.956776	0.000526	20.846863
722.179018	-2.994900	3.715600	-11.127000	24.990216	0.000525	20.847711
723.185931	-3.008500	3.715200	-11.175000	25.005954	0.000525	20.839801
724.180737	-3.011900	3.715000	-11.189000	25.017067	0.000525	20.846214
725.181179	-3.007200	3.715000	-11.170000	25.014232	0.000526	20.845265
726.181153	-2.995400	3.713600	-11.123000	24.987282	0.000524	20.839550
727.180982	-3.009700	3.714800	-11.179000	24.966123	0.000524	20.848184
728.184986	-2.997100	3.714200	-11.131000	24.941882	0.000525	20.848509
729.183102	-2.997400	3.713600	-11.131000	24.922712	0.000525	20.839225
730.182312	-3.003700	3.712300	-11.150000	24.910977	0.000524	20.845465
731.183200	-3.000400	3.712700	-11.139000	24.926740	0.000525	20.837579
732.181441	-3.003400	3.712900	-11.151000	24.963215	0.000524	20.834834
733.182105	-3.002200	3.712900	-11.145000	24.966148	0.000524	20.838252
734.186374	-3.004300	3.711200	-11.148000	24.970823	0.000522	20.859064
735.182472	-2.986400	3.712700	-11.086000	24.923160	0.000523	20.848683
736.182323	-2.991000	3.713500	-11.107000	24.915850	0.000522	20.832812
737.187171	-3.007700	3.710900	-11.160000	24.950981	0.000523	20.856219
738.184254	-2.996500	3.711600	-11.121000	24.994168	0.000522	20.829867
739.185981	-2.983000	3.711700	-11.071000	24.961548	0.000525	20.831265
740.182652	-2.986200	3.711400	-11.082000	24.974277	0.000522	20.827920
741.185393	-2.998900	3.710800	-11.127000	24.971990	0.000523	20.839374
742.184036	-2.983500	3.711200	-11.071000	24.978628	0.000523	20.825175
743.186270	-2.985700	3.711000	-11.079000	24.987528	0.000522	20.846435
744.189823	-2.978400	3.710700	-11.050000	25.010004	0.000521	20.828219
745.189168	-3.021500	3.708500	-11.203000	25.003315	0.000522	20.830514
746.187444	-2.976400	3.710200	-11.042000	24.988795	0.000522	20.840121
747.186660	-2.995800	3.709400	-11.112000	25.006672	0.000523	20.840047
748.187776	-3.013800	3.708100	-11.175000	24.993246	0.000520	20.836053
749.189677	-2.992800	3.708500	-11.098000	25.000505	0.000521	20.837650
750.191169	-3.017000	3.708800	-11.188000	24.957492	0.000520	20.821030
751.188760	-3.006100	3.708600	-11.147000	24.964329	0.000520	20.808452
752.188558	-3.005800	3.709200	-11.149000	25.020989	0.000519	20.829289
753.199304	-3.004700	3.708100	-11.141000	25.023029	0.000519	20.815689
754.188310	-2.987600	3.708600	-11.079000	25.003163	0.000520	20.835577
755.193271	-2.993300	3.706900	-11.095000	25.007017	0.000519	20.818108
756.186537	-3.003400	3.707700	-11.135000	25.025092	0.000520	20.833406
757.188622	-2.998000	3.707400	-11.114000	25.034538	0.000519	20.845259
758.187774	-3.023500	3.706700	-11.205000	25.008258	0.000517	20.836423
759.190660	-3.013200	3.706400	-11.167000	24.990607	0.000517	20.830560
760.190434	-3.022700	3.705100	-11.199000	25.021162	0.000519	20.848427
761.193790	-2.995100	3.706600	-11.100000	25.030732	0.000516	20.831008
762.191041	-3.006600	3.704700	-11.138000	25.016661	0.000518	20.806927
763.190587	-2.993700	3.704700	-11.090000	25.027525	0.000518	20.821150
764.194227	-3.012700	3.704500	-11.160000	25.065587	0.000519	20.824743
765.192143	-2.975700	3.706500	-11.029000	25.052386	0.000517	20.817182
766.192269	-3.020100	3.704100	-11.186000	25.052461	0.000517	20.819154
767.191605	-2.979500	3.705200	-11.038000	25.052908	0.000516	20.814861
768.191091	-2.983700	3.703900	-11.050000	25.082243	0.000518	20.813488
769.190264	-2.984800	3.703800	-11.054000	25.036325	0.000518	20.836621
770.193702	-2.995700	3.704800	-11.097000	25.008405	0.000515	20.810019
771.195377	-2.995400	3.704500	-11.095000	24.975139	0.000516	20.815983
772.195496	-2.995900	3.703600	-11.095000	25.040700	0.000518	20.811616
773.195441	-3.001800	3.704100	-11.119000	25.087934	0.000517	20.834848
774.191725	-3.002700	3.703300	-11.119000	25.060115	0.000516	20.825415
775.197246	-2.991200	3.703400	-11.076000	25.061234	0.000515	20.824641
776.192408	-3.001300	3.702500	-11.111000	25.091888	0.000516	20.808471
777.196992	-3.002200	3.701400	-11.111000	25.107250	0.000515	20.810616
778.195272	-3.011100	3.701500	-11.145000	25.111128	0.000516	20.815458
779.193448	-2.993500	3.702500	-11.083000	25.083086	0.000513	20.831404
780.195748	-3.004700	3.701100	-11.120000	25.089524	0.000514	20.813211
781.195157	-3.004400	3.702300	-11.122000	25.019143	0.000512	20.816530
782.196993	-2.996900	3.701900	-11.093000	24.982397	0.000511	20.809518
783.194701	-2.988800	3.700400	-11.059000	24.993286	0.000515	20.819025
784.193808	-3.020700	3.699900	-11.175000	25.045247	0.000515	20.818077
785.193878	-3.011200	3.700900	-11.143000	25.038956	0.000513	20.805598
786.195690	-2.978300	3.700400	-11.020000	25.016208	0.000513	20.795092
787.195776	-2.990400	3.700600	-11.065000	25.058148	0.000515	20.811113
788.196429	-2.978100	3.700600	-11.020000	25.076048	0.000511	20.820071
789.197956	-2.984900	3.700300	-11.044000	25.020409	0.000513	20.804524
790.199323	-2.999100	3.700200	-11.096000	25.053449	0.000515	20.814456
791.202790	-2.997300	3.699900	-11.089000	25.049868	0.000512	20.827931
792.199801	-3.005200	3.699400	-11.116000	25.086860	0.000512	20.822391
793.200725	-3.002600	3.697800	-11.102000	25.096207	0.000510	20.823239
794.203400	-3.014900	3.699000	-11.152000	25.104386	0.000511	20.801578
795.203189	-2.997100	3.697900	-11.082000	25.132750	0.000509	20.812508
796.202550	-2.994400	3.697800	-11.072000	25.117734	0.000510	20.813081
797.202434	-3.019000	3.697200	-11.161000	25.158155	0.000510	20.811459
798.206345	-3.006100	3.697200	-11.114000	25.164170	0.000510	20.802324
799.205309	-3.009700	3.696200	-11.123000	25.164617	0.000510	20.797558
800.202834	-3.023400	3.697100	-11.177000	25.160042	0.000509	20.800077
801.203006	-3.009500	3.696800	-11.123000	25.129691	0.000512	20.820342
802.202662	-3.013500	3.696600	-11.138000	25.114625	0.000509	20.806166
803.206306	-3.002900	3.695600	-11.096000	25.102195	0.000509	20.800327
804.203358	-3.001000	3.696500	-11.092000	25.134686	0.000509	20.816348
805.206361	-2.995800	3.695000	-11.067000	25.153480	0.000509	20.802024
806.207811	-3.003400	3.694600	-11.095000	25.136203	0.000507	20.803646
807.204308	-2.993800	3.695600	-11.063000	25.139260	0.000509	20.781111
808.204496	-3.006700	3.694500	-11.108000	25.067613	0.000508	20.808286
809.211287	-3.013100	3.693300	-11.128000	25.057670	0.000507	20.807314
810.203865	-2.999900	3.695300	-11.085000	25.060876	0.000505	20.802946
811.204234	-2.993500	3.695700	-11.062000	25.045935	0.000507	20.792689
812.205649	-3.011000	3.693900	-11.122000	25.070994	0.000507	20.778489
813.203136	-2.998000	3.692700	-11.070000	25.059981	0.000507	20.788296
814.210796	-2.980900	3.693600	-11.009000	25.110223	0.000506	20.795583
815.206661	-2.991600	3.693000	-11.047000	25.151712	0.000507	20.802146
816.206316	-3.013800	3.691700	-11.124000	25.138537	0.000505	20.775169
817.208217	-2.991700	3.693700	-11.050000	25.170653	0.000504	20.771375
818.209377	-2.984600	3.692400	-11.019000	25.167919	0.000504	20.802769
819.205819	-2.988600	3.692400	-11.034000	25.107685	0.000506	20.783079
820.210482	-2.972300	3.692500	-10.975000	25.085535	0.000504	20.800672
821.209609	-3.005800	3.691300	-11.095000	25.089836	0.000506	20.798351
822.208595	-3.008600	3.691500	-11.105000	25.107137	0.000502	20.790589
823.214440	-2.986800	3.690500	-11.022000	25.097417	0.000505	20.796004
824.214042	-3.012500	3.690300	-11.116000	25.109673	0.000503	20.789815
825.213809	-2.995700	3.690800	-11.055000	25.109822	0.000504	20.787120
826.209258	-2.992600	3.689200	-11.039000	25.087895	0.000504	20.785497
827.208977	-3.015600	3.689500	-11.125000	25.070468	0.000504	20.800720
828.208568	-3.004600	3.690100	-11.086000	25.086750	0.000501	20.785297
829.208678	-3.013000	3.689000	-11.114000	25.066464	0.000502	20.782002
830.209472	-3.013200	3.688200	-11.113000	25.064276	0.000502	20.791660
831.209008	-3.027100	3.689700	-11.169000	25.034219	0.000504	20.777136
832.209037	-3.001800	3.689500	-11.074000	25.089037	0.000498	20.783799
833.211043	-3.002000	3.689400	-11.074000	25.133336	0.000501	20.795078
834.208570	-2.991900	3.688800	-11.036000	25.136269	0.000504	20.780005
835.212456	-3.023300	3.686900	-11.144000	25.126301	0.000501	20.805085
836.211051	-3.018600	3.686900	-11.128000	25.149120	0.000500	20.791958
837.208635	-3.001800	3.686800	-11.067000	25.178155	0.000502	20.801665
838.213995	-3.026700	3.687800	-11.161000	25.160182	0.000500	20.787416
839.208453	-3.008700	3.687200	-11.093000	25.189639	0.000502	20.789013
840.210804	-2.995900	3.687600	-11.047000	25.212706	0.000500	20.777557
841.216084	-2.999000	3.687600	-11.058000	25.218597	0.000501	20.783946
842.211329	-3.001000	3.685900	-11.060000	25.204329	0.000499	20.773414
843.211346	-3.010600	3.686300	-11.096000	25.249220	0.000500	20.794777
844.213218	-2.979700	3.687200	-10.986000	25.215613	0.000498	20.785218
845.212459	-3.001400	3.687000	-11.066000	25.201519	0.000500	20.788612
846.214891	-3.001500	3.686600	-11.064000	25.162591	0.000500	20.773238
847.212847	-3.013800	3.684300	-11.103000	25.122146	0.000499	20.781474
848.213062	-2.996300	3.684600	-11.039000	25.147054	0.000497	20.793203
849.216961	-2.979000	3.686100	-10.980000	25.161547	0.000497	20.780251
850.215538	-3.013700	3.685000	-11.105000	25.151901	0.000496	20.784792
851.218305	-2.987400	3.684300	-11.006000	25.131666	0.000495	20.790082
852.212737	-2.990500	3.684200	-11.016000	25.152895	0.000499	20.770143
853.213513	-2.967700	3.684900	-10.935000	25.141708	0.000498	20.793526
854.212215	-2.989900	3.684200	-11.014000	25.139968	0.000497	20.789882
855.213881	-2.995200	3.683500	-11.032000	25.152273	0.000495	20.771415
856.214029	-2.985700	3.683200	-10.996000	25.152322	0.000495	20.786638
857.212806	-3.018600	3.682400	-11.115000	25.183544	0.000497	20.787636
858.215025	-2.998700	3.682100	-11.040000	25.208053	0.000497	20.773835
859.223966	-3.005600	3.683000	-11.069000	25.249887	0.000496	20.786911
860.217384	-2.994000	3.682400	-11.023000	25.273077	0.000495	20.776529
861.214079	-2.972500	3.683300	-10.948000	25.245635	0.000496	20.766521
862.216358	-2.996100	3.682000	-11.030000	25.259804	0.000494	20.773634
863.214557	-3.015800	3.680800	-11.099000	25.265247	0.000494	20.790005
864.214947	-2.983300	3.681500	-10.983000	25.230597	0.000494	20.796468
865.215573	-3.007700	3.680700	-11.069000	25.191322	0.000493	20.777426
866.215932	-3.000600	3.681000	-11.045000	25.207903	0.000494	20.792650
867.219228	-3.001300	3.679400	-11.043000	25.188115	0.000494	20.801708
868.217367	-2.996400	3.679100	-11.023000	25.187121	0.000493	20.793123
869.215067	-3.008100	3.680100	-11.069000	25.180559	0.000495	20.788906
870.214238	-3.004200	3.680100	-11.055000	25.168552	0.000491	20.775429
871.217457	-2.998800	3.680100	-11.035000	25.206385	0.000494	20.776427
872.213330	-2.986200	3.680300	-10.990000	25.188115	0.000492	20.804078
873.221362	-3.015700	3.679300	-11.095000	25.182695	0.000491	20.794844
874.213645	-3.001400	3.678700	-11.040000	25.202258	0.000491	20.796940
875.216791	-3.003600	3.678000	-11.046000	25.219683	0.000490	20.779820
876.217709	-3.011600	3.678000	-11.076000	25.217296	0.000491	20.787856
877.215348	-2.991600	3.678600	-11.004000	25.245708	0.000490	20.787457
878.217882	-3.030200	3.677300	-11.142000	25.202258	0.000491	20.782241
879.216568	-3.003400	3.677500	-11.044000	25.210485	0.000492	20.797613
880.217857	-3.021000	3.676700	-11.107000	25.225971	0.000489	20.777125
881.215025	-3.014600	3.678200	-11.087000	25.250827	0.000491	20.798287
882.216790	-3.001700	3.676700	-11.036000	25.277771	0.000487	20.795941
883.214866	-2.996000	3.677100	-11.016000	25.263454	0.000491	20.789153
884.218760	-2.994200	3.676300	-11.007000	25.227984	0.000490	20.799060
885.218833	-2.994200	3.676600	-11.007000	25.229028	0.000491	20.784935
886.219558	-2.983400	3.677200	-10.970000	25.254804	0.000488	20.786158
887.223855	-3.018500	3.676000	-11.095000	25.229525	0.000488	20.774529
888.220581	-3.004600	3.676000	-11.044000	25.218463	0.000489	20.793294
889.224862	-2.989300	3.675900	-10.988000	25.219160	0.000488	20.792572
890.219468	-3.011200	3.677200	-11.072000	25.206085	0.000486	20.781815
891.220548	-2.998900	3.675200	-11.021000	25.207725	0.000489	20.798161
892.220810	-2.992900	3.675300	-10.999000	25.205860	0.000486	20.811462
893.224660	-3.025200	3.674300	-11.114000	25.182593	0.000487	20.812285
894.223830	-3.030400	3.673800	-11.131000	25.219954	0.000486	20.787679
895.222633	-2.994300	3.672600	-10.996000	25.223210	0.000486	20.792371
896.222064	-3.007300	3.674000	-11.047000	25.222315	0.000486	20.788153
897.222912	-2.989600	3.674200	-10.983000	25.259973	0.000485	20.802727
898.222540	-2.986800	3.673200	-10.970000	25.269542	0.000484	20.817550
899.225818	-2.978700	3.672500	-10.939000	25.304314	0.000485	20.799358
900.228768	-2.996100	3.673200	-11.005000	25.301456	0.000483	20.782737
901.223420	-3.012600	3.670900	-11.058000	25.325689	0.000487	20.807069
902.227181	-3.005200	3.672500	-11.036000	25.357378	0.000484	20.808066
903.223349	-2.991000	3.672900	-10.985000	25.327529	0.000485	20.804648
904.226313	-2.984600	3.671600	-10.958000	25.326559	0.000483	20.808416
905.231630	-2.996000	3.672100	-11.001000	25.290594	0.000484	20.813083
906.225127	-2.997400	3.670600	-11.002000	25.305109	0.000482	20.797311
907.225686	-3.005800	3.669300	-11.028000	25.295316	0.000483	20.816875
908.224604	-3.005000	3.671100	-11.031000	25.236681	0.000482	20.817275
909.226019	-2.988500	3.669600	-10.967000	25.228975	0.000483	20.815702
910.230673	-2.997100	3.671400	-11.002000	25.266358	0.000481	20.799181
911.224306	-2.998000	3.670700	-11.004000	25.275730	0.000483	20.806693
912.224911	-2.987700	3.669600	-10.963000	25.240757	0.000480	20.797185
913.229064	-2.996600	3.668100	-10.991000	25.259125	0.000482	20.803773
914.225456	-2.984800	3.669900	-10.953000	25.278314	0.000481	20.815926
915.231864	-2.969800	3.669700	-10.898000	25.292556	0.000479	20.800354
916.225993	-3.011800	3.667900	-11.047000	25.311918	0.000479	20.804147
917.225589	-2.990800	3.668500	-10.971000	25.337319	0.000480	20.801676
918.225816	-3.007000	3.668400	-11.030000	25.300832	0.000479	20.825259
919.228854	-2.982500	3.667500	-10.937000	25.296508	0.000480	20.818546
920.228435	-3.014200	3.666700	-11.051000	25.259050	0.000478	20.813654
921.226381	-2.992900	3.668000	-10.977000	25.242222	0.000480	20.811458
922.228229	-3.003900	3.667000	-11.014000	25.286366	0.000478	20.824959
923.227582	-3.021900	3.665800	-11.076000	25.309929	0.000479	20.818745
924.228709	-2.985700	3.666400	-10.945000	25.325860	0.000477	20.819094
925.227366	-3.003200	3.666500	-11.010000	25.328843	0.000479	20.809287
926.228757	-3.009100	3.667000	-11.033000	25.344824	0.000477	20.807315
927.229946	-2.991600	3.666100	-10.967000	25.388566	0.000477	20.813304
928.229638	-3.012800	3.665100	-11.041000	25.343357	0.000477	20.830024
929.231236	-3.016400	3.664900	-11.053000	25.331700	0.000476	20.816897
930.232234	-2.995600	3.664400	-10.976000	25.337367	0.000477	20.831121
931.239308	-3.012500	3.664600	-11.038000	25.267922	0.000475	20.809285
932.232398	-2.990900	3.664600	-10.959000	25.257855	0.000475	20.827153
933.233044	-3.001400	3.663600	-10.995000	25.234142	0.000475	20.819467
934.232611	-2.999700	3.663700	-10.988000	25.238939	0.000475	20.813852
935.236189	-3.001100	3.663500	-10.993000	25.251566	0.000475	20.823684
936.236454	-3.001200	3.664000	-10.996000	25.290241	0.000474	20.821737
937.236843	-2.997200	3.664700	-10.983000	25.288700	0.000477	20.828724
938.234344	-2.995900	3.664900	-10.979000	25.290837	0.000475	20.810008
939.232876	-2.981300	3.664200	-10.922000	25.322801	0.000476	20.820764
940.236953	-3.001500	3.662900	-10.993000	25.332047	0.000474	20.821512
941.235775	-3.011300	3.663000	-11.030000	25.325808	0.000474	20.838007
942.236412	-3.018000	3.662400	-11.052000	25.351756	0.000474	20.827077
943.234931	-2.990000	3.662200	-10.948000	25.355410	0.000473	20.820314
944.237211	-2.996900	3.662300	-10.974000	25.347505	0.000471	20.833714
945.238955	-3.011100	3.662200	-11.027000	25.355259	0.000471	20.853827
946.239302	-2.989400	3.661100	-10.943000	25.301052	0.000472	20.814573
947.240483	-3.006500	3.660500	-11.004000	25.299287	0.000471	20.841250
948.237961	-3.006800	3.659900	-11.004000	25.300280	0.000471	20.831342
949.236740	-3.002200	3.659100	-10.984000	25.297671	0.000472	20.821136
950.236750	-3.027100	3.659500	-11.077000	25.301598	0.000472	20.825079
951.236241	-3.026700	3.659400	-11.075000	25.322600	0.000470	20.824829
952.236968	-3.036900	3.658200	-11.109000	25.350685	0.000470	20.831217
953.240819	-2.972200	3.659900	-10.878000	25.323693	0.000472	20.826875
954.239000	-2.992400	3.660900	-10.953000	25.284968	0.000470	20.845366
955.239892	-2.992800	3.659700	-10.952000	25.262002	0.000469	20.828472
956.242507	-3.002200	3.659200	-10.985000	25.317479	0.000470	20.834860
957.243358	-3.024500	3.658000	-11.063000	25.338332	0.000467	20.825926
958.244774	-3.024600	3.657400	-11.061000	25.353344	0.000469	20.848585
959.241129	-3.019100	3.657300	-11.041000	25.385181	0.000468	20.839775
960.246145	-3.018200	3.656200	-11.035000	25.421391	0.000466	20.839626
961.243593	-3.000700	3.657200	-10.973000	25.420198	0.000468	20.848859
962.242704	-3.000600	3.657600	-10.973000	25.397433	0.000468	20.837854
963.246096	-3.001700	3.657100	-10.977000	25.386498	0.000466	20.841572
964.245610	-2.997900	3.656600	-10.961000	25.373623	0.000465	20.845714
965.244599	-2.994000	3.655300	-10.943000	25.314272	0.000466	20.865777
966.245522	-3.009400	3.656700	-11.004000	25.293468	0.000465	20.840149
967.245304	-3.001700	3.656100	-10.973000	25.270476	0.000464	20.851203
968.246221	-3.006200	3.655500	-10.988000	25.278827	0.000465	20.858640
969.244500	-3.003400	3.654200	-10.974000	25.318795	0.000465	20.843767
970.244830	-2.999900	3.654300	-10.961000	25.359381	0.000465	20.858914
971.247248	-3.004500	3.654200	-10.978000	25.402750	0.000465	20.839874
972.245669	-3.017800	3.654500	-11.027000	25.448304	0.000464	20.845314
973.244684	-3.001900	3.654900	-10.971000	25.444576	0.000464	20.845363
974.245587	-3.020900	3.654200	-11.038000	25.444054	0.000464	20.843891
975.245346	-3.014600	3.653000	-11.012000	25.456678	0.000463	20.843291
976.246559	-2.996400	3.652600	-10.944000	25.468383	0.000462	20.843666
977.247867	-2.995700	3.654300	-10.946000	25.471042	0.000461	20.850602
978.247155	-3.003500	3.653400	-10.972000	25.438313	0.000461	20.850453
979.249870	-3.008500	3.652400	-10.987000	25.435305	0.000462	20.852175
980.247466	-2.978700	3.652400	-10.879000	25.395739	0.000461	20.863653
981.247525	-2.983200	3.651600	-10.893000	25.415497	0.000460	20.870690
982.249529	-3.023000	3.651000	-11.036000	25.408986	0.000461	20.849928
983.249601	-3.017400	3.651800	-11.018000	25.421188	0.000461	20.874034
984.249334	-3.019100	3.650200	-11.019000	25.433192	0.000461	20.856691
985.253578	-3.006100	3.650300	-10.972000	25.436174	0.000459	20.861107
986.249665	-2.980800	3.650000	-10.879000	25.367257	0.000459	20.863029
987.252626	-3.007700	3.650000	-10.977000	25.378714	0.000459	20.866472
988.257237	-3.011700	3.650700	-10.994000	25.354607	0.000459	20.844163
989.252048	-2.982100	3.651200	-10.887000	25.370885	0.000459	20.876628
990.256241	-3.000600	3.649400	-10.949000	25.368325	0.000456	20.873584
991.252725	-2.997600	3.649300	-10.939000	25.369767	0.000459	20.861756
992.254411	-2.995300	3.648900	-10.929000	25.398870	0.000458	20.870115
993.253290	-2.998400	3.647900	-10.937000	25.422778	0.000457	20.870889
994.252046	-3.024600	3.647900	-11.033000	25.482099	0.000456	20.877826
995.255714	-3.002500	3.648200	-10.953000	25.468978	0.000455	20.874133
996.256417	-3.004100	3.649000	-10.959000	25.473997	0.000456	20.868742
997.256711	-3.016600	3.646400	-10.999000	25.453246	0.000455	20.866396
998.257041	-3.034800	3.645700	-11.063000	25.476582	0.000456	20.846209
999.259259	-2.992300	3.647000	-10.912000	25.467014	0.000455	20.868842
1000.256997	-3.005000	3.647100	-10.959000	25.456328	0.000455	20.884189
1001.256294	-2.998700	3.646700	-10.935000	25.452575	0.000453	20.864300
1002.257453	-2.991000	3.645800	-10.904000	25.475687	0.000455	20.880869
1003.256651	-2.988000	3.646800	-10.896000	25.473276	0.000455	20.878923
1004.259986	-2.996900	3.646400	-10.927000	25.497282	0.000454	20.867943
1005.259177	-3.006500	3.644000	-10.954000	25.501755	0.000453	20.870538
1006.257729	-3.004300	3.644700	-10.949000	25.508614	0.000453	20.886908
1007.256228	-3.009600	3.644500	-10.967000	25.529786	0.000452	20.895367
1008.259583	-3.006400	3.644800	-10.957000	25.545267	0.000454	20.884836
1009.259230	-3.018800	3.642800	-10.995000	25.544422	0.000452	20.873084
1010.260756	-2.997000	3.644000	-10.920000	25.479513	0.000452	20.891823
1011.258766	-2.986200	3.644900	-10.884000	25.496561	0.000452	20.873857
1012.260453	-2.992600	3.644100	-10.904000	25.455407	0.000453	20.879471
1013.259616	-3.008000	3.643700	-10.959000	25.473076	0.000453	20.898161
1014.258771	-2.999800	3.643000	-10.928000	25.512117	0.000450	20.870513
1015.264744	-3.000200	3.642100	-10.926000	25.520690	0.000453	20.896190
1016.264028	-2.994600	3.643000	-10.908000	25.516217	0.000449	20.892173
1017.260508	-2.979600	3.641900	-10.850000	25.443627	0.000451	20.890401
1018.260947	-3.000800	3.640800	-10.924000	25.401851	0.000451	20.888754
1019.261034	-2.992300	3.641600	-10.896000	25.461819	0.000449	20.879745
1020.260013	-2.976500	3.641900	-10.839000	25.477624	0.000451	20.880444
1021.261337	-2.982000	3.641300	-10.857000	25.456848	0.000448	20.877599
1022.261382	-2.969100	3.641300	-10.811000	25.421584	0.000448	20.892921
1023.261295	-2.964900	3.641300	-10.794000	25.420490	0.000449	20.885659
1024.275938	-2.995000	3.639700	-10.900000	25.414451	0.000448	20.881492
1025.262093	-2.994600	3.640000	-10.900000	25.442931	0.000449	20.903925
1026.265309	-3.028800	3.638700	-11.020000	25.422404	0.000447	20.895641
1027.262986	-3.010200	3.639500	-10.954000	25.416066	0.000448	20.889752
1028.261129	-2.999300	3.638700	-10.913000	25.407840	0.000444	20.918947
1029.262461	-2.999500	3.638100	-10.911000	25.450138	0.000446	20.887930
1030.263248	-2.999700	3.637900	-10.912000	25.453940	0.000448	20.911186
1031.264145	-2.989900	3.638300	-10.877000	25.481898	0.000448	20.915079
1032.274459	-2.995000	3.638300	-10.896000	25.526878	0.000446	20.896240
1033.263255	-3.003300	3.638000	-10.925000	25.540694	0.000445	20.898261
1034.263283	-3.013600	3.637200	-10.960000	25.528517	0.000446	20.903101
1035.264946	-3.015300	3.636100	-10.962000	25.497654	0.000445	20.880169
1036.263888	-2.992200	3.636200	-10.879000	25.520019	0.000442	20.901679
1037.265687	-2.999900	3.637600	-10.911000	25.495491	0.000443	20.905497
1038.266334	-2.981800	3.635900	-10.841000	25.521112	0.000444	20.917000
1039.264942	-2.986800	3.636600	-10.861000	25.496585	0.000443	20.903750
1040.267238	-3.004100	3.634800	-10.918000	25.532866	0.000444	20.892771
1041.268589	-3.002800	3.635300	-10.915000	25.564126	0.000443	20.902352
1042.268142	-2.998900	3.635200	-10.899000	25.564201	0.000442	20.904798
1043.269878	-3.017100	3.633000	-10.960000	25.562834	0.000443	20.920967
1044.266553	-3.024500	3.633300	-10.988000	25.573295	0.000441	20.896863
1045.266093	-2.991100	3.633500	-10.867000	25.530231	0.000443	20.910512
1046.270141	-3.005500	3.634500	-10.923000	25.574687	0.000441	20.899208
1047.266349	-2.982000	3.634600	-10.838000	25.577569	0.000441	20.920592
1048.268104	-2.979300	3.632900	-10.822000	25.558435	0.000437	20.917499
1049.266659	-2.989600	3.632600	-10.859000	25.545663	0.000438	20.923637
1050.266840	-2.984100	3.633700	-10.842000	25.516787	0.000440	20.908390
1051.270018	-2.988900	3.633000	-10.858000	25.511370	0.000441	20.906270
1052.266747	-3.018900	3.631100	-10.960000	25.510227	0.000440	20.899907
1053.271049	-2.979000	3.631900	-10.819000	25.501678	0.000438	20.915028
1054.268207	-2.998800	3.631800	-10.890000	25.502846	0.000438	20.918571
1055.271144	-3.015800	3.630600	-10.948000	25.487811	0.000437	20.919120
1056.270478	-2.996600	3.631200	-10.880000	25.526429	0.000438	20.934191
1057.268971	-2.991600	3.629800	-10.857000	25.522825	0.000438	20.926306
1058.271234	-3.007200	3.628900	-10.912000	25.554583	0.000436	20.931172
1059.273449	-3.012200	3.629600	-10.932000	25.570511	0.000437	20.919668
1060.271741	-3.007300	3.629300	-10.914000	25.566833	0.000436	20.921664
1061.271182	-3.012200	3.628500	-10.929000	25.578015	0.000438	20.945219
1062.273262	-2.982100	3.629300	-10.822000	25.570237	0.000433	20.925083
1063.271097	-2.988400	3.629800	-10.846000	25.544270	0.000435	20.918445
1064.275359	-3.010000	3.629100	-10.922000	25.525409	0.000434	20.917996
1065.270243	-3.014000	3.628700	-10.936000	25.571554	0.000433	20.939680
1066.271945	-3.003600	3.628500	-10.898000	25.575257	0.000432	20.938183
1067.271336	-3.013300	3.628500	-10.933000	25.533535	0.000433	20.920940
1068.271866	-3.002600	3.628300	-10.894000	25.514301	0.000432	20.915850
1069.273999	-3.013100	3.626500	-10.926000	25.474117	0.000433	20.923860
1070.275187	-3.000500	3.628100	-10.885000	25.498868	0.000434	20.921689
1071.276418	-3.002500	3.627300	-10.890000	25.528465	0.000431	20.932918
1072.274340	-3.039100	3.623800	-11.012000	25.570883	0.000433	20.935213
1073.275389	-3.011700	3.625300	-10.918000	25.548792	0.000433	20.930572
1074.273646	-2.992500	3.626300	-10.850000	25.574884	0.000432	20.932593
1075.276605	-3.009200	3.625400	-10.909000	25.582959	0.000430	20.942599
1076.272723	-3.003800	3.624900	-10.888000	25.592327	0.000431	20.915500
1077.279230	-3.019100	3.623700	-10.940000	25.606963	0.000430	20.933042
1078.275782	-2.996200	3.625200	-10.861000	25.565292	0.000431	20.930547
1079.274282	-2.994900	3.623200	-10.851000	25.546878	0.000430	20.931969
1080.280349	-2.985100	3.624200	-10.818000	25.535124	0.000431	20.941501
1081.273049	-2.999200	3.622800	-10.865000	25.508733	0.000429	20.928750
1082.274705	-2.970200	3.623900	-10.763000	25.461492	0.000428	20.923984
1083.274934	-2.994500	3.623300	-10.849000	25.498296	0.000430	20.937234
1084.300582	-2.998500	3.621600	-10.859000	25.498520	0.000429	20.908538
1085.274385	-2.993600	3.622100	-10.842000	25.546754	0.000428	20.917621
1086.278246	-3.014900	3.622400	-10.920000	25.547300	0.000428	20.906791
1087.275140	-3.003700	3.621800	-10.878000	25.546381	0.000428	20.912505
1088.275371	-3.002300	3.620700	-10.870000	25.531048	0.000427	20.936934
1089.275342	-2.976200	3.622100	-10.779000	25.590885	0.000425	20.927327
1090.274863	-3.018700	3.620200	-10.927000	25.608254	0.000428	20.929597
1091.279573	-3.014700	3.620400	-10.914000	25.598936	0.000428	20.908862
1092.274284	-3.014800	3.618900	-10.909000	25.568273	0.000427	20.928325
1093.272473	-3.013200	3.620600	-10.908000	25.606838	0.000426	20.912056
1094.272491	-3.002900	3.619700	-10.869000	25.630915	0.000426	20.911582
1095.281466	-3.012900	3.618200	-10.900000	25.665527	0.000422	20.906990
1096.280474	-2.962100	3.619700	-10.721000	25.657651	0.000423	20.905718
1097.276410	-3.011000	3.618800	-10.895000	25.608254	0.000423	20.896410
1098.274645	-2.988900	3.617700	-10.812000	25.554357	0.000423	20.903921
1099.276240	-3.023200	3.617800	-10.936000	25.481645	0.000423	20.891120
1100.275822	-3.006300	3.617500	-10.875000	25.519170	0.000423	20.900352
1101.276191	-2.999900	3.618800	-10.856000	25.557065	0.000422	20.881987
1102.279317	-3.007400	3.618600	-10.882000	25.533433	0.000421	20.897133
1103.277040	-3.000800	3.617700	-10.854000	25.539074	0.000422	20.884781
1104.277996	-3.007700	3.616700	-10.877000	25.580075	0.000420	20.912205
1105.275321	-2.980900	3.616600	-10.780000	25.590834	0.000421	20.909260
1106.273815	-2.995700	3.614600	-10.827000	25.582163	0.000418	20.893914
1107.278397	-3.000600	3.615300	-10.848000	25.582659	0.000418	20.872604
1108.276253	-3.006400	3.614700	-10.866000	25.543472	0.000419	20.891568
1109.277069	-2.997400	3.614800	-10.834000	25.541037	0.000417	20.911406
1110.276923	-3.018400	3.613400	-10.905000	25.558133	0.000419	20.895860
1111.279264	-2.997100	3.614900	-10.832000	25.569912	0.000418	20.882560
1112.282248	-2.985700	3.614800	-10.791000	25.574583	0.000417	20.880139
1113.282413	-2.987800	3.613700	-10.796000	25.610663	0.000417	20.880339
1114.278905	-3.020900	3.613700	-10.916000	25.623137	0.000417	20.896184
1115.280077	-3.018200	3.612700	-10.903000	25.633647	0.000417	20.907214
1116.283617	-2.993700	3.612300	-10.814000	25.658643	0.000416	20.886328
1117.278956	-3.009100	3.611600	-10.867000	25.657376	0.000416	20.882211
1118.281958	-2.995600	3.613300	-10.823000	25.661824	0.000417	20.898056
1119.281392	-3.025600	3.612200	-10.927000	25.680682	0.000415	20.869584
1120.281200	-2.964500	3.613300	-10.710000	25.650493	0.000417	20.873876
1121.280606	-3.002000	3.612200	-10.842000	25.657127	0.000417	20.872478
1122.282560	-2.994100	3.612400	-10.815000	25.630466	0.000416	20.876047
1123.286447	-2.978800	3.611700	-10.757000	25.636107	0.000414	20.867487
1124.283085	-3.016000	3.609900	-10.886000	25.655736	0.000415	20.880089
1125.281879	-2.986600	3.609700	-10.780000	25.588399	0.000415	20.864143
1126.282534	-2.996900	3.609700	-10.817000	25.614514	0.000414	20.885629
1127.288409	-2.974000	3.611700	-10.740000	25.658096	0.000413	20.872028
1128.281357	-3.016300	3.609500	-10.887000	25.669997	0.000412	20.875921
1129.284150	-3.006900	3.608400	-10.849000	25.667314	0.000413	20.890294
1130.281496	-3.003400	3.608800	-10.838000	25.663537	0.000413	20.876071
1131.282022	-3.026800	3.609100	-10.922000	25.577887	0.000413	20.859751
1132.284995	-3.008100	3.607500	-10.851000	25.569438	0.000412	20.883033
1133.283031	-3.000800	3.608100	-10.826000	25.551174	0.000412	20.861373
1134.285822	-2.999000	3.607200	-10.818000	25.540464	0.000411	20.866264
1135.282556	-3.022600	3.606600	-10.901000	25.555026	0.000411	20.872352
1136.283278	-3.034600	3.605200	-10.939000	25.626390	0.000410	20.854885
1137.284419	-3.015500	3.606100	-10.873000	25.635360	0.000412	20.869583
1138.284058	-3.015400	3.605600	-10.871000	25.635857	0.000410	20.868185
1139.282770	-3.003700	3.605100	-10.828000	25.604375	0.000408	20.859326
1140.287982	-2.992600	3.606400	-10.791000	25.576694	0.000408	20.883207
1141.284218	-2.999800	3.605700	-10.815000	25.560989	0.000408	20.872177
1142.284908	-3.003600	3.605200	-10.827000	25.571898	0.000408	20.865590
1143.286319	-3.001600	3.604900	-10.820000	25.582732	0.000407	20.875521
1144.301984	-2.987400	3.604000	-10.766000	25.613469	0.000408	20.846650
1145.288907	-3.001100	3.605200	-10.819000	25.583154	0.000407	20.852239
1146.285960	-2.988800	3.604900	-10.773000	25.627757	0.000405	20.853886
1147.285510	-2.990700	3.604800	-10.780000	25.631856	0.000406	20.848047
1148.288480	-2.995600	3.604100	-10.796000	25.691166	0.000404	20.851665
1149.286570	-2.986900	3.603900	-10.763000	25.665301	0.000403	20.869782
1150.287251	-3.002600	3.602700	-10.817000	25.655461	0.000407	20.849943
1151.286407	-3.015800	3.601400	-10.861000	25.632428	0.000405	20.870904
1152.292043	-2.995500	3.603600	-10.794000	25.638043	0.000404	20.863743
1153.287171	-2.999100	3.601400	-10.800000	25.544911	0.000404	20.865040
1154.287492	-3.000700	3.602200	-10.807000	25.570704	0.000404	20.854434
1155.287404	-3.007200	3.599700	-10.824000	25.558106	0.000405	20.865489
1156.288527	-2.989700	3.601400	-10.766000	25.575277	0.000401	20.864716
1157.287551	-2.990800	3.600800	-10.768000	25.585589	0.000402	20.851839
1158.298918	-3.011900	3.600500	-10.844000	25.563796	0.000401	20.843704
1159.293371	-3.010200	3.599300	-10.834000	25.623308	0.000400	20.861272
1160.287364	-3.018000	3.600700	-10.866000	25.677723	0.000401	20.849069
1161.290206	-2.991200	3.598500	-10.763000	25.705129	0.000400	20.845301
1162.288273	-3.006100	3.599800	-10.820000	25.756161	0.000402	20.842032
1163.291189	-3.006100	3.600000	-10.820000	25.709327	0.000401	20.850467
1164.290024	-2.971400	3.599400	-10.695000	25.693203	0.000402	20.863193
1165.290718	-3.000700	3.597200	-10.793000	25.675462	0.000399	20.845376
1166.289941	-2.990800	3.598500	-10.761000	25.694817	0.000400	20.844902
1167.293809	-3.014500	3.597900	-10.845000	25.690991	0.000400	20.858601
1168.290644	-2.983800	3.598600	-10.736000	25.679015	0.000400	20.843254
1169.290683	-2.991300	3.597400	-10.760000	25.646714	0.000400	20.851589
1170.298182	-2.990600	3.596700	-10.755000	25.661722	0.000398	20.837740
1171.291058	-3.004900	3.597200	-10.808000	25.683860	0.000398	20.831052
1172.293758	-3.011500	3.595700	-10.828000	25.697774	0.000397	20.840285
1173.291609	-2.988100	3.595000	-10.742000	25.677176	0.000397	20.841882
1174.295218	-3.005900	3.596000	-10.808000	25.627184	0.000398	20.830552
1175.293414	-3.007800	3.595500	-10.814000	25.652777	0.000398	20.860997
1176.291611	-2.990000	3.594700	-10.748000	25.687015	0.000394	20.819048
1177.295180	-2.988600	3.594300	-10.741000	25.701004	0.000393	20.832624
1178.294382	-3.014500	3.593500	-10.832000	25.704084	0.000395	20.832399
1179.296058	-3.007800	3.594500	-10.810000	25.714768	0.000394	20.848819
1180.294750	-2.997500	3.593000	-10.770000	25.710122	0.000394	20.824713
1181.294352	-3.009400	3.592400	-10.810000	25.704059	0.000394	20.842331
1182.295216	-3.001100	3.593900	-10.784000	25.696829	0.000392	20.826534
1183.295706	-3.010100	3.591300	-10.809000	25.673300	0.000392	20.832773
1184.297406	-2.993600	3.591500	-10.751000	25.603528	0.000390	20.841407
1185.297896	-3.004900	3.591500	-10.791000	25.608722	0.000392	20.822916
1186.301035	-3.011500	3.591200	-10.814000	25.629047	0.000392	20.832424
1187.295906	-3.001900	3.592200	-10.782000	25.628451	0.000391	20.830876
1188.297568	-2.989900	3.591500	-10.737000	25.632202	0.000389	20.844127
1189.295763	-3.003600	3.592400	-10.790000	25.636576	0.000391	20.809165
1190.294525	-3.014900	3.590400	-10.824000	25.655484	0.000390	20.834794
1191.295179	-2.998400	3.591000	-10.767000	25.666765	0.000391	20.832848
1192.293869	-3.004000	3.589800	-10.783000	25.669374	0.000391	20.826933
1193.298812	-2.974300	3.589500	-10.674000	25.659584	0.000390	20.812360
1194.296601	-3.024800	3.588400	-10.853000	25.656429	0.000390	20.836217
1195.294645	-3.012500	3.588600	-10.810000	25.678592	0.000386	20.824338
1196.294506	-2.998600	3.590000	-10.764000	25.658664	0.000389	20.826135
1197.297110	-3.004300	3.589200	-10.782000	25.706518	0.000391	20.817775
1198.296538	-2.998000	3.587400	-10.754000	25.688182	0.000388	20.817375
1199.304757	-3.004300	3.588700	-10.781000	25.665075	0.000387	20.828306
1200.301432	-2.987400	3.587800	-10.717000	25.630016	0.000384	20.829129
1201.296833	-2.994900	3.588100	-10.745000	25.621294	0.000387	20.832224
1202.297400	-2.993300	3.587300	-10.737000	25.632451	0.000386	20.815454
1203.298684	-2.991300	3.585700	-10.725000	25.639333	0.000388	20.824263
1204.297738	-2.970100	3.587400	-10.653000	25.628127	0.000388	20.830077
1205.298554	-2.998500	3.586300	-10.753000	25.623058	0.000385	20.844900
1206.299668	-2.991000	3.586400	-10.726000	25.648825	0.000386	20.818623
1207.299634	-2.999800	3.584600	-10.752000	25.609019	0.000383	20.818473
1208.299960	-2.986100	3.585600	-10.706000	25.659832	0.000383	20.796488
1209.299248	-2.978500	3.585300	-10.678000	25.692431	0.000386	20.832074
1210.300973	-2.984900	3.584900	-10.699000	25.690244	0.000381	20.822291
1211.299448	-2.995500	3.584300	-10.736000	25.695834	0.000383	20.822216
1212.299463	-2.980900	3.583700	-10.682000	25.686120	0.000382	20.828106
1213.303202	-3.021600	3.582600	-10.824000	25.689747	0.000383	20.812309
1214.299579	-3.001400	3.582600	-10.752000	25.628574	0.000383	20.816776
1215.304711	-2.991600	3.582800	-10.718000	25.622437	0.000382	20.819147
1216.299916	-2.997100	3.581500	-10.733000	25.641520	0.000382	20.808441
1217.300992	-3.036300	3.580400	-10.870000	25.685473	0.000384	20.821767
1218.302429	-3.008800	3.582400	-10.778000	25.722469	0.000380	20.803924
1219.300994	-2.998700	3.580400	-10.735000	25.717400	0.000381	20.814480
1220.304237	-3.022800	3.579600	-10.819000	25.715860	0.000381	20.807243
1221.303367	-3.006100	3.580400	-10.762000	25.734718	0.000379	20.814330
1222.302252	-2.981300	3.580400	-10.673000	25.687213	0.000379	20.801703
1223.305457	-2.996900	3.580900	-10.730000	25.649992	0.000380	20.813157
1224.307299	-2.998700	3.579700	-10.734000	25.599253	0.000378	20.813881
1225.302143	-3.006100	3.579700	-10.760000	25.583002	0.000379	20.812733
1226.304708	-3.001400	3.578900	-10.741000	25.624896	0.000379	20.810712
1227.302961	-2.979600	3.580200	-10.666000	25.619330	0.000377	20.817924
1228.302780	-3.004300	3.579400	-10.752000	25.611404	0.000376	20.801902
1229.300629	-3.020200	3.579000	-10.808000	25.609938	0.000375	20.807068
1230.301291	-2.996800	3.578800	-10.725000	25.581412	0.000376	20.818248
1231.305998	-3.014400	3.577800	-10.784000	25.592818	0.000375	20.806469
1232.302019	-2.996100	3.577400	-10.718000	25.630537	0.000375	20.807368
1233.301793	-3.005600	3.576600	-10.749000	25.628897	0.000372	20.806195
1234.302482	-2.994200	3.577200	-10.710000	25.634140	0.000373	20.821891
1235.302481	-2.996700	3.576000	-10.715000	25.676951	0.000373	20.821742
1236.303288	-3.003600	3.576400	-10.742000	25.677075	0.000374	20.787728
1237.306480	-3.002000	3.575100	-10.731000	25.672081	0.000373	20.804997
1238.304243	-2.991600	3.575400	-10.696000	25.663534	0.000373	20.811111
1239.302280	-2.983500	3.576200	-10.668000	25.688181	0.000373	20.796038
1240.305215	-3.009900	3.573800	-10.756000	25.687660	0.000372	20.795988
1241.303114	-2.993900	3.575200	-10.703000	25.713251	0.000372	20.813631
1242.307127	-3.004200	3.575000	-10.739000	25.699337	0.000374	20.796811
1243.306669	-2.990700	3.573800	-10.688000	25.705474	0.000373	20.815778
1244.303422	-3.020800	3.573200	-10.793000	25.682442	0.000371	20.802601
1245.304957	-2.994800	3.572700	-10.699000	25.678914	0.000370	20.787204
1246.306654	-3.004900	3.574000	-10.739000	25.728257	0.000371	20.812109
1247.306501	-2.997400	3.573600	-10.711000	25.730046	0.000369	20.800630
1248.305295	-3.003400	3.572500	-10.728000	25.714816	0.000367	20.796237
1249.308712	-2.998800	3.572900	-10.713000	25.703014	0.000368	20.808565
1250.305077	-2.981500	3.572500	-10.651000	25.685895	0.000366	20.793267
1251.308321	-2.987600	3.572300	-10.671000	25.670590	0.000368	20.785007
1252.306619	-2.996200	3.570900	-10.698000	25.688728	0.000369	20.808441
1253.311538	-3.005400	3.570100	-10.729000	25.653794	0.000368	20.789000
1254.306272	-2.986100	3.571100	-10.663000	25.643904	0.000367	20.786180
1255.307340	-2.997900	3.571400	-10.706000	25.727910	0.000367	20.782362
1256.310454	-3.001700	3.571000	-10.718000	25.732431	0.000366	20.779792
1257.308399	-2.996700	3.570000	-10.697000	25.749077	0.000367	20.791296
1258.310301	-2.990700	3.569800	-10.675000	25.733375	0.000366	20.794490
1259.308689	-3.006400	3.569100	-10.729000	25.688554	0.000366	20.785506
1260.308842	-2.990000	3.570400	-10.674000	25.686790	0.000365	20.785631
1261.308310	-2.988900	3.567900	-10.663000	25.646886	0.000366	20.815253
1262.310072	-2.985800	3.569100	-10.655000	25.647333	0.000365	20.792943
1263.310346	-2.979500	3.567400	-10.628000	25.687063	0.000364	20.776896
1264.310572	-2.999700	3.568600	-10.704000	25.676876	0.000365	20.803175
1265.309474	-2.993100	3.568000	-10.679000	25.666987	0.000364	20.783285
1266.309572	-3.009700	3.565900	-10.732000	25.705747	0.000362	20.784283
1267.313279	-2.979100	3.566700	-10.625000	25.703859	0.000363	20.789025
1268.311057	-2.994800	3.566000	-10.679000	25.676056	0.000361	20.772479
1269.311624	-2.995300	3.565700	-10.680000	25.700803	0.000363	20.789274
1270.310634	-2.999600	3.566100	-10.695000	25.687063	0.000362	20.787328
1271.311834	-3.002300	3.564700	-10.702000	25.690392	0.000361	20.783560
1272.309587	-3.004400	3.565600	-10.712000	25.661769	0.000361	20.795114
1273.310802	-3.015700	3.564900	-10.750000	25.717648	0.000359	20.803349
1274.313515	-3.009600	3.565300	-10.729000	25.748705	0.000359	20.778119
1275.312612	-3.000900	3.564000	-10.694000	25.721251	0.000360	20.761448
1276.312571	-3.019400	3.564300	-10.761000	25.649519	0.000359	20.794190
1277.311930	-2.991700	3.564600	-10.663000	25.616795	0.000357	20.783135
1278.316431	-3.007000	3.562400	-10.711000	25.642239	0.000359	20.785456
1279.312649	-2.989000	3.564300	-10.652000	25.677223	0.000358	20.776023
1280.312610	-3.044200	3.562000	-10.841000	25.729499	0.000357	20.787752
1281.314841	-3.011100	3.563000	-10.728000	25.785275	0.000357	20.772179
1282.314565	-3.001000	3.563300	-10.692000	25.817622	0.000358	20.791395
1283.311498	-2.998700	3.561700	-10.679000	25.814367	0.000358	20.780540
1284.311382	-2.998600	3.561900	-10.680000	25.784679	0.000357	20.770158
1285.321416	-2.994000	3.560600	-10.660000	25.804703	0.000358	20.772728
1286.320517	-3.006300	3.560400	-10.703000	25.810964	0.000358	20.775224
1287.313953	-2.993200	3.559900	-10.655000	25.803684	0.000356	20.774550
1288.314064	-3.001100	3.561000	-10.686000	25.764779	0.000356	20.807067
1289.317562	-3.022600	3.559400	-10.758000	25.798865	0.000355	20.780614
1290.318682	-2.998800	3.560000	-10.674000	25.786940	0.000355	20.760100
1291.319513	-2.994400	3.558900	-10.655000	25.851805	0.000355	20.773103
1292.316213	-3.003900	3.559300	-10.691000	25.855035	0.000354	20.754535
1293.316535	-3.009700	3.558800	-10.710000	25.869990	0.000356	20.796112
1294.315416	-3.005900	3.559600	-10.699000	25.866114	0.000354	20.773252
1295.317511	-3.012500	3.558500	-10.719000	25.874883	0.000353	20.776372
1296.321998	-3.018100	3.556900	-10.734000	25.802740	0.000353	20.779291
1297.317069	-3.019800	3.556900	-10.739000	25.792008	0.000353	20.775623
1298.317611	-3.002700	3.557500	-10.682000	25.757499	0.000352	20.772254
1299.317190	-2.992600	3.557100	-10.643000	25.757971	0.000351	20.776047
1300.317485	-3.005600	3.555300	-10.686000	25.789672	0.000351	20.779915
1301.318881	-3.003800	3.556700	-10.682000	25.780977	0.000349	20.798208
1302.321571	-3.011900	3.555600	-10.709000	25.756157	0.000351	20.774225
1303.317354	-2.999400	3.556000	-10.665000	25.743735	0.000352	20.792094
1304.318565	-3.016900	3.555200	-10.725000	25.749549	0.000351	20.767113
1305.318040	-2.988700	3.555800	-10.626000	25.775113	0.000350	20.765291
1306.318655	-3.011100	3.555500	-10.705000	25.786442	0.000348	20.777145
1307.320440	-2.987700	3.553800	-10.617000	25.771039	0.000349	20.751241
1308.318094	-3.006600	3.554700	-10.687000	25.789896	0.000348	20.764967
1309.319823	-3.014900	3.552600	-10.710000	25.768604	0.000349	20.763968
1310.319532	-3.010900	3.552600	-10.696000	25.730194	0.000348	20.780389
1311.319281	-2.999600	3.554400	-10.661000	25.674291	0.000347	20.782560
1312.320671	-3.013900	3.553300	-10.709000	25.648848	0.000346	20.755109
1313.323938	-3.019100	3.552400	-10.724000	25.652649	0.000348	20.775523
1314.323589	-3.026100	3.551700	-10.747000	25.665122	0.000347	20.783309
1315.322783	-3.003400	3.552800	-10.670000	25.670017	0.000345	20.783009
1316.322229	-2.997500	3.551900	-10.646000	25.681769	0.000344	20.754035
1317.322533	-2.991600	3.550900	-10.623000	25.660700	0.000348	20.767961
1318.325688	-2.995300	3.551100	-10.635000	25.706317	0.000345	20.763519
1319.323735	-3.003300	3.548500	-10.657000	25.766840	0.000344	20.784482
1320.322590	-3.008300	3.549000	-10.677000	25.759014	0.000344	20.769982
1321.324150	-3.032200	3.548400	-10.758000	25.768082	0.000343	20.780988
1322.325244	-2.989000	3.550700	-10.612000	25.753921	0.000347	20.781936
1323.327049	-2.981200	3.550200	-10.583000	25.781076	0.000345	20.777918
1324.325230	-3.009100	3.549000	-10.678000	25.737796	0.000341	20.783284
1325.324144	-3.011800	3.546900	-10.682000	25.732231	0.000344	20.783858
1326.326933	-3.005300	3.547700	-10.661000	25.750169	0.000344	20.795712
1327.327589	-3.006500	3.547400	-10.664000	25.804652	0.000342	20.772203
1328.328084	-2.997200	3.547300	-10.631000	25.828576	0.000343	20.794339
1329.328307	-3.009400	3.546100	-10.671000	25.859903	0.000342	20.776970
1330.327645	-3.000800	3.546100	-10.640000	25.828700	0.000342	20.774075
1331.327035	-2.996000	3.545400	-10.621000	25.777721	0.000342	20.776920
1332.328722	-3.011600	3.546100	-10.678000	25.811857	0.000340	20.799355
1333.327312	-2.986200	3.545300	-10.586000	25.792752	0.000341	20.785854
1334.330505	-2.992700	3.546400	-10.611000	25.751163	0.000340	20.786752
1335.327829	-2.992200	3.545500	-10.608000	25.687732	0.000339	20.771879
1336.329762	-3.011900	3.544400	-10.674000	25.686539	0.000339	20.798656
1337.329214	-3.002000	3.544400	-10.638000	25.679433	0.000337	20.797209
1338.329160	-3.005900	3.543300	-10.649000	25.707012	0.000340	20.801676
1339.333596	-3.011800	3.543100	-10.670000	25.743957	0.000337	20.788998
1340.332603	-3.028300	3.542500	-10.727000	25.754914	0.000338	20.790520
1341.330312	-3.005900	3.543300	-10.649000	25.780528	0.000338	20.793964
1342.331073	-3.009800	3.542700	-10.661000	25.801372	0.000336	20.798306
1343.332661	-3.018400	3.542500	-10.692000	25.774193	0.000336	20.798980
1344.331909	-2.996100	3.542500	-10.614000	25.788801	0.000338	20.776670
1345.336757	-2.984700	3.541700	-10.570000	25.806242	0.000338	20.803198
1346.332994	-3.007000	3.541700	-10.648000	25.783385	0.000337	20.793989
1347.332553	-2.975800	3.541000	-10.536000	25.715907	0.000336	20.797333
1348.331752	-2.966400	3.540800	-10.503000	25.739883	0.000337	20.807190
1349.332601	-3.011800	3.539400	-10.659000	25.725323	0.000334	20.791144
1350.337433	-2.988200	3.540000	-10.577000	25.753622	0.000335	20.811508
1351.331737	-2.990300	3.541300	-10.588000	25.771957	0.000334	20.805743
1352.339450	-2.998200	3.540300	-10.613000	25.814191	0.000332	20.803597
1353.339600	-3.009300	3.537600	-10.645000	25.830960	0.000334	20.793889
1354.333480	-3.000600	3.538600	-10.617000	25.759237	0.000337	20.824734
1355.334198	-2.986100	3.539700	-10.569000	25.720230	0.000332	20.796459
1356.338883	-2.986700	3.539100	-10.570000	25.717894	0.000333	20.801700
1357.335914	-3.000800	3.538000	-10.616000	25.709795	0.000337	20.795461
1358.337151	-2.994700	3.538500	-10.596000	25.730988	0.000333	20.797308
1359.338346	-3.000100	3.538400	-10.615000	25.751286	0.000333	20.798730
1360.338341	-3.008100	3.536300	-10.637000	25.791435	0.000331	20.814876
1361.343760	-2.989300	3.537300	-10.573000	25.767087	0.000331	20.811757
1362.338581	-3.001800	3.535600	-10.612000	25.769547	0.000333	20.805219
1363.338258	-2.998900	3.535300	-10.601000	25.728677	0.000330	20.809211
1364.338012	-3.000200	3.534800	-10.604000	25.683582	0.000331	20.802324
1365.338334	-2.985900	3.534800	-10.554000	25.709024	0.000330	20.796110
1366.340769	-2.988100	3.535100	-10.563000	25.739137	0.000330	20.818769
1367.337875	-2.981500	3.535000	-10.539000	25.747609	0.000330	20.823960
1368.339640	-3.017900	3.533400	-10.663000	25.744205	0.000329	20.807739
1369.340231	-3.016800	3.533600	-10.660000	25.714490	0.000330	20.826730
1370.343261	-3.028400	3.533300	-10.699000	25.760379	0.000329	20.836787
1371.342997	-2.997400	3.534200	-10.593000	25.772280	0.000328	20.823610
1372.341943	-2.999500	3.533000	-10.596000	25.816998	0.000328	20.830124
1373.340485	-3.002000	3.532900	-10.605000	25.793745	0.000323	20.818145
1374.340594	-2.998000	3.533200	-10.592000	25.817371	0.000329	20.791144
1375.340213	-2.991000	3.531400	-10.562000	25.831234	0.000327	20.808388
1376.340760	-2.988600	3.532500	-10.556000	25.826563	0.000327	20.817447
1377.345806	-2.979200	3.532300	-10.522000	25.847580	0.000325	20.804420
1378.341025	-3.001700	3.529800	-10.595000	25.832724	0.000326	20.836437
1379.344060	-2.971000	3.530800	-10.489000	25.851331	0.000325	20.815775
1380.341469	-2.980000	3.530100	-10.519000	25.848350	0.000324	20.818944
1381.340030	-2.997400	3.530400	-10.580000	25.861243	0.000321	20.804869
1382.342790	-2.974600	3.530100	-10.499000	25.888594	0.000326	20.814801
1383.342320	-2.985600	3.529500	-10.536000	25.818638	0.000326	20.817546
1384.341486	-3.000000	3.528200	-10.584000	25.826613	0.000324	20.820341
1385.342841	-2.986700	3.530300	-10.543000	25.821098	0.000325	20.811482
1386.344277	-3.009000	3.529000	-10.618000	25.817644	0.000323	20.828876
1387.343413	-3.009100	3.527600	-10.614000	25.844127	0.000324	20.823236
1388.344158	-2.992600	3.529200	-10.560000	25.877366	0.000321	20.821539
1389.344184	-2.999400	3.528600	-10.583000	25.891352	0.000321	20.837960
1390.343779	-3.013700	3.526600	-10.627000	25.868423	0.000325	20.823461
1391.342782	-3.000900	3.527500	-10.584000	25.880670	0.000320	20.824384
1392.343412	-2.996400	3.525800	-10.564000	25.839780	0.000322	20.822662
1393.344316	-2.983400	3.526500	-10.520000	25.832799	0.000322	20.822762
1394.343510	-2.990000	3.525900	-10.542000	25.840873	0.000320	20.826605
1395.343511	-2.981000	3.526800	-10.511000	25.843407	0.000320	20.824883
1396.344577	-2.992600	3.525400	-10.550000	25.844500	0.000319	20.840680
1397.347951	-2.996100	3.524800	-10.559000	25.832625	0.000316	20.840131
1398.347342	-3.010100	3.523800	-10.606000	25.828824	0.000320	20.838683
1399.348042	-3.004300	3.523200	-10.584000	25.819707	0.000321	20.844223
1400.346409	-3.011600	3.523700	-10.611000	25.850412	0.000316	20.849464
1401.345582	-3.005300	3.523100	-10.588000	25.830513	0.000319	20.834217
1402.345903	-3.005600	3.522800	-10.587000	25.847431	0.000317	20.848366
1403.345859	-3.023000	3.522200	-10.646000	25.825520	0.000317	20.858123
1404.349861	-2.992500	3.523500	-10.543000	25.855232	0.000316	20.828702
1405.347691	-3.022400	3.521700	-10.643000	25.887054	0.000317	20.843125
1406.347328	-3.017400	3.521800	-10.626000	25.904518	0.000317	20.851186
1407.346444	-2.976800	3.521700	-10.482000	25.896122	0.000316	20.856027
1408.349041	-3.011300	3.520600	-10.601000	25.840600	0.000314	20.836762
1409.346887	-2.996500	3.520700	-10.549000	25.807757	0.000316	20.838858
1410.351762	-3.014400	3.520400	-10.610000	25.807857	0.000314	20.869777
1411.348944	-3.007700	3.519200	-10.584000	25.776553	0.000315	20.853507
1412.349470	-3.017100	3.518000	-10.613000	25.730392	0.000314	20.846020
1413.351110	-3.004100	3.519700	-10.572000	25.744603	0.000314	20.853182
1414.350699	-3.030200	3.518700	-10.661000	25.749299	0.000313	20.862166
1415.354447	-3.010500	3.519100	-10.593000	25.779510	0.000314	20.876864
1416.354347	-3.006900	3.517400	-10.576000	25.791410	0.000314	20.853731
1417.351180	-3.025500	3.516600	-10.638000	25.796255	0.000312	20.860020
1418.355034	-3.009600	3.517200	-10.584000	25.834017	0.000314	20.876140
1419.354341	-2.991900	3.517100	-10.521000	25.805149	0.000311	20.834816
1420.354334	-3.002000	3.516600	-10.556000	25.767659	0.000311	20.839358
1421.352250	-2.993100	3.516800	-10.524000	25.769249	0.000314	20.862291
1422.354153	-2.972000	3.516100	-10.449000	25.769796	0.000313	20.854305
1423.354233	-2.999900	3.516800	-10.549000	25.722939	0.000312	20.850862
1424.352792	-2.993500	3.516400	-10.525000	25.799733	0.000311	20.861617
1425.355907	-2.996400	3.514100	-10.528000	25.830514	0.000311	20.879259
1426.355126	-3.015500	3.513600	-10.594000	25.822241	0.000312	20.870476
1427.354500	-3.010900	3.514100	-10.580000	25.849146	0.000309	20.856252
1428.353248	-3.019000	3.512800	-10.604000	25.830762	0.000309	20.860070
1429.353429	-3.007900	3.514800	-10.571000	25.870511	0.000311	20.873445
1430.354334	-3.019100	3.513300	-10.606000	25.859456	0.000308	20.861867
1431.358648	-3.031400	3.513100	-10.649000	25.871927	0.000312	20.864437
1432.356884	-2.989500	3.514100	-10.504000	25.881888	0.000309	20.845522
1433.356357	-3.003800	3.511700	-10.548000	25.883826	0.000309	20.864537
1434.361117	-2.992100	3.512400	-10.509000	25.917386	0.000310	20.905361
1435.358346	-3.024100	3.511300	-10.618000	25.897936	0.000308	20.858797
1436.357405	-3.003100	3.512200	-10.547000	25.886857	0.000307	20.874219
1437.362505	-3.022500	3.511100	-10.611000	25.869641	0.000308	20.864986
1438.357982	-2.993200	3.510800	-10.508000	25.816602	0.000306	20.859596
1439.357457	-3.004400	3.510100	-10.544000	25.858810	0.000306	20.869752
1440.358898	-2.981800	3.510600	-10.467000	25.907400	0.000305	20.861667
1441.359579	-3.022800	3.509500	-10.608000	25.919697	0.000308	20.872123
1442.359720	-3.021400	3.510100	-10.605000	25.929559	0.000305	20.872547
1443.356411	-2.983600	3.510700	-10.474000	25.883752	0.000305	20.882953
1444.356129	-2.984000	3.509300	-10.471000	25.878684	0.000307	20.873121
1445.357788	-2.997400	3.508100	-10.514000	25.868971	0.000307	20.896553
1446.358470	-2.998200	3.509300	-10.521000	25.882609	0.000306	20.874694
1447.360020	-2.994500	3.509200	-10.507000	25.889714	0.000304	20.893683
1448.360088	-2.992800	3.507600	-10.496000	25.883528	0.000305	20.868979
1449.362378	-2.995200	3.508000	-10.506000	25.847681	0.000303	20.874219
1450.361886	-2.981400	3.507900	-10.457000	25.830515	0.000305	20.898225
1451.367008	-2.977700	3.506800	-10.442000	25.870213	0.000303	20.885000
1452.365349	-2.961600	3.506900	-10.385000	25.888919	0.000302	20.872498
1453.364351	-2.983100	3.506500	-10.460000	25.866363	0.000303	20.868331
1454.363551	-2.976600	3.506300	-10.436000	25.843135	0.000304	20.873920
1455.368360	-2.976400	3.506500	-10.436000	25.822690	0.000301	20.889417
1456.363093	-2.975900	3.505500	-10.430000	25.845445	0.000302	20.872922
1457.363678	-2.992500	3.503700	-10.483000	25.827385	0.000302	20.897452
1458.364668	-2.981600	3.504100	-10.447000	25.841719	0.000298	20.902367
1459.363229	-2.993800	3.504400	-10.491000	25.848004	0.000303	20.902517
1460.363897	-2.994100	3.502500	-10.486000	25.841645	0.000302	20.901344
1461.363794	-3.017000	3.503300	-10.568000	25.862562	0.000300	20.895805
1462.366055	-2.997100	3.503200	-10.498000	25.918058	0.000300	20.889916
1463.365743	-2.988500	3.503500	-10.469000	25.927647	0.000300	20.914245
1464.367153	-2.974200	3.501900	-10.415000	25.941657	0.000296	20.905562
1465.365481	-3.007700	3.501700	-10.531000	25.906482	0.000300	20.886822
1466.365930	-2.988400	3.501800	-10.463000	25.963814	0.000298	20.906011
1467.367281	-3.024700	3.501000	-10.588000	25.946501	0.000299	20.901419
1468.363686	-3.002800	3.501200	-10.513000	25.897390	0.000296	20.900920
1469.368296	-3.007900	3.501800	-10.531000	25.929982	0.000296	20.892411
1470.365280	-2.995600	3.499600	-10.483000	25.937036	0.000296	20.925574
1471.366112	-2.996000	3.500000	-10.485000	25.955841	0.000297	20.902742
1472.364737	-2.985200	3.499800	-10.447000	25.919126	0.000294	20.910427
1473.363271	-2.995200	3.499500	-10.481000	25.905961	0.000296	20.917589
1474.367029	-3.002900	3.497900	-10.503000	25.893714	0.000295	20.897227
1475.371076	-2.996700	3.498100	-10.482000	25.831832	0.000295	20.897177
1476.365637	-2.994100	3.498500	-10.474000	25.848601	0.000293	20.899323
1477.365983	-3.005700	3.498300	-10.514000	25.866760	0.000295	20.891014
1478.368301	-2.999500	3.497800	-10.491000	25.873120	0.000295	20.905936
1479.367727	-3.013900	3.496600	-10.538000	25.869915	0.000295	20.920259
1480.370965	-3.008000	3.497400	-10.519000	25.878088	0.000294	20.911875
1481.369689	-3.011300	3.495800	-10.525000	25.876027	0.000293	20.901270
1482.368011	-2.999800	3.495900	-10.487000	25.900744	0.000294	20.925624
1483.367608	-3.006700	3.495500	-10.509000	25.925684	0.000290	20.919860
1484.370852	-3.003900	3.495100	-10.498000	25.916617	0.000293	20.917389
1485.369467	-2.986200	3.495800	-10.438000	25.973402	0.000292	20.892885
1486.368554	-2.989000	3.494200	-10.443000	25.988828	0.000292	20.912174
1487.367698	-2.996300	3.493800	-10.467000	25.998962	0.000291	20.916666
1488.370372	-2.997300	3.493800	-10.471000	26.017318	0.000290	20.899074
1489.369176	-3.003300	3.494200	-10.494000	25.942079	0.000290	20.904564
1490.368385	-3.003000	3.493700	-10.491000	25.892323	0.000290	20.917165
1491.373449	-2.982700	3.493100	-10.418000	25.874288	0.000291	20.929866
1492.369648	-3.007300	3.492100	-10.501000	25.887702	0.000288	20.910153
1493.369635	-3.003800	3.493400	-10.493000	25.936043	0.000291	20.931213
1494.372707	-3.021300	3.491500	-10.548000	25.936763	0.000290	20.926722
1495.370139	-2.990900	3.491700	-10.443000	25.940713	0.000290	20.943964
1496.375755	-2.999000	3.491300	-10.469000	25.896571	0.000290	20.917165
1497.372819	-3.016700	3.491800	-10.533000	25.929882	0.000290	20.914595
1498.372379	-2.992700	3.491700	-10.448000	25.941508	0.000287	20.933858
1499.373162	-3.007600	3.490700	-10.497000	25.990293	0.000286	20.919336
1500.372417	-2.995900	3.490700	-10.457000	26.007010	0.000287	20.933758
1501.372285	-3.004000	3.488700	-10.479000	26.028123	0.000285	20.928419
1502.375738	-2.996200	3.490900	-10.459000	26.036220	0.000287	20.943190
1503.374222	-2.990500	3.489800	-10.435000	25.978122	0.000288	20.922280
1504.374020	-3.002100	3.489000	-10.473000	25.971167	0.000287	20.916242
1505.373289	-2.987700	3.488800	-10.422000	25.965926	0.000287	20.922355
1506.371379	-2.994100	3.488200	-10.443000	25.998714	0.000285	20.954344
1507.375470	-2.978000	3.487900	-10.386000	25.960983	0.000286	20.914071
1508.373789	-2.984200	3.488600	-10.410000	25.948066	0.000285	20.948505
1509.373743	-2.975000	3.487700	-10.375000	25.943843	0.000283	20.925774
1510.373670	-3.013600	3.486700	-10.507000	25.906830	0.000284	20.928893
1511.372873	-2.991500	3.486900	-10.430000	25.923548	0.000285	20.930989
1512.375840	-2.984200	3.486600	-10.403000	25.884125	0.000283	20.928369
1513.375416	-2.993000	3.485600	-10.431000	25.881417	0.000284	20.952672
1514.373317	-3.017300	3.484700	-10.513000	25.935347	0.000283	20.938574
1515.373633	-2.993400	3.485500	-10.432000	25.971813	0.000284	20.940595
1516.376465	-3.016200	3.483700	-10.507000	25.987859	0.000282	20.937277
1517.374758	-2.982800	3.485700	-10.396000	25.971192	0.000282	20.933808
1518.377398	-3.019300	3.483900	-10.518000	25.974669	0.000282	20.925449
1519.375792	-3.013000	3.483800	-10.496000	25.979936	0.000283	20.919361
1520.376539	-2.981900	3.483100	-10.386000	26.014760	0.000282	20.932062
1521.378314	-2.994700	3.482500	-10.428000	26.007780	0.000280	20.925524
1522.383187	-2.994300	3.483100	-10.429000	25.981326	0.000281	20.934981
1523.382089	-3.012000	3.481700	-10.486000	26.007755	0.000280	20.918862
1524.380659	-3.009100	3.483000	-10.480000	26.032519	0.000282	20.937102
1525.391541	-2.990100	3.482300	-10.411000	26.032892	0.000281	20.911401
1526.386066	-2.975000	3.482500	-10.360000	25.968236	0.000278	20.910927
1527.380538	-3.000500	3.481800	-10.447000	25.943669	0.000279	20.932711
1528.381372	-2.992900	3.481900	-10.420000	25.922406	0.000279	20.930315
1529.384634	-2.969700	3.481100	-10.336000	25.923325	0.000278	20.907059
1530.382321	-2.988700	3.480000	-10.399000	25.881219	0.000278	20.908382
1531.381709	-2.990100	3.481200	-10.408000	25.871928	0.000276	20.901894
1532.383240	-2.991700	3.478900	-10.406000	25.886634	0.000277	20.915718
1533.382054	-3.010200	3.478600	-10.470000	25.918605	0.000278	20.924601
1534.387417	-3.000700	3.479900	-10.441000	25.894286	0.000275	20.912499
1535.382105	-3.003000	3.477800	-10.442000	25.920742	0.000275	20.899723
1536.382991	-2.986600	3.478100	-10.387000	25.979390	0.000277	20.933036
1537.382029	-3.001600	3.477400	-10.436000	25.982991	0.000277	20.908681
1538.381393	-3.005700	3.477200	-10.451000	25.992380	0.000275	20.897253
1539.384856	-3.007900	3.477300	-10.459000	25.978818	0.000275	20.927246
1540.383089	-2.993400	3.478500	-10.412000	25.979365	0.000276	20.915943
1541.381148	-2.998000	3.478500	-10.427000	25.924319	0.000276	20.899524
1542.383249	-3.012100	3.476800	-10.472000	25.897590	0.000274	20.898276
1543.385277	-2.993200	3.475300	-10.402000	25.873717	0.000274	20.904165
1544.392628	-2.995500	3.475900	-10.411000	25.840478	0.000272	20.908232
1545.386761	-2.955600	3.476900	-10.275000	25.834491	0.000274	20.903641
1546.386439	-2.993700	3.474200	-10.398000	25.816679	0.000272	20.910878
1547.384037	-2.994600	3.474200	-10.403000	25.830417	0.000274	20.915669
1548.386442	-3.012500	3.473800	-10.463000	25.874612	0.000272	20.896530
1549.383830	-2.986000	3.475100	-10.376000	25.884673	0.000272	20.899524
1550.387919	-3.016600	3.473800	-10.478000	25.925164	0.000272	20.900847
1551.387134	-3.004300	3.474200	-10.437000	25.879431	0.000271	20.890940
1552.386127	-2.984000	3.473600	-10.364000	25.859980	0.000270	20.890366
1553.387190	-2.976700	3.472300	-10.336000	25.862911	0.000271	20.911801
1554.388616	-3.019100	3.472900	-10.485000	25.882313	0.000270	20.905688
1555.390509	-3.000600	3.472100	-10.417000	25.924444	0.000269	20.893012
1556.389603	-3.006200	3.471700	-10.435000	25.943025	0.000271	20.889868
1557.390098	-3.025900	3.470100	-10.499000	25.944863	0.000270	20.886025
1558.389103	-3.009800	3.472400	-10.451000	25.908844	0.000269	20.889194
1559.396490	-2.998100	3.472100	-10.408000	25.913166	0.000271	20.916293
1560.390590	-3.013100	3.470800	-10.456000	25.911278	0.000271	20.881683
1561.390465	-2.998800	3.471300	-10.409000	25.932219	0.000269	20.902245
1562.391173	-2.977800	3.470000	-10.332000	25.953756	0.000269	20.907286
1563.390839	-2.991600	3.468700	-10.376000	25.953856	0.000267	20.897903
1564.392971	-3.016700	3.468500	-10.462000	25.946627	0.000267	20.890168
1565.395284	-2.999100	3.468800	-10.402000	25.910211	0.000267	20.885826
1566.397325	-2.999400	3.468900	-10.403000	25.908198	0.000266	20.889968
1567.392963	-2.970600	3.469300	-10.305000	25.931723	0.000269	20.903168
1568.395257	-3.013100	3.467700	-10.448000	25.959942	0.000266	20.889793
1569.399488	-3.020600	3.467800	-10.474000	25.946428	0.000265	20.897080
1570.396072	-3.000500	3.467700	-10.404000	25.943969	0.000265	20.861421
1571.394805	-2.998800	3.467300	-10.396000	25.924022	0.000265	20.887847
1572.396686	-3.034800	3.466500	-10.520000	25.952489	0.000264	20.885152
1573.396245	-3.009400	3.466400	-10.431000	26.007037	0.000264	20.874996
1574.395582	-2.976100	3.466600	-10.316000	25.983266	0.000265	20.878614
1575.401378	-3.003000	3.464600	-10.403000	25.984210	0.000263	20.884778
1576.399625	-3.018200	3.464300	-10.455000	25.994394	0.000264	20.877940
1577.401564	-2.997200	3.465000	-10.383000	25.986520	0.000262	20.881409
1578.396379	-2.991400	3.464200	-10.362000	25.998443	0.000264	20.877741
1579.399752	-2.990800	3.464800	-10.362000	26.005199	0.000264	20.887373
1580.396727	-2.995100	3.464400	-10.375000	26.001349	0.000262	20.880186
1581.398555	-2.985400	3.464500	-10.342000	26.022561	0.000263	20.866886
1582.397655	-2.989300	3.464800	-10.356000	26.008850	0.000265	20.845525
1583.395818	-3.015300	3.463000	-10.441000	25.983415	0.000262	20.890143
1584.397489	-2.991600	3.462900	-10.358000	26.014041	0.000261	20.869706
1585.395525	-2.985600	3.463100	-10.339000	26.059346	0.000262	20.878240
1586.400997	-2.999100	3.462200	-10.383000	26.076310	0.000260	20.867784
1587.399978	-2.997100	3.462000	-10.375000	26.041140	0.000260	20.866112
1588.402306	-2.983100	3.462300	-10.328000	26.005770	0.000260	20.859499
1589.399012	-3.018500	3.462000	-10.448000	25.986719	0.000261	20.886350
1590.398822	-2.991100	3.461500	-10.353000	25.970474	0.000260	20.867660
1591.398912	-3.006300	3.460400	-10.402000	26.017469	0.000259	20.839961
1592.398978	-3.001500	3.460300	-10.385000	26.021294	0.000258	20.868932
1593.401163	-2.985300	3.460600	-10.330000	26.049486	0.000257	20.850791
1594.400341	-3.002900	3.459500	-10.387000	26.008379	0.000258	20.863068
1595.401104	-3.024300	3.458900	-10.460000	25.953136	0.000258	20.854983
1596.404510	-2.987000	3.460500	-10.336000	25.979714	0.000258	20.870779
1597.403327	-3.007600	3.458600	-10.400000	26.006615	0.000259	20.867460
1598.401742	-3.013900	3.458700	-10.423000	26.022189	0.000258	20.869831
1599.402966	-2.993900	3.457700	-10.351000	26.038334	0.000257	20.865190
1600.401246	-2.983600	3.459200	-10.319000	26.002989	0.000258	20.862869
1601.401509	-2.991700	3.457000	-10.341000	26.014017	0.000256	20.863044
1602.405157	-2.979900	3.458800	-10.306000	25.993476	0.000255	20.868484
1603.402221	-2.966500	3.458400	-10.258000	25.931624	0.000253	20.853761
1604.406228	-2.992500	3.457700	-10.346000	25.950528	0.000255	20.864691
1605.402280	-3.000700	3.456900	-10.372000	25.923054	0.000255	20.864117
1606.402736	-2.999700	3.456000	-10.366000	25.973654	0.000256	20.861372
1607.402522	-3.031500	3.455400	-10.473000	25.981404	0.000256	20.866313
1608.405252	-3.022600	3.454900	-10.442000	25.969779	0.000253	20.866962
1609.405004	-3.001100	3.454700	-10.367000	26.016750	0.000255	20.874323
1610.405889	-3.013300	3.453300	-10.404000	26.056044	0.000254	20.862121
1611.403145	-3.000100	3.454900	-10.364000	26.094914	0.000251	20.854709
1612.404084	-3.003100	3.454000	-10.372000	26.085054	0.000254	20.870880
1613.408282	-2.987500	3.453800	-10.317000	26.083936	0.000254	20.890618
1614.405432	-3.005400	3.452900	-10.376000	26.121166	0.000253	20.858802
1615.405146	-3.012100	3.453200	-10.400000	26.087886	0.000253	20.878940
1616.402366	-3.012700	3.452600	-10.401000	26.068662	0.000252	20.847298
1617.403522	-3.023600	3.452500	-10.437000	26.028499	0.000251	20.857679
1618.404098	-2.998600	3.454000	-10.356000	25.983714	0.000250	20.843979
1619.404207	-2.999500	3.451800	-10.353000	25.999264	0.000251	20.851540
1620.406706	-2.989100	3.451100	-10.315000	25.976262	0.000251	20.845027
1621.403069	-2.996200	3.451200	-10.339000	26.003933	0.000250	20.852913
1622.401495	-2.999400	3.451000	-10.350000	26.030287	0.000252	20.849519
1623.403093	-3.007700	3.450700	-10.377000	26.036497	0.000249	20.869507
1624.405066	-3.010700	3.449700	-10.386000	26.066203	0.000251	20.848147
1625.404189	-2.986700	3.450300	-10.304000	26.098665	0.000248	20.868909
1626.407175	-2.996600	3.448900	-10.334000	26.085973	0.000249	20.854734
1627.405345	-3.006200	3.447700	-10.363000	26.085601	0.000249	20.835869
1628.403903	-2.984900	3.450000	-10.297000	26.004703	0.000249	20.849894
1629.408885	-2.986300	3.449700	-10.301000	25.960738	0.000249	20.841758
1630.407842	-2.994000	3.447000	-10.319000	25.984807	0.000247	20.849819
1631.411412	-2.994800	3.447400	-10.324000	25.995538	0.000247	20.850168
1632.407944	-2.991900	3.447000	-10.312000	25.943499	0.000248	20.848147
1633.406638	-2.995200	3.447300	-10.325000	25.929762	0.000247	20.838614
1634.412578	-3.013100	3.447400	-10.387000	25.910659	0.000244	20.858777
1635.406720	-3.012500	3.444700	-10.375000	25.989750	0.000245	20.835819
1636.410015	-2.979800	3.447300	-10.271000	25.997873	0.000248	20.838764
1637.408445	-2.981200	3.447000	-10.275000	26.022612	0.000245	20.843231
1638.406940	-2.994800	3.446200	-10.320000	26.082894	0.000245	20.830779
1639.410699	-3.000100	3.444300	-10.332000	26.104303	0.000245	20.835694
1640.412881	-2.998100	3.445500	-10.329000	26.139769	0.000244	20.844778
1641.407419	-3.005600	3.443600	-10.349000	26.159364	0.000246	20.836019
1642.409860	-3.000500	3.444100	-10.332000	26.129785	0.000243	20.841384
1643.409054	-2.993400	3.444300	-10.310000	26.131623	0.000244	20.839912
1644.409600	-3.031100	3.443000	-10.435000	26.077032	0.000243	20.831053
1645.409209	-3.007700	3.443500	-10.356000	26.045563	0.000243	20.830255
1646.407357	-3.004200	3.442600	-10.341000	26.029369	0.000244	20.831053
1647.414129	-2.995300	3.443900	-10.314000	26.015086	0.000243	20.830454
1648.411030	-2.985700	3.442300	-10.276000	25.969531	0.000242	20.842058
1649.410619	-3.010800	3.441900	-10.362000	25.971146	0.000243	20.829930
1650.412341	-2.990700	3.442800	-10.295000	25.951374	0.000241	20.839463
1651.411736	-2.983600	3.443300	-10.273000	25.962924	0.000241	20.827834
1652.410524	-3.012300	3.440800	-10.363000	26.008430	0.000242	20.837517
1653.413184	-2.981300	3.441800	-10.260000	26.059845	0.000240	20.843181
1654.410756	-3.002900	3.439300	-10.328000	26.070525	0.000241	20.847274
1655.418550	-3.020600	3.439200	-10.387000	26.073356	0.000240	20.836369
1656.412186	-2.981700	3.441800	-10.261000	26.026488	0.000240	20.844754
1657.412960	-2.996800	3.440100	-10.309000	26.003760	0.000241	20.819075
1658.416119	-2.991900	3.439800	-10.291000	26.022066	0.000239	20.855484
1659.412428	-3.007600	3.438600	-10.341000	26.054356	0.000240	20.826287
1660.414759	-2.994800	3.438300	-10.295000	26.045712	0.000240	20.846051
1661.414537	-3.017300	3.438000	-10.372000	26.068215	0.000237	20.824565
1662.415780	-2.996400	3.438000	-10.300000	26.051351	0.000237	20.843182
1663.418277	-3.013300	3.436600	-10.355000	26.051972	0.000238	20.823892
1664.418818	-2.992300	3.437900	-10.286000	26.088011	0.000237	20.830704
1665.418812	-3.027000	3.435500	-10.399000	26.111233	0.000238	20.845028
1666.415955	-2.994600	3.438000	-10.295000	26.077579	0.000235	20.828758
1667.420400	-3.012800	3.437000	-10.354000	26.051575	0.000235	20.845303
1668.418819	-2.986200	3.436000	-10.259000	26.067843	0.000235	20.833674
1669.420298	-2.997100	3.437100	-10.301000	26.044123	0.000236	20.834498
1670.419062	-3.003600	3.434500	-10.315000	26.030636	0.000233	20.825215
1671.417457	-3.006700	3.435300	-10.328000	25.993179	0.000235	20.821721
1672.421387	-2.995700	3.435400	-10.290000	25.993974	0.000234	20.827261
1673.420470	-3.009500	3.433100	-10.331000	26.017273	0.000235	20.838341
1674.424137	-2.989300	3.435400	-10.268000	26.005226	0.000232	20.826712
1675.421698	-2.996100	3.433000	-10.285000	26.042236	0.000233	20.820748
1676.421293	-2.985700	3.433500	-10.249000	26.029693	0.000232	20.807672
1677.420820	-2.968000	3.434800	-10.194000	25.984039	0.000234	20.822495
1678.423513	-3.009600	3.433300	-10.331000	26.004084	0.000232	20.832677
1679.425211	-3.001600	3.432800	-10.303000	26.045614	0.000234	20.823668
1680.426286	-2.994100	3.433100	-10.278000	26.075966	0.000233	20.818128
1681.422205	-3.006400	3.432100	-10.317000	26.040995	0.000232	20.827561
1682.421398	-3.024200	3.430200	-10.372000	26.034710	0.000234	20.819351
1683.424328	-2.998700	3.431200	-10.288000	26.094097	0.000228	20.807897
1684.423611	-3.013500	3.430900	-10.337000	26.038337	0.000231	20.822046
1685.426442	-3.001600	3.429800	-10.294000	26.088360	0.000231	20.814934
1686.423684	-3.009300	3.429200	-10.318000	26.120026	0.000231	20.820674
1687.423168	-2.993600	3.428900	-10.264000	26.121989	0.000232	20.823594
1688.424867	-3.000400	3.429000	-10.288000	26.159963	0.000231	20.807697
1689.425855	-3.000000	3.429100	-10.287000	26.105125	0.000229	20.816607
1690.425457	-3.002600	3.429200	-10.295000	26.037741	0.000228	20.809120
1691.425357	-2.993400	3.429300	-10.264000	26.057140	0.000227	20.815334
1692.422447	-3.010900	3.428500	-10.322000	26.106665	0.000227	20.824792
1693.424105	-3.004100	3.427100	-10.294000	26.102965	0.000229	20.815858
1694.427868	-2.996800	3.426600	-10.268000	26.142280	0.000228	20.812689
1695.425788	-3.018100	3.427600	-10.344000	26.187083	0.000227	20.809345
1696.425727	-3.006000	3.425800	-10.297000	26.125169	0.000226	20.804978
1697.423222	-2.995600	3.427400	-10.265000	26.094893	0.000228	20.812964
1698.423222	-3.012900	3.424500	-10.317000	26.093452	0.000225	20.820525
1699.424243	-2.987500	3.427000	-10.237000	26.098271	0.000226	20.808772
1700.426957	-3.003300	3.424900	-10.284000	26.054359	0.000226	20.815859
1701.428111	-3.010400	3.425200	-10.310000	26.047081	0.000222	20.836047
1702.425181	-2.999000	3.425700	-10.273000	26.025696	0.000226	20.796070
1703.425563	-3.020000	3.423800	-10.339000	25.992462	0.000225	20.796344
1704.426471	-3.004600	3.424900	-10.290000	26.038239	0.000223	20.808672
1705.426901	-3.006400	3.424400	-10.294000	26.103711	0.000225	20.792900
1706.427438	-3.013700	3.424100	-10.318000	26.076390	0.000223	20.807649
1707.427151	-3.014000	3.422200	-10.314000	26.117396	0.000223	20.794323
1708.427724	-3.012300	3.422100	-10.307000	26.059277	0.000223	20.799464
1709.426950	-3.000400	3.423300	-10.270000	26.115458	0.000224	20.808972
1710.426653	-2.997800	3.421900	-10.258000	26.117495	0.000222	20.817656
1711.429139	-2.973800	3.423900	-10.181000	26.078377	0.000222	20.788783
1712.432854	-2.996700	3.422700	-10.256000	26.041791	0.000222	20.806077
1713.428270	-2.990700	3.421500	-10.232000	26.005180	0.000223	20.806751
1714.429365	-3.004400	3.421700	-10.279000	25.998299	0.000220	20.802209
1715.430709	-3.020800	3.419300	-10.327000	25.977881	0.000219	20.796394
1716.430295	-3.000100	3.421200	-10.263000	25.981533	0.000221	20.804330
1717.431514	-3.000000	3.420100	-10.259000	26.035085	0.000221	20.803133
1718.429796	-3.005400	3.420100	-10.278000	26.092087	0.000222	20.785963
1719.429010	-2.994800	3.419700	-10.241000	26.138233	0.000219	20.802933
1720.428770	-2.990500	3.419500	-10.225000	26.134359	0.000220	20.781970
1721.430390	-3.003800	3.418300	-10.266000	26.054608	0.000220	20.812316
1722.429867	-3.007800	3.417900	-10.279000	26.003962	0.000217	20.812166
1723.431401	-2.997800	3.418400	-10.247000	25.983868	0.000217	20.783917
1724.428505	-2.999600	3.418100	-10.252000	25.965486	0.000217	20.802434
1725.429653	-3.033400	3.416900	-10.363000	25.932722	0.000215	20.793225
1726.433045	-2.995900	3.418300	-10.240000	25.976068	0.000218	20.799314
1727.430170	-2.993100	3.417800	-10.228000	26.012979	0.000216	20.788035
1728.431179	-3.008800	3.415700	-10.276000	26.015960	0.000215	20.780597
1729.431315	-3.015600	3.415800	-10.300000	26.022418	0.000218	20.791828
1730.432480	-3.011200	3.415500	-10.284000	26.027957	0.000214	20.795971
1731.433286	-2.974400	3.416000	-10.159000	26.057340	0.000217	20.796095
1732.430601	-3.010700	3.414200	-10.279000	26.109722	0.000216	20.786612
1733.431425	-3.023700	3.413500	-10.320000	26.091566	0.000215	20.793974
1734.433208	-3.012000	3.414300	-10.283000	26.089604	0.000213	20.795796
1735.431657	-3.008600	3.414600	-10.273000	26.038364	0.000215	20.776081
1736.433236	-2.976800	3.414100	-10.162000	26.066480	0.000215	20.814762
1737.434496	-2.995800	3.413900	-10.227000	26.038513	0.000213	20.781447
1738.433625	-2.983800	3.415600	-10.190000	26.060048	0.000215	20.791704
1739.444434	-3.009400	3.412300	-10.268000	26.042885	0.000213	20.788684
1740.435541	-3.022600	3.412600	-10.313000	26.055652	0.000213	20.785390
1741.433910	-3.000600	3.414100	-10.243000	26.141736	0.000212	20.790805
1742.433021	-3.006400	3.412000	-10.256000	26.170942	0.000212	20.790281
1743.434505	-2.991600	3.412300	-10.208000	26.211770	0.000212	20.787686
1744.436512	-2.989100	3.412000	-10.198000	26.215744	0.000212	20.785515
1745.438111	-2.999500	3.411800	-10.232000	26.205016	0.000212	20.793700
1746.433493	-3.019500	3.410500	-10.297000	26.193840	0.000212	20.799540
1747.436476	-2.988800	3.410300	-10.192000	26.237375	0.000210	20.794923
1748.438621	-3.002800	3.410300	-10.239000	26.191531	0.000212	20.766873
1749.435976	-2.997400	3.409900	-10.220000	26.180207	0.000211	20.808599
1750.437347	-3.012200	3.408400	-10.265000	26.147126	0.000211	20.771565
1751.435905	-2.999100	3.409900	-10.226000	26.130834	0.000211	20.782221
1752.436544	-3.012400	3.408000	-10.265000	26.185149	0.000210	20.791754
1753.438312	-3.011500	3.408800	-10.265000	26.198137	0.000210	20.795323
1754.436924	-3.003700	3.408100	-10.236000	26.174669	0.000207	20.769369
1755.438069	-2.992900	3.408200	-10.199000	26.194810	0.000208	20.784393
1756.436962	-2.999700	3.407600	-10.221000	26.196673	0.000207	20.791480
1757.436988	-3.000000	3.407900	-10.223000	26.165704	0.000207	20.791655
1758.437354	-3.016900	3.406600	-10.277000	26.201317	0.000208	20.802786
1759.437596	-2.978500	3.408100	-10.149000	26.216839	0.000208	20.773812
1760.440325	-3.008200	3.406500	-10.246000	26.180754	0.000207	20.791606
1761.440026	-2.983900	3.407000	-10.165000	26.175092	0.000207	20.783545
1762.439569	-3.017900	3.404600	-10.274000	26.092388	0.000207	20.805232
1763.439589	-2.994600	3.406300	-10.199000	26.095046	0.000205	20.785143
1764.442041	-2.997800	3.404100	-10.203000	26.113351	0.000205	20.774612
1765.440450	-2.980100	3.405300	-10.147000	26.118144	0.000205	20.797446
1766.444592	-3.014600	3.403600	-10.259000	26.119560	0.000206	20.784644
1767.441321	-3.010700	3.404200	-10.249000	26.099095	0.000207	20.781150
1768.438775	-3.012100	3.403100	-10.249000	26.149413	0.000207	20.782872
1769.440473	-2.989900	3.403700	-10.175000	26.128452	0.000204	20.777457
1770.440462	-3.016000	3.403500	-10.265000	26.128775	0.000204	20.776359
1771.443427	-3.008400	3.403600	-10.239000	26.149761	0.000203	20.782748
1772.442902	-2.991600	3.402700	-10.178000	26.205466	0.000202	20.791782
1773.441237	-3.010900	3.403500	-10.247000	26.226575	0.000203	20.776484
1774.441090	-3.025100	3.402400	-10.291000	26.221857	0.000204	20.781226
1775.447517	-2.983800	3.401100	-10.146000	26.226054	0.000200	20.777383
1776.441360	-2.996500	3.399700	-10.186000	26.225135	0.000203	20.775511
1777.443516	-2.984400	3.401900	-10.151000	26.181552	0.000203	20.777234
1778.443906	-2.995700	3.399400	-10.182000	26.171866	0.000203	20.777933
1779.441843	-3.001500	3.398900	-10.201000	26.174921	0.000202	20.809452
1780.441850	-2.997100	3.399000	-10.186000	26.176038	0.000200	20.789712
1781.443213	-2.997700	3.398400	-10.187000	26.177951	0.000200	20.786892
1782.449163	-3.025700	3.399100	-10.284000	26.192901	0.000199	20.776785
1783.443485	-3.023500	3.399000	-10.276000	26.203730	0.000200	20.805210
1784.440377	-3.006400	3.399100	-10.217000	26.170873	0.000199	20.807281
1785.441364	-3.008800	3.397800	-10.223000	26.191064	0.000200	20.799596
1786.440966	-3.012200	3.397200	-10.232000	26.187339	0.000201	20.781153
1787.440278	-2.988400	3.398000	-10.154000	26.252330	0.000199	20.803788
1788.445179	-3.005200	3.397100	-10.208000	26.298419	0.000196	20.796052
1789.443387	-2.990000	3.397200	-10.157000	26.251485	0.000197	20.793457
1790.441193	-2.981900	3.397200	-10.129000	26.223374	0.000197	20.771371
1791.449671	-2.984100	3.396800	-10.136000	26.190916	0.000196	20.789963
1792.446030	-2.995000	3.395700	-10.170000	26.195510	0.000198	20.794580
1793.448366	-2.993400	3.396500	-10.167000	26.207381	0.000196	20.791336
1794.442617	-3.010200	3.396000	-10.221000	26.199857	0.000197	20.816965
1795.443241	-3.018100	3.394100	-10.242000	26.169583	0.000197	20.784174
1796.445879	-3.007800	3.394400	-10.208000	26.221487	0.000198	20.803140
1797.444825	-3.004900	3.394600	-10.199000	26.208276	0.000196	20.792235
1798.444733	-2.995700	3.393800	-10.166000	26.140501	0.000196	20.802841
1799.450013	-2.999700	3.393900	-10.180000	26.098627	0.000196	20.791586
1800.445495	-3.022900	3.392700	-10.255000	26.111394	0.000199	20.807259
1801.444869	-3.007800	3.393100	-10.205000	26.158607	0.000196	20.813921
1802.458600	-3.017300	3.391600	-10.232000	26.109829	0.000195	20.806635
1803.444348	-3.002800	3.392400	-10.187000	26.132157	0.000194	20.820061
1804.447772	-2.999700	3.392400	-10.175000	26.173285	0.000193	20.802118
1805.446776	-3.004600	3.391400	-10.189000	26.161637	0.000192	20.785672
1806.446691	-2.992900	3.391600	-10.150000	26.177383	0.000191	20.806236
1807.451220	-3.008800	3.390600	-10.200000	26.254418	0.000194	20.812999
1808.447305	-3.001800	3.390100	-10.176000	26.251438	0.000194	20.783452
1809.451528	-3.022400	3.390100	-10.245000	26.230876	0.000191	20.802618
1810.448495	-2.998700	3.389100	-10.161000	26.162109	0.000191	20.803691
1811.447010	-2.972800	3.391700	-10.082000	26.102379	0.000190	20.797727
1812.449499	-2.978900	3.390300	-10.098000	26.124285	0.000190	20.825901
1813.446574	-3.018300	3.387300	-10.223000	26.163078	0.000191	20.810354
1814.448676	-3.004000	3.389300	-10.180000	26.180215	0.000189	20.807185
1815.455350	-3.005500	3.387200	-10.180000	26.149991	0.000189	20.807635
1816.449874	-2.993200	3.388000	-10.141000	26.126943	0.000192	20.816718
1817.451262	-3.006500	3.388000	-10.185000	26.115593	0.000191	20.833288
1818.452927	-3.014800	3.388100	-10.214000	26.092743	0.000190	20.816019
1819.452270	-2.992600	3.387400	-10.136000	26.082188	0.000189	20.798776
1820.455304	-3.010300	3.386700	-10.194000	26.141448	0.000187	20.825603
1821.450282	-3.005300	3.386200	-10.176000	26.198543	0.000188	20.812327
1822.452451	-2.981200	3.387700	-10.099000	26.177509	0.000190	20.812052
1823.452874	-3.000300	3.387100	-10.162000	26.198643	0.000190	20.828548
1824.455914	-2.993600	3.386900	-10.138000	26.168022	0.000187	20.801571
1825.456328	-2.981800	3.385500	-10.094000	26.171921	0.000186	20.811653
1826.455199	-3.011800	3.386900	-10.200000	26.151780	0.000185	20.817493
1827.453998	-2.980400	3.384800	-10.087000	26.197923	0.000187	20.819290
1828.459489	-2.982400	3.385100	-10.094000	26.249504	0.000185	20.815647
1829.453569	-2.986300	3.384400	-10.106000	26.225589	0.000189	20.822908
1830.454727	-2.991800	3.384500	-10.124000	26.173859	0.000188	20.830670
1831.457381	-2.984400	3.385100	-10.102000	26.237758	0.000186	20.814749
1832.454776	-2.987700	3.384400	-10.110000	26.287350	0.000186	20.822859
1833.457996	-2.990300	3.383900	-10.118000	26.273518	0.000186	20.826029
1834.459063	-2.994400	3.382000	-10.127000	26.275555	0.000186	20.814325
1835.459998	-2.967500	3.383700	-10.040000	26.268751	0.000183	20.808436
1836.459163	-2.986400	3.381600	-10.098000	26.245134	0.000184	20.815998
1837.456083	-3.010900	3.381100	-10.179000	26.255267	0.000184	20.828550
1838.461272	-3.005000	3.381400	-10.160000	26.254448	0.000184	20.819193
1839.457702	-2.991700	3.382500	-10.118000	26.286681	0.000181	20.822187
1840.457955	-3.006600	3.379800	-10.161000	26.274911	0.000181	20.821739
1841.457597	-3.020900	3.381100	-10.213000	26.258795	0.000183	20.842526
1842.460138	-2.996000	3.381000	-10.129000	26.243299	0.000180	20.815101
1843.458400	-2.991800	3.380300	-10.112000	26.242305	0.000182	20.818370
1844.463277	-3.000700	3.379400	-10.139000	26.240145	0.000181	20.822837
1845.457619	-2.999400	3.380400	-10.138000	26.236271	0.000180	20.834117
1846.457173	-2.989000	3.380500	-10.104000	26.198251	0.000181	20.836688
1847.461479	-2.995800	3.378100	-10.119000	26.229517	0.000179	20.838709
1848.459586	-3.011800	3.379600	-10.177000	26.298081	0.000181	20.811833
1849.460147	-3.008600	3.377700	-10.161000	26.335056	0.000178	20.828604
1850.461993	-3.002200	3.379300	-10.144000	26.286460	0.000180	20.841879
1851.459978	-2.997600	3.377900	-10.125000	26.229046	0.000180	20.824012
1852.460886	-2.990200	3.378300	-10.099000	26.222664	0.000178	20.844151
1853.458941	-2.996800	3.377800	-10.122000	26.234957	0.000177	20.840383
1854.459429	-2.995100	3.376300	-10.112000	26.262795	0.000180	20.829952
1855.459953	-2.997200	3.375400	-10.116000	26.259989	0.000177	20.835667
1856.463982	-3.012500	3.375000	-10.166000	26.253335	0.000178	20.834669
1857.464985	-2.992600	3.376500	-10.104000	26.234113	0.000177	20.826733
1858.459995	-3.012200	3.376700	-10.170000	26.222864	0.000176	20.839610
1859.460722	-2.996100	3.374900	-10.110000	26.247673	0.000177	20.835618
1860.460033	-3.009900	3.375600	-10.159000	26.279534	0.000177	20.842031
1861.464190	-3.027200	3.372900	-10.209000	26.257582	0.000177	20.859325
1862.464076	-3.003800	3.375000	-10.137000	26.248444	0.000174	20.838763
1863.463172	-3.037900	3.373700	-10.248000	26.242037	0.000177	20.836592
1864.459630	-3.013500	3.372600	-10.161000	26.284253	0.000175	20.854359
1865.459902	-3.015300	3.372000	-10.167000	26.297215	0.000175	20.833722
1866.461205	-3.011700	3.372300	-10.156000	26.340969	0.000176	20.873898
1867.464941	-3.020100	3.371900	-10.183000	26.373348	0.000175	20.831052
1868.463409	-3.008700	3.371200	-10.142000	26.383058	0.000173	20.873051
1869.468320	-2.991500	3.371300	-10.084000	26.348940	0.000175	20.856781
1870.461540	-2.992100	3.371800	-10.088000	26.370766	0.000177	20.832250
1871.461431	-3.035400	3.369700	-10.227000	26.368184	0.000175	20.849569
1872.468225	-3.013200	3.369800	-10.153000	26.383430	0.000174	20.868210
1873.464917	-2.987800	3.371300	-10.072000	26.354850	0.000172	20.857979
1874.469822	-3.003500	3.370300	-10.121000	26.372902	0.000174	20.851940
1875.463112	-3.014900	3.369600	-10.157000	26.405157	0.000172	20.864917
1876.464389	-2.987200	3.371000	-10.069000	26.367862	0.000172	20.844978
1877.464494	-3.005900	3.369300	-10.127000	26.381941	0.000171	20.845852
1878.462972	-3.007500	3.367600	-10.127000	26.386982	0.000171	20.853763
1879.465217	-2.994700	3.369200	-10.089000	26.405356	0.000170	20.871280
1880.462294	-3.004000	3.368000	-10.117000	26.400887	0.000171	20.847350
1881.465121	-3.002100	3.367200	-10.108000	26.398701	0.000171	20.861748
1882.462957	-2.986300	3.367600	-10.056000	26.414121	0.000170	20.873926
1883.462811	-3.013100	3.367800	-10.146000	26.441980	0.000168	20.850245
1884.462247	-3.020200	3.366600	-10.167000	26.429068	0.000170	20.861449
1885.465342	-3.011400	3.366900	-10.139000	26.392272	0.000170	20.862398
1886.463419	-3.017100	3.367200	-10.158000	26.396022	0.000168	20.884183
1887.462717	-2.972200	3.366800	-10.006000	26.353611	0.000167	20.860526
1888.467437	-3.013200	3.365900	-10.141000	26.366524	0.000171	20.862598
1889.464056	-3.002500	3.364900	-10.102000	26.409355	0.000167	20.859180
1890.465708	-2.999900	3.364900	-10.094000	26.400044	0.000166	20.868787
1891.466334	-2.994100	3.365100	-10.075000	26.418393	0.000167	20.877271
1892.463553	-2.993000	3.364200	-10.068000	26.388350	0.000165	20.873155
1893.464662	-2.964600	3.363800	-9.970700	26.393266	0.000167	20.892793
1894.465785	-2.987800	3.364300	-10.050000	26.431901	0.000165	20.863822
1895.468428	-3.003500	3.364300	-10.104000	26.396420	0.000166	20.857558
1896.471025	-3.016100	3.363500	-10.143000	26.363942	0.000164	20.887029
1897.468350	-2.996400	3.362500	-10.075000	26.362775	0.000165	20.864520
1898.471143	-2.978200	3.363600	-10.016000	26.353091	0.000165	20.874228
1899.469277	-2.960600	3.363800	-9.957700	26.388128	0.000167	20.887154
1900.467692	-2.964900	3.363200	-9.970900	26.410573	0.000166	20.873205
1901.468275	-2.993900	3.362800	-10.067000	26.406948	0.000163	20.859605
1902.467295	-2.986700	3.362300	-10.041000	26.380380	0.000165	20.882688
1903.467500	-3.018800	3.360600	-10.144000	26.372137	0.000162	20.883412
1904.468261	-3.001600	3.361000	-10.087000	26.371864	0.000160	20.867017
1905.467355	-3.032800	3.360000	-10.189000	26.368040	0.000162	20.872183
1906.470022	-3.010400	3.359900	-10.114000	26.403151	0.000163	20.879969
1907.471300	-3.002900	3.358900	-10.085000	26.466315	0.000161	20.875178
1908.471042	-3.014600	3.359200	-10.127000	26.430364	0.000159	20.882664
1909.469763	-3.020400	3.358600	-10.142000	26.401389	0.000161	20.916127
1910.472629	-3.007100	3.358700	-10.099000	26.402680	0.000161	20.869065
1911.470023	-3.000500	3.357900	-10.074000	26.453505	0.000163	20.904025
1912.471690	-2.994600	3.357800	-10.054000	26.481884	0.000161	20.890826
1913.469042	-3.003700	3.357500	-10.085000	26.504105	0.000163	20.882815
1914.468892	-2.983300	3.358000	-10.017000	26.484765	0.000160	20.886135
1915.468953	-3.000700	3.357500	-10.074000	26.460582	0.000159	20.882691
1916.470160	-3.012800	3.355500	-10.108000	26.493629	0.000159	20.863751
1917.474217	-3.002700	3.356500	-10.078000	26.502492	0.000160	20.900159
1918.469415	-3.000100	3.356200	-10.068000	26.458522	0.000158	20.888206
1919.469440	-3.011300	3.355700	-10.104000	26.473792	0.000159	20.900235
1920.471047	-2.971300	3.358300	-9.977100	26.504803	0.000158	20.882094
1921.472532	-2.993900	3.354800	-10.043000	26.488416	0.000158	20.915406
1922.476026	-3.023100	3.354300	-10.140000	26.503239	0.000158	20.907547
1923.475358	-2.997600	3.353500	-10.051000	26.542912	0.000156	20.878676
1924.472028	-3.011800	3.354200	-10.102000	26.585588	0.000158	20.897391
1925.472535	-2.995400	3.353000	-10.043000	26.560291	0.000156	20.898040
1926.477374	-2.999000	3.354300	-10.059000	26.538295	0.000156	20.900586
1927.473776	-2.989600	3.354300	-10.026000	26.528912	0.000156	20.914860
1928.478099	-3.007800	3.354200	-10.087000	26.491422	0.000156	20.897567
1929.474296	-3.002400	3.352700	-10.065000	26.478562	0.000155	20.887012
1930.474301	-2.987300	3.353500	-10.016000	26.492789	0.000154	20.907000
1931.474546	-3.002800	3.352000	-10.065000	26.423369	0.000154	20.906451
1932.475517	-2.982000	3.352000	-9.994100	26.436826	0.000154	20.910968
1933.476433	-2.985300	3.352400	-10.007000	26.462798	0.000154	20.897719
1934.476639	-3.008500	3.350400	-10.079000	26.501504	0.000154	20.913863
1935.478528	-3.010800	3.350400	-10.086000	26.508034	0.000153	20.897669
1936.478764	-2.985600	3.350700	-10.003000	26.549694	0.000152	20.894501
1937.478934	-2.995300	3.350400	-10.034000	26.581372	0.000154	20.892679
1938.481194	-2.997500	3.349900	-10.040000	26.592370	0.000153	20.907052
1939.487531	-2.993500	3.349900	-10.027000	26.606397	0.000154	20.888912
1940.480149	-2.994500	3.348800	-10.027000	26.529138	0.000154	20.901338
1941.478694	-3.004500	3.347800	-10.058000	26.518512	0.000151	20.910097
1942.483284	-3.019600	3.347700	-10.108000	26.512852	0.000150	20.914364
1943.480020	-2.994700	3.347600	-10.024000	26.483134	0.000153	20.907727
1944.484426	-2.997100	3.348000	-10.033000	26.478839	0.000149	20.920953
1945.479839	-3.017500	3.346700	-10.098000	26.499496	0.000150	20.920379
1946.480206	-3.007100	3.346100	-10.060000	26.535892	0.000148	20.922824
1947.480022	-3.010300	3.345900	-10.072000	26.510296	0.000149	20.907528
1948.480846	-3.023200	3.346400	-10.115000	26.554165	0.000150	20.934552
1949.483377	-3.004500	3.346700	-10.054000	26.553668	0.000148	20.930734
1950.482689	-2.996100	3.347600	-10.029000	26.576832	0.000149	20.926518
1951.478441	-3.004700	3.345500	-10.051000	26.580158	0.000149	20.909949
1952.481352	-2.991000	3.346800	-10.010000	26.551508	0.000148	20.929986
1953.485393	-2.992100	3.346900	-10.013000	26.560248	0.000147	20.920754
1954.481354	-2.987800	3.345700	-9.995900	26.558883	0.000147	20.931708
1955.482492	-3.005000	3.343900	-10.046000	26.576136	0.000148	20.931508
1956.481810	-2.985400	3.344100	-9.982800	26.536588	0.000149	20.931109
1957.481265	-2.968400	3.345300	-9.928800	26.546072	0.000147	20.932108
1958.481222	-2.998400	3.344300	-10.027000	26.553470	0.000145	20.914416
1959.482268	-3.012500	3.344200	-10.073000	26.551038	0.000147	20.948951
1960.486946	-3.027500	3.342800	-10.119000	26.538873	0.000146	20.907330
1961.485358	-3.020100	3.342400	-10.094000	26.567051	0.000146	20.915739
1962.482867	-3.018100	3.342500	-10.087000	26.584279	0.000144	20.929737
1963.484116	-2.997100	3.342300	-10.017000	26.611885	0.000144	20.931883
1964.483152	-2.982000	3.342500	-9.966100	26.613847	0.000145	20.926743
1965.482034	-2.995000	3.342400	-10.010000	26.603644	0.000145	20.933556
1966.496614	-3.012700	3.341100	-10.065000	26.556475	0.000144	20.924548
1967.481549	-3.015400	3.340300	-10.071000	26.607963	0.000143	20.953542
1968.483349	-2.996600	3.340100	-10.008000	26.613052	0.000142	20.934953
1969.484187	-3.017600	3.339500	-10.076000	26.647831	0.000141	20.931509
1970.483188	-3.014200	3.340500	-10.067000	26.638497	0.000142	20.929239
1971.487310	-2.981900	3.341000	-9.961200	26.597587	0.000141	20.947379
1972.483997	-3.011800	3.338200	-10.054000	26.556897	0.000140	20.922127
1973.484358	-3.026300	3.338700	-10.103000	26.617670	0.000141	20.950498
1974.485595	-3.014100	3.338900	-10.062000	26.565387	0.000141	20.944883
1975.489946	-2.995500	3.338500	-9.999200	26.595600	0.000141	20.939220
1976.486123	-3.001500	3.338300	-10.019000	26.608881	0.000142	20.939768
1977.489365	-3.023000	3.337100	-10.086000	26.622013	0.000141	20.973353
1978.485691	-2.998800	3.338800	-10.011000	26.641154	0.000140	20.953243
1979.486590	-2.998700	3.337100	-10.006000	26.699489	0.000138	20.930811
1980.487753	-2.995600	3.337500	-9.995600	26.704776	0.000137	20.957933
1981.486443	-3.005500	3.334800	-10.021000	26.650661	0.000139	20.930561
1982.489939	-2.982800	3.337300	-9.953800	26.616354	0.000139	20.960554
1983.486429	-2.978700	3.337200	-9.939700	26.593341	0.000138	20.966817
1984.487557	-2.997900	3.335200	-9.997300	26.606399	0.000137	20.921628
1985.487830	-2.993900	3.335400	-9.985300	26.623627	0.000138	20.949375
1986.487786	-3.001300	3.335400	-10.010000	26.605505	0.000139	20.954864
1987.489298	-2.989600	3.334500	-9.967800	26.613945	0.000135	20.934902
1988.498327	-3.020600	3.334500	-10.071000	26.700556	0.000139	20.937572
1989.489203	-3.013500	3.333300	-10.044000	26.734637	0.000136	20.939119
1990.495729	-3.002200	3.333800	-10.008000	26.768741	0.000137	20.948276
1991.490012	-3.010700	3.333100	-10.034000	26.768418	0.000136	20.938470
1992.490714	-3.009300	3.333100	-10.029000	26.789914	0.000135	20.919307
1993.491587	-3.014100	3.332300	-10.043000	26.827467	0.000135	20.929562
1994.492261	-2.982100	3.333300	-9.939400	26.765862	0.000134	20.919307
1995.490094	-2.983000	3.332000	-9.938800	26.731808	0.000133	20.923474
1996.493251	-2.984100	3.332300	-9.942600	26.661782	0.000133	20.936524
1997.495047	-2.996000	3.331500	-9.980400	26.609948	0.000132	20.931359
1998.495249	-3.003400	3.330900	-10.004000	26.663965	0.000132	20.951046
1999.491000	-2.990500	3.331400	-9.960600	26.709690	0.000133	20.931583
2000.492030	-3.021000	3.330300	-10.060000	26.722324	0.000130	20.945232
2001.491652	-2.991000	3.330200	-9.958400	26.701349	0.000132	20.924621
2002.491900	-2.985500	3.329800	-9.940100	26.682460	0.000130	20.926019
2003.495862	-3.006400	3.329400	-10.008000	26.707679	0.000128	20.933829
2004.497655	-2.983400	3.329300	-9.931500	26.710534	0.000130	20.907778
2005.494421	-3.004400	3.328500	-9.999600	26.722027	0.000129	20.925021
2006.494907	-2.995000	3.328600	-9.968000	26.691272	0.000129	20.912120
2007.498217	-3.025000	3.327600	-10.065000	26.655998	0.000131	20.917435
2008.495496	-3.014800	3.327500	-10.030000	26.676998	0.000131	20.903461
2009.504801	-2.984100	3.327700	-9.928600	26.705867	0.000131	20.915414
2010.496297	-3.017300	3.326500	-10.036000	26.682360	0.000131	20.895576
2011.495934	-3.004900	3.326300	-9.994700	26.647087	0.000128	20.932657
2012.495257	-3.002400	3.326200	-9.985500	26.637579	0.000128	20.897973
2013.496651	-2.987600	3.326800	-9.938400	26.638001	0.000126	20.883699
2014.499979	-2.992900	3.325400	-9.951500	26.709319	0.000127	20.904660
2015.495348	-2.980100	3.326300	-9.912000	26.722252	0.000126	20.920032
2016.496511	-3.019600	3.323600	-10.035000	26.736971	0.000127	20.909701
2017.496965	-2.994100	3.325200	-9.954700	26.729450	0.000127	20.897873
2018.495733	-2.995000	3.324400	-9.954900	26.704926	0.000125	20.912097
2019.495342	-3.001900	3.323700	-9.976600	26.694599	0.000126	20.900294
2020.499972	-3.040400	3.322400	-10.100000	26.768719	0.000126	20.909852
2021.499662	-3.004000	3.323700	-9.983100	26.781179	0.000126	20.894880
2022.495633	-2.979800	3.323600	-9.902800	26.773708	0.000125	20.895429
2023.498761	-3.001400	3.324600	-9.976900	26.751667	0.000123	20.904088
2024.496040	-3.009200	3.321800	-9.995100	26.681644	0.000123	20.893434
2025.499926	-2.993000	3.322900	-9.944400	26.662455	0.000123	20.908754
2026.499933	-3.010100	3.321300	-9.996600	26.672211	0.000122	20.918087
2027.497411	-2.981600	3.323900	-9.909500	26.762440	0.000123	20.908281
2028.497936	-2.990900	3.320900	-9.932000	26.786417	0.000121	20.907258
2029.498660	-3.004400	3.321100	-9.976800	26.776887	0.000122	20.919011
2030.499403	-2.977000	3.320800	-9.884500	26.785723	0.000122	20.912724
2031.499853	-3.010200	3.318800	-9.989000	26.764600	0.000120	20.885324
2032.500138	-3.006600	3.319500	-9.979500	26.729230	0.000121	20.890540
2033.500726	-2.983500	3.318800	-9.901200	26.787238	0.000121	20.893385
2034.502882	-2.991200	3.318900	-9.926400	26.757030	0.000121	20.881507
2035.499050	-2.983400	3.318000	-9.897100	26.776639	0.000121	20.902643
2036.501233	-2.990200	3.318100	-9.920300	26.847327	0.000120	20.888844
2037.501645	-2.985600	3.318400	-9.907300	26.867456	0.000120	20.884427
2038.502093	-3.003900	3.317300	-9.964000	26.850281	0.000119	20.902718
2039.503229	-3.009100	3.316300	-9.977100	26.843233	0.000119	20.887098
2040.501998	-2.983500	3.318100	-9.898600	26.842613	0.000119	20.897853
2041.504174	-2.985300	3.317300	-9.901100	26.854997	0.000117	20.890866
2042.504568	-3.012000	3.316100	-9.987600	26.838593	0.000119	20.870579
2043.506810	-2.997600	3.316800	-9.941300	26.786991	0.000119	20.891241
2044.501707	-2.984900	3.316000	-9.897500	26.776244	0.000118	20.878065
2045.502522	-3.016400	3.316300	-10.003000	26.722952	0.000115	20.879014
2046.502939	-3.004200	3.316900	-9.962900	26.757008	0.000115	20.903768
2047.508241	-3.015900	3.313400	-9.992300	26.789102	0.000116	20.870605
2048.504560	-2.989100	3.314400	-9.906000	26.846808	0.000116	20.880262
2049.507012	-3.002800	3.314600	-9.951800	26.847753	0.000115	20.876470
2050.503139	-2.997100	3.313800	-9.930100	26.794687	0.000117	20.890918
2051.504225	-2.983500	3.315000	-9.889500	26.781508	0.000116	20.882409
2052.508051	-2.993600	3.313800	-9.919300	26.811467	0.000114	20.884082
2053.506995	-2.999300	3.313400	-9.936900	26.858253	0.000116	20.889398
2054.505673	-3.002100	3.311300	-9.939800	26.888109	0.000114	20.876272
2055.504779	-2.989800	3.312000	-9.901800	26.887464	0.000114	20.875623
2056.503651	-2.997400	3.312200	-9.925800	26.838323	0.000111	20.876472
2057.505419	-3.006100	3.312600	-9.956800	26.887936	0.000116	20.887002
2058.505743	-2.992100	3.311300	-9.906000	26.916650	0.000112	20.873202
2059.505086	-3.022800	3.310500	-10.005000	26.860288	0.000112	20.882435
2060.506470	-3.001200	3.311300	-9.937100	26.850857	0.000110	20.881962
2061.507553	-2.996900	3.310000	-9.919000	26.853066	0.000109	20.877545
2062.507768	-3.011000	3.309400	-9.964000	26.808291	0.000112	20.879467
2063.507506	-2.997700	3.310700	-9.923800	26.809309	0.000111	20.860102
2064.505370	-3.030000	3.309600	-10.027000	26.801242	0.000112	20.864794
2065.505749	-2.978500	3.309600	-9.857000	26.785406	0.000112	20.864045
2066.506949	-3.006500	3.309700	-9.949700	26.857062	0.000111	20.878718
2067.508228	-3.003600	3.308600	-9.937300	26.939682	0.000110	20.876922
2068.513248	-2.983000	3.307800	-9.866500	26.901488	0.000108	20.863646
2069.506547	-3.001300	3.306800	-9.924000	26.892478	0.000108	20.870234
2070.506608	-2.988500	3.306600	-9.880700	26.856740	0.000108	20.864645
2071.507125	-3.017200	3.306500	-9.975200	26.833633	0.000109	20.861800
2072.507238	-2.972700	3.307500	-9.831500	26.845869	0.000108	20.880266
2073.507929	-2.996500	3.305600	-9.904300	26.877687	0.000108	20.864370
2074.510944	-2.991800	3.306600	-9.891000	26.934570	0.000107	20.866092
2075.508373	-3.002500	3.304300	-9.920400	26.946110	0.000104	20.874851
2076.508280	-3.000400	3.305100	-9.915100	26.984129	0.000107	20.846228
2077.509544	-3.005600	3.305600	-9.934400	27.019244	0.000106	20.861151
2078.514702	-2.990700	3.303600	-9.879300	27.027209	0.000106	20.872480
2079.513045	-3.037700	3.302400	-10.031000	26.977503	0.000104	20.877970
2080.511051	-2.985200	3.303300	-9.860300	26.917546	0.000105	20.853715
2081.511245	-2.971200	3.304300	-9.816900	26.953382	0.000104	20.861301
2082.511645	-3.004800	3.302400	-9.922000	26.987082	0.000107	20.872430
2083.512194	-2.995000	3.302200	-9.889600	27.044109	0.000104	20.848700
2084.512784	-3.009300	3.301900	-9.935300	27.034058	0.000105	20.854714
2085.515966	-2.993400	3.302000	-9.883300	27.024107	0.000103	20.863197
2086.512826	-3.003100	3.301900	-9.914300	27.054903	0.000104	20.858607
2087.512493	-3.013100	3.300300	-9.943100	27.029567	0.000101	20.865843
2088.518010	-3.002300	3.301600	-9.911900	27.003535	0.000103	20.870010
2089.515240	-3.001500	3.300700	-9.905900	26.926852	0.000103	20.850271
2090.513309	-2.982400	3.301300	-9.844700	26.919183	0.000103	20.850621
2091.513274	-2.987000	3.300700	-9.858900	26.952662	0.000100	20.851569
2092.515532	-2.996800	3.300400	-9.889500	27.025224	0.000102	20.867639
2093.515218	-2.987600	3.299600	-9.856900	27.069196	0.000100	20.862075
2094.515473	-2.992400	3.299400	-9.872600	27.088054	0.000103	20.848325
2095.518390	-2.967400	3.298900	-9.787900	27.102719	9.981582E-5	20.853590
2096.515482	-2.989000	3.298300	-9.857800	27.056690	0.000100	20.872256
2097.519932	-2.980600	3.297400	-9.827500	27.061752	0.000101	20.847477
2098.517497	-2.986100	3.297700	-9.846500	27.041305	0.000102	20.855837
2099.517406	-2.992700	3.297500	-9.867700	27.045870	9.905676E-5	20.839566
2100.518816	-3.020200	3.295800	-9.953400	27.005273	9.895776E-5	20.869387
2101.522523	-2.983900	3.295400	-9.832400	27.024157	9.905676E-5	20.867041
2102.518163	-2.989800	3.296500	-9.854300	27.005769	0.000101	20.836222
2103.518910	-2.984700	3.295000	-9.833100	27.027681	9.859473E-5	20.876748
2104.522501	-2.990600	3.294200	-9.850500	26.987678	9.664759E-5	20.868288
2105.519444	-2.995300	3.294900	-9.868400	26.968372	9.819870E-5	20.855039
2106.524529	-3.010000	3.294000	-9.914100	27.031800	9.641657E-5	20.864296
2107.519214	-3.010300	3.295500	-9.919400	27.091926	9.529449E-5	20.850796
2108.519469	-3.002300	3.293900	-9.887200	27.091504	9.545950E-5	20.848476
2109.518996	-2.993100	3.294100	-9.857800	27.070313	9.707662E-5	20.858457
2110.518520	-2.994100	3.292900	-9.858500	27.048949	9.694461E-5	20.845033
2111.520450	-3.010200	3.292700	-9.910700	27.026168	9.714262E-5	20.836348
2112.523225	-2.998300	3.292100	-9.870300	27.086095	9.625156E-5	20.849200
2113.520772	-2.996900	3.293400	-9.869600	27.126665	9.407340E-5	20.831682
2114.520844	-2.986100	3.291500	-9.828200	27.054284	9.714262E-5	20.844234
2115.522649	-3.010300	3.291600	-9.908200	27.023613	9.486546E-5	20.840416
2116.523625	-2.995000	3.290600	-9.853800	27.059148	9.783567E-5	20.857660
2117.523648	-2.996100	3.290900	-9.858900	27.079793	9.334735E-5	20.860405
2118.522205	-3.000400	3.290700	-9.872700	27.112299	9.301732E-5	20.849475
2119.523106	-2.993800	3.291800	-9.852500	27.140859	9.202725E-5	20.854017
2120.525062	-3.001500	3.289300	-9.872000	27.147286	9.242328E-5	20.848627
2121.522564	-3.000300	3.289900	-9.870500	27.118478	9.262129E-5	20.847155
2122.526861	-2.984000	3.288700	-9.812700	27.088355	9.196124E-5	20.832507
2123.522975	-3.031600	3.287500	-9.965600	27.049223	9.179623E-5	20.848153
2124.524816	-3.004600	3.288700	-9.879800	27.065228	9.255529E-5	20.853343
2125.525051	-3.016700	3.286300	-9.912500	27.137808	9.265430E-5	20.842414
2126.526032	-3.016900	3.288900	-9.921500	27.167657	9.149921E-5	20.841615
2127.526445	-3.025600	3.286900	-9.944100	27.140885	9.047614E-5	20.843612
2128.527470	-3.013400	3.287800	-9.907000	27.158700	8.935405E-5	20.838296
2129.525218	-3.002700	3.287300	-9.869400	27.102226	9.153221E-5	20.856887
2130.527857	-2.977100	3.287000	-9.784100	27.105849	9.130120E-5	20.830187
2131.528944	-3.003400	3.286800	-9.870900	27.108480	8.942006E-5	20.836625
2132.527334	-2.975700	3.286700	-9.779100	27.116941	8.951907E-5	20.835178
2133.528052	-2.984000	3.285100	-9.801800	27.105453	8.994810E-5	20.841168
2134.527654	-2.992300	3.286100	-9.831300	27.085627	8.750592E-5	20.844936
2135.528369	-2.973800	3.285000	-9.767000	27.044361	8.856200E-5	20.846583
2136.528237	-2.991300	3.283800	-9.821300	27.099894	8.809996E-5	20.824198
2137.529195	-2.998600	3.283900	-9.845300	27.160165	8.816597E-5	20.835503
2138.530588	-2.993700	3.282600	-9.824600	27.174904	9.024512E-5	20.839895
2139.530564	-3.012000	3.281900	-9.883900	27.145005	8.776994E-5	20.830212
2140.527520	-3.025000	3.282700	-9.928500	27.193835	8.823197E-5	20.839970
2141.528779	-3.000300	3.281800	-9.845700	27.186963	8.569079E-5	20.829739
2142.531745	-2.987300	3.283500	-9.808300	27.244474	8.707689E-5	20.836377
2143.530584	-3.000600	3.281600	-9.846200	27.218274	8.625183E-5	20.828516
2144.532391	-3.014800	3.281800	-9.893100	27.207977	8.519575E-5	20.838548
2145.529754	-3.005200	3.281600	-9.861600	27.176343	8.536076E-5	20.838024
2146.528709	-2.989600	3.280300	-9.806500	27.144857	8.371064E-5	20.836228
2147.529201	-2.997600	3.279200	-9.828900	27.182348	8.476672E-5	20.811347
2148.528909	-2.987800	3.280000	-9.799300	27.239264	8.489873E-5	20.822602
2149.534110	-2.989400	3.279500	-9.802800	27.191751	8.516275E-5	20.804684
2150.530551	-2.980200	3.279800	-9.772800	27.179692	8.245655E-5	20.822427
2151.532763	-3.007000	3.277500	-9.853600	27.176567	8.272057E-5	20.834930
2152.530942	-2.971800	3.278400	-9.741800	27.221946	8.262156E-5	20.819882
2153.532763	-3.014600	3.278100	-9.881400	27.280522	8.268757E-5	20.808153
2154.530769	-2.999400	3.277400	-9.829500	27.272509	8.427168E-5	20.820955
2155.535282	-2.976700	3.278700	-9.758500	27.299873	8.113645E-5	20.828092
2156.531520	-3.041600	3.275700	-9.962400	27.300791	8.281958E-5	20.827593
2157.531029	-3.011700	3.276300	-9.866000	27.290869	8.295159E-5	20.822354
2158.532896	-3.017400	3.274500	-9.880000	27.271592	8.080643E-5	20.813868
2159.531458	-3.012100	3.275600	-9.865300	27.261643	8.031139E-5	20.808603
2160.534829	-2.997300	3.274400	-9.812500	27.273701	7.915631E-5	20.810300
2161.535044	-3.003700	3.274700	-9.834800	27.310070	8.130147E-5	20.810374
2162.533720	-2.980800	3.274500	-9.759800	27.295880	8.262156E-5	20.820282
2163.532385	-3.007000	3.273900	-9.843500	27.305704	7.915631E-5	20.816414
2164.531705	-2.973800	3.273400	-9.734200	27.302504	7.961834E-5	20.807505
2165.534439	-2.993300	3.272700	-9.795400	27.332076	8.070742E-5	20.803113
2166.534346	-2.984800	3.273400	-9.770000	27.304439	7.793522E-5	20.812297
2167.532290	-2.992900	3.272700	-9.794100	27.278489	7.810023E-5	20.814168
2168.532598	-2.986900	3.273300	-9.775300	27.298162	7.661512E-5	20.793655
2169.536868	-3.022700	3.272100	-9.889300	27.328379	7.740718E-5	20.797972
2170.532894	-2.986500	3.272700	-9.773200	27.374149	7.724217E-5	20.802763
2171.535187	-3.003000	3.270900	-9.821800	27.366336	7.790222E-5	20.801541
2172.534397	-3.025200	3.269700	-9.890700	27.397741	7.602108E-5	20.816539
2173.534454	-3.018500	3.270200	-9.870400	27.385089	7.585607E-5	20.809027
2174.534227	-3.015800	3.268700	-9.856300	27.349763	7.446997E-5	20.808578
2175.534727	-2.990700	3.269700	-9.778000	27.387644	7.450297E-5	20.810649
2176.542612	-2.999400	3.268800	-9.803900	27.321507	7.516302E-5	20.784421
2177.535510	-3.013300	3.267900	-9.845500	27.270252	7.295185E-5	20.795925
2178.535205	-3.009800	3.267800	-9.834100	27.254919	7.463498E-5	20.809900
2179.536681	-2.999300	3.268200	-9.801600	27.272435	7.595507E-5	20.801914
2180.535941	-2.993300	3.267100	-9.778800	27.292009	7.202779E-5	20.813069
2181.536304	-3.009100	3.267800	-9.831200	27.326294	7.420595E-5	20.800142
2182.540669	-2.995200	3.265600	-9.779700	27.349341	7.248982E-5	20.796299
2183.539016	-3.018800	3.265200	-9.855300	27.331157	7.301786E-5	20.801714
2184.538494	-3.030900	3.266600	-9.899900	27.340758	7.225880E-5	20.795725
2185.540497	-3.017400	3.265200	-9.851300	27.344106	7.222580E-5	20.814740
2186.540872	-3.012200	3.265700	-9.836400	27.318256	7.258883E-5	20.803910
2187.545501	-3.006100	3.265000	-9.814200	27.329742	7.364491E-5	20.787963
2188.541367	-2.998300	3.265300	-9.789400	27.257424	7.265483E-5	20.798195
2189.541105	-3.001400	3.264900	-9.798500	27.259136	7.031166E-5	20.780003
2190.543224	-2.994300	3.263600	-9.771100	27.260252	7.116972E-5	20.807204
2191.543624	-3.007700	3.262900	-9.813100	27.291983	7.001464E-5	20.803560
2192.546835	-2.997100	3.263800	-9.781400	27.301064	6.925558E-5	20.788987
2193.543793	-2.990600	3.263000	-9.757400	27.290196	6.849653E-5	20.793227
2194.543057	-2.985100	3.264000	-9.741500	27.269406	7.140074E-5	20.785117
2195.543669	-3.000000	3.261400	-9.783200	27.215420	7.050968E-5	20.788187
2196.544025	-2.981300	3.260600	-9.719600	27.220655	6.836452E-5	20.789660
2197.545746	-3.023600	3.261600	-9.861300	27.251518	7.004764E-5	20.809798
2198.544705	-3.011900	3.259400	-9.816200	27.273649	7.156575E-5	20.796972
2199.545959	-3.003900	3.258300	-9.785900	27.277892	7.083970E-5	20.808826
2200.545020	-2.975800	3.260300	-9.701600	27.299202	6.988263E-5	20.798020
2201.551451	-3.004300	3.259900	-9.792000	27.379828	6.767147E-5	20.793303
2202.546415	-3.021300	3.258100	-9.842500	27.470568	6.849653E-5	20.779803
2203.548382	-2.979700	3.257900	-9.705900	27.482946	6.724244E-5	20.804109
2204.545419	-3.006700	3.258400	-9.796100	27.487088	6.823251E-5	20.792156
2205.548028	-2.968200	3.259500	-9.674000	27.452734	6.872755E-5	20.792206
2206.546570	-3.006100	3.257100	-9.790300	27.406743	6.707742E-5	20.775809
2207.547192	-3.004300	3.256400	-9.782300	27.388213	6.631837E-5	20.788936
2208.546206	-3.008500	3.257000	-9.797100	27.402154	6.602135E-5	20.794426
2209.546987	-2.994000	3.257000	-9.750800	27.384963	6.714343E-5	20.789934
2210.546041	-3.008900	3.254100	-9.790000	27.403469	6.526229E-5	20.788637
2211.547472	-3.006200	3.254400	-9.782600	27.435916	6.654939E-5	20.784769
2212.548550	-3.006900	3.253300	-9.781400	27.431079	6.536130E-5	20.766626
2213.549617	-2.976500	3.253900	-9.684600	27.470990	6.450324E-5	20.778804
2214.549414	-3.009500	3.254300	-9.793300	27.497110	6.381019E-5	20.788013
2215.547937	-2.996000	3.253400	-9.746700	27.516952	6.546031E-5	20.815089
2216.549552	-3.003300	3.255700	-9.776900	27.518515	6.377718E-5	20.798170
2217.549629	-2.967200	3.254600	-9.656100	27.460795	6.483326E-5	20.775659
2218.547094	-3.010400	3.251100	-9.786200	27.426291	6.093898E-5	20.770344
2219.547137	-3.012000	3.252000	-9.794000	27.330610	6.295212E-5	20.783147
2220.549979	-3.035000	3.250500	-9.864000	27.350829	6.116999E-5	20.776458
2221.546325	-2.992300	3.250800	-9.726500	27.295035	6.506428E-5	20.780552
2222.546918	-2.987800	3.250000	-9.709000	27.320241	6.229207E-5	20.786467
2223.549982	-3.001200	3.249700	-9.752400	27.347529	6.258910E-5	20.778829
2224.550958	-3.022000	3.248000	-9.814200	27.392431	6.390919E-5	20.803137
2225.553280	-2.995300	3.249500	-9.732400	27.369658	6.410721E-5	20.790185
2226.551769	-3.002600	3.248600	-9.753100	27.374397	6.278711E-5	20.773615
2227.549951	-3.003500	3.249200	-9.758000	27.382435	6.301813E-5	20.783597
2228.549363	-3.013900	3.247000	-9.785500	27.466651	6.093898E-5	20.784396
2229.550029	-3.009100	3.247100	-9.770200	27.511621	6.120299E-5	20.784121
2230.549257	-3.008000	3.246600	-9.765500	27.508397	6.166503E-5	20.802214
2231.554729	-3.003800	3.246000	-9.749200	27.561377	6.348016E-5	20.793880
2232.550048	-3.021300	3.246500	-9.807600	27.503536	6.262210E-5	20.779306
2233.550445	-2.979600	3.246900	-9.673500	27.454423	6.001491E-5	20.762611
2234.552917	-2.989000	3.244200	-9.696200	27.464543	6.011392E-5	20.778482
2235.550560	-2.974700	3.246200	-9.655500	27.448370	6.031193E-5	20.784971
2236.558045	-3.002400	3.243200	-9.736700	27.447601	5.862881E-5	20.793206
2237.550786	-3.004200	3.243400	-9.743300	27.431652	6.070796E-5	20.784747
2238.553332	-3.013600	3.242900	-9.772500	27.431826	5.905784E-5	20.776387
2239.555202	-2.998700	3.243200	-9.724500	27.464967	5.889283E-5	20.778434
2240.554436	-3.005200	3.244500	-9.749000	27.527845	6.232508E-5	20.786220
2241.554205	-3.007400	3.243400	-9.753400	27.555923	5.810077E-5	20.786495
2242.556441	-3.013000	3.242500	-9.768300	27.528788	5.912384E-5	20.783376
2243.552274	-2.990100	3.242000	-9.691600	27.492353	5.770474E-5	20.801245
2244.554421	-3.001500	3.241500	-9.728600	27.444851	5.998191E-5	20.784749
2245.558431	-3.020600	3.241700	-9.790800	27.514576	5.998191E-5	20.787095
2246.554285	-3.005000	3.240800	-9.737300	27.558875	5.942086E-5	20.768128
2247.556590	-2.999000	3.239000	-9.712900	27.548955	5.763873E-5	20.797976
2248.553365	-3.018700	3.239900	-9.779700	27.581893	5.806777E-5	20.797926
2249.553068	-2.994300	3.240700	-9.702800	27.622492	5.793576E-5	20.792785
2250.552837	-2.999000	3.238700	-9.712200	27.611084	5.734171E-5	20.796005
2251.554170	-3.007400	3.237800	-9.736400	27.576114	5.786975E-5	20.794009
2252.556164	-2.991400	3.239300	-9.689600	27.600446	5.892583E-5	20.809007
2253.557029	-3.004400	3.237100	-9.724900	27.623089	5.760573E-5	20.790066
2254.553740	-3.010200	3.237200	-9.744000	27.581621	5.625263E-5	20.798127
2255.556664	-3.037900	3.237100	-9.833600	27.625868	5.661566E-5	20.784327
2256.559468	-3.006200	3.236200	-9.728000	27.676461	5.470152E-5	20.789243
2257.554997	-2.981600	3.236600	-9.649700	27.632266	5.348043E-5	20.786972
2258.556441	-3.033200	3.235700	-9.813900	27.583532	5.526256E-5	20.781083
2259.554717	-3.029600	3.234400	-9.797700	27.559051	5.595561E-5	20.783953
2260.554888	-2.999300	3.234900	-9.701400	27.559101	5.295239E-5	20.802495
2261.558039	-3.005500	3.234300	-9.719200	27.538490	5.493254E-5	20.795508
2262.555479	-3.023600	3.232800	-9.774200	27.618825	5.437149E-5	20.802371
2263.556902	-3.020700	3.232200	-9.763000	27.623142	5.321641E-5	20.787748
2264.554836	-3.009800	3.231800	-9.726500	27.605359	5.407447E-5	20.797830
2265.554364	-3.003100	3.232600	-9.706700	27.634475	5.483353E-5	20.792514
2266.555271	-3.013200	3.233200	-9.741800	27.630409	5.291939E-5	20.796957
2267.556821	-2.986400	3.233200	-9.654900	27.558136	5.192932E-5	20.809110
2268.557307	-2.996600	3.232000	-9.684300	27.561063	5.381045E-5	20.793090
2269.560477	-3.014700	3.231100	-9.739400	27.654491	5.394246E-5	20.791792
2270.557366	-3.008200	3.232200	-9.722700	27.695063	5.285338E-5	20.793264
2271.557801	-2.988300	3.229800	-9.650400	27.681400	5.100525E-5	20.789946
2272.559182	-2.996500	3.228900	-9.674600	27.673191	5.041120E-5	20.807764
2273.561584	-2.984000	3.229100	-9.634800	27.698116	5.275438E-5	20.799654
2274.561490	-2.978700	3.229300	-9.618100	27.675598	5.133527E-5	20.790746
2275.559738	-2.994300	3.227100	-9.661700	27.631825	5.047721E-5	20.799804
2276.558347	-2.984900	3.228100	-9.634800	27.558387	5.252336E-5	20.783284
2277.559373	-2.957900	3.229200	-9.551200	27.553525	5.018019E-5	20.785979
2278.560089	-3.004100	3.226200	-9.690500	27.537032	4.968515E-5	20.813955
2279.562567	-2.996700	3.226200	-9.667200	27.504490	5.196232E-5	20.793068
2280.563246	-3.015700	3.226300	-9.728600	27.485886	4.971815E-5	20.790472
2281.561020	-2.970100	3.226000	-9.580400	27.485018	4.836505E-5	20.801927
2282.560617	-2.983000	3.225100	-9.619600	27.481001	5.027919E-5	20.801678
2283.562750	-2.981200	3.224900	-9.613500	27.488516	4.869508E-5	20.820619
2284.560707	-3.003400	3.223400	-9.679900	27.526963	5.067522E-5	20.819471
2285.563107	-2.987100	3.224400	-9.630100	27.515851	4.975116E-5	20.807343
2286.561217	-3.009900	3.223000	-9.700500	27.502557	5.064222E-5	20.800606
2287.563001	-2.987200	3.223700	-9.628600	27.578380	5.021319E-5	20.801030
2288.560011	-2.996800	3.221800	-9.654500	27.604298	4.876108E-5	20.814307
2289.562890	-2.984000	3.221100	-9.610900	27.553058	4.899210E-5	20.818700
2290.565468	-2.988000	3.221200	-9.624500	27.571611	4.734198E-5	20.823616
2291.561733	-2.986200	3.222900	-9.623700	27.591848	4.915711E-5	20.801305
2292.563009	-2.989600	3.220600	-9.627500	27.654076	4.869508E-5	20.816504
2293.565376	-3.011300	3.220900	-9.698300	27.728079	4.790302E-5	20.818427
2294.562707	-2.977200	3.220500	-9.587700	27.743951	4.813404E-5	20.832502
2295.563501	-2.980400	3.219000	-9.592600	27.747695	4.849706E-5	20.800709
2296.566774	-2.980800	3.218500	-9.592700	27.713920	4.575786E-5	20.805126
2297.562931	-2.991900	3.218800	-9.629000	27.727089	4.638491E-5	20.829758
2298.565331	-2.978900	3.218600	-9.586600	27.672034	4.516382E-5	20.810393
2299.564527	-2.988200	3.216800	-9.611100	27.650631	4.750699E-5	20.814460
2300.564766	-2.987900	3.217500	-9.612400	27.631435	4.608789E-5	20.827387
2301.566239	-2.980400	3.217700	-9.589300	27.657997	4.820004E-5	20.817605
2302.565462	-2.988000	3.215000	-9.605700	27.606461	4.618689E-5	20.826440
2303.564492	-3.000500	3.215300	-9.646200	27.582826	4.516382E-5	20.805029
2304.563498	-2.988700	3.216300	-9.611600	27.660231	4.592287E-5	20.837396
2305.564658	-2.999200	3.213900	-9.637800	27.639001	4.641791E-5	20.808448
2306.568498	-2.998600	3.215600	-9.641900	27.617798	4.295266E-5	20.820304
2307.567411	-2.997100	3.213100	-9.629100	27.653486	4.414074E-5	20.806902
2308.564638	-2.984200	3.213100	-9.587600	27.646568	4.331568E-5	20.832182
2309.565201	-2.982500	3.212400	-9.580100	27.684413	4.305166E-5	20.823798
2310.565795	-2.994200	3.212800	-9.618200	27.763473	4.324968E-5	20.815164
2311.566432	-2.996200	3.212000	-9.622700	27.837516	4.255663E-5	20.837997
2312.566835	-3.012700	3.213100	-9.679900	27.795090	4.447077E-5	20.831809
2313.565362	-3.005100	3.211200	-9.649500	27.677817	4.156656E-5	20.828066
2314.565426	-3.000000	3.210900	-9.631400	27.629010	4.186358E-5	20.829688
2315.565482	-3.013900	3.209900	-9.673800	27.602324	4.126953E-5	20.834605
2316.564670	-2.979900	3.211500	-9.569100	27.611500	4.173157E-5	20.816811
2317.571020	-3.007500	3.209100	-9.650300	27.648553	4.473479E-5	20.832283
2318.566082	-2.999500	3.208200	-9.622400	27.675288	4.189658E-5	20.853969
2319.566446	-3.010500	3.209100	-9.659800	27.714621	4.209459E-5	20.835703
2320.568005	-3.006300	3.209800	-9.649400	27.743809	4.222660E-5	20.845161
2321.569689	-3.002300	3.207100	-9.628200	27.737832	3.948740E-5	20.822077
2322.565336	-2.984500	3.208300	-9.574000	27.700932	4.090651E-5	20.829514
2323.569852	-3.010200	3.205100	-9.647100	27.705866	4.239162E-5	20.835428
2324.566854	-2.992100	3.206900	-9.594700	27.712116	4.288665E-5	20.824648
2325.569473	-3.012500	3.203800	-9.651000	27.782295	4.179757E-5	20.835054
2326.569368	-3.008700	3.205600	-9.644000	27.784553	4.252363E-5	20.848231
2327.574327	-2.975000	3.207100	-9.540100	27.834072	4.245762E-5	20.847332
2328.585742	-2.994700	3.204200	-9.595100	27.909623	4.183057E-5	20.818584
2329.570597	-2.973600	3.204300	-9.527800	27.943616	4.041147E-5	20.826719
2330.568751	-3.012000	3.201400	-9.641800	27.859612	4.123653E-5	20.825622
2331.569512	-2.978400	3.202100	-9.536200	27.794199	3.866234E-5	20.847981
2332.570313	-3.004500	3.201400	-9.618000	27.800795	4.176457E-5	20.852723
2333.571442	-2.989700	3.200000	-9.566600	27.827675	3.777128E-5	20.837575
2334.572612	-2.993800	3.200900	-9.582200	27.854752	4.093951E-5	20.854394
2335.571219	-3.007500	3.199500	-9.621600	27.892368	3.833232E-5	20.847682
2336.572423	-3.003900	3.198800	-9.608200	27.878953	4.008145E-5	20.855043
2337.574163	-2.967500	3.200800	-9.497700	27.844412	3.948740E-5	20.852049
2338.570578	-3.000600	3.198900	-9.598000	27.872159	3.958641E-5	20.845362
2339.572688	-2.999600	3.198600	-9.594000	27.932484	4.014745E-5	20.843015
2340.569828	-2.991600	3.196900	-9.563600	27.959460	3.734225E-5	20.845037
2341.569485	-3.019100	3.197300	-9.651700	27.955865	4.117053E-5	20.861806
2342.570601	-2.997900	3.196000	-9.580600	27.986658	3.820031E-5	20.851075
2343.570213	-2.988700	3.196600	-9.553400	27.994667	3.915738E-5	20.831163
2344.575054	-3.003000	3.195300	-9.593900	27.966204	3.836532E-5	20.848506
2345.574714	-2.998400	3.194500	-9.577600	27.920038	3.681421E-5	20.848506
2346.571909	-2.980300	3.196000	-9.524000	27.899880	3.869534E-5	20.852873
2347.571905	-2.997000	3.192100	-9.565800	27.871292	3.582413E-5	20.852075
2348.572759	-2.999000	3.194400	-9.579000	27.918948	3.780428E-5	20.845986
2349.576899	-3.006000	3.194000	-9.600500	27.928766	3.783728E-5	20.845437
2350.576570	-2.987100	3.193700	-9.538500	27.903798	3.757326E-5	20.864402
2351.572725	-3.010100	3.191800	-9.606100	27.894376	3.480106E-5	20.843066
2352.572621	-3.014400	3.191300	-9.619000	27.937990	3.790329E-5	20.832910
2353.576818	-3.007400	3.191100	-9.596100	27.966354	3.615416E-5	20.851027
2354.573860	-2.983400	3.190800	-9.518500	28.025608	3.506508E-5	20.857565
2355.577212	-2.978800	3.189700	-9.501000	28.049334	3.707823E-5	20.862007
2356.574638	-2.997800	3.189100	-9.559300	28.014229	3.519709E-5	20.872662
2357.574619	-2.990100	3.189600	-9.536600	28.061135	3.433902E-5	20.844963
2358.576398	-3.000600	3.189500	-9.569800	28.020725	3.516409E-5	20.859762
2359.574571	-2.991200	3.187800	-9.534800	28.019708	3.575813E-5	20.861583
2360.576362	-2.972500	3.188000	-9.476000	27.972826	3.582413E-5	20.876032
2361.576117	-2.987100	3.186300	-9.517200	27.977785	3.427302E-5	20.876756
2362.578585	-3.011000	3.187000	-9.593500	27.956487	3.420702E-5	20.872863
2363.577419	-3.012700	3.184200	-9.591800	27.985519	3.565912E-5	20.877902
2364.577215	-3.005100	3.185800	-9.572800	27.964868	3.348096E-5	20.872764
2365.577606	-3.002600	3.184300	-9.560600	27.944166	3.585714E-5	20.856669
2366.578383	-2.987900	3.182900	-9.509900	27.926289	3.542810E-5	20.857168
2367.577939	-3.004800	3.182700	-9.561800	27.955075	3.341496E-5	20.874286
2368.576758	-3.000900	3.181400	-9.545900	27.960432	3.549411E-5	20.865454
2369.579522	-2.994600	3.182600	-9.529900	27.961275	3.169883E-5	20.856345
2370.577530	-2.987200	3.180700	-9.500800	27.946919	3.490007E-5	20.860388
2371.578530	-3.018300	3.179900	-9.596800	27.988150	3.394300E-5	20.876284
2372.578104	-2.999300	3.178800	-9.533500	28.007364	3.420702E-5	20.852003
2373.578074	-2.997800	3.178900	-9.529000	28.089076	3.176484E-5	20.858391
2374.578417	-3.009300	3.178800	-9.564800	28.111586	3.308493E-5	20.878679
2375.580024	-2.974700	3.179100	-9.456100	28.094927	3.635217E-5	20.873289
2376.578835	-3.008000	3.176500	-9.554400	28.038950	3.255689E-5	20.870046
2377.581026	-2.959400	3.177400	-9.401700	28.070956	3.202886E-5	20.888512
2378.582083	-3.005000	3.175700	-9.542200	28.005407	3.324994E-5	20.873265
2379.582000	-2.981700	3.176200	-9.469800	28.062577	3.447103E-5	20.890034
2380.581901	-2.993900	3.174800	-9.504300	28.056825	3.275491E-5	20.872866
2381.581577	-2.995200	3.174400	-9.506600	27.984507	3.041174E-5	20.877358
2382.586451	-2.990500	3.173100	-9.487600	27.992168	3.272191E-5	20.904508
2383.581294	-2.995600	3.175000	-9.510000	27.980863	3.229287E-5	20.898818
2384.582451	-2.993500	3.173100	-9.497000	28.043191	3.229287E-5	20.887590
2385.584017	-2.997000	3.172000	-9.505100	27.995614	3.074176E-5	20.880951
2386.582356	-3.036600	3.171300	-9.629000	28.006921	3.179784E-5	20.880479
2387.589176	-3.019000	3.170100	-9.569200	28.074751	2.978469E-5	20.873367
2388.581712	-3.005200	3.171000	-9.528400	28.144212	3.196285E-5	20.876436
2389.584331	-3.014500	3.169700	-9.553200	28.161341	3.080777E-5	20.890360
2390.584593	-2.997400	3.170100	-9.500800	28.201399	2.800256E-5	20.903660
2391.583826	-2.999400	3.168200	-9.501200	28.235978	2.932266E-5	20.887266
2392.584928	-3.004500	3.167900	-9.517500	28.149889	2.876162E-5	20.912020
2393.586086	-2.986100	3.167300	-9.456900	28.163671	3.090677E-5	20.909300
2394.584790	-2.984300	3.165800	-9.447000	28.196367	2.899263E-5	20.896699
2395.585072	-2.985500	3.166100	-9.451100	28.179437	2.876162E-5	20.902887
2396.587960	-2.993700	3.164800	-9.472200	28.175596	2.783755E-5	20.887167
2397.585250	-2.993000	3.163800	-9.468000	28.163920	2.958668E-5	20.900068
2398.593034	-3.004200	3.164100	-9.504100	28.189105	2.773854E-5	20.900293
2399.586019	-2.986800	3.163900	-9.448600	28.230799	2.952067E-5	20.896277
2400.587607	-2.997400	3.162600	-9.478500	28.187618	2.734251E-5	20.915390
2401.587682	-2.994100	3.162700	-9.468600	28.101947	2.750752E-5	20.904536
2402.586894	-3.003000	3.162200	-9.495900	28.123713	2.559338E-5	20.892783
2403.587261	-2.990300	3.159200	-9.446500	28.089305	2.714450E-5	20.904136
2404.589040	-2.991000	3.160500	-9.452700	28.140867	2.714450E-5	20.908153
2405.585857	-3.021100	3.158000	-9.539900	28.208366	2.724350E-5	20.894554
2406.595952	-3.005500	3.157900	-9.490500	28.228693	2.559338E-5	20.897001
2407.588425	-3.025700	3.156000	-9.548000	28.207153	2.625343E-5	20.901867
2408.585577	-2.993600	3.156200	-9.447300	28.136110	2.585740E-5	20.913321
2409.587582	-3.004000	3.155900	-9.479100	28.117814	2.628643E-5	20.908179
2410.586111	-2.996600	3.155500	-9.455500	28.175524	2.823358E-5	20.894681
2411.587482	-3.004600	3.154300	-9.476700	28.245053	2.707849E-5	20.903040
2412.586880	-3.004000	3.154300	-9.475000	28.222373	2.839859E-5	20.911025
2413.586957	-3.018500	3.151600	-9.512500	28.202048	2.519735E-5	20.921855
2414.592731	-2.973000	3.153600	-9.375000	28.176565	2.648445E-5	20.894781
2415.589389	-2.982200	3.151200	-9.396100	28.150464	2.684747E-5	20.886048
2416.591900	-3.025100	3.150000	-9.527400	28.227926	2.727651E-5	20.904763
2417.590746	-2.980000	3.150800	-9.388900	28.194339	2.506534E-5	20.922155
2418.590645	-2.997800	3.149600	-9.440700	28.202891	2.407527E-5	20.919386
2419.589027	-3.017800	3.148100	-9.499800	28.188316	2.272217E-5	20.942168
2420.594341	-2.982500	3.148200	-9.388700	28.148679	2.483433E-5	20.906535
2421.592153	-2.972300	3.146700	-9.352600	28.177385	2.447130E-5	20.925475
2422.591677	-2.983000	3.146800	-9.386300	28.221086	2.463631E-5	20.916367
2423.593851	-2.986400	3.145100	-9.391800	28.274576	2.305220E-5	20.928495
2424.594671	-2.989700	3.145200	-9.402500	28.290786	2.301919E-5	20.945288
2425.593340	-2.982900	3.144000	-9.376700	28.198851	2.473532E-5	20.931438
2426.592867	-3.010700	3.141900	-9.458400	28.207107	2.513135E-5	20.913199
2427.597612	-3.005000	3.142100	-9.441000	28.234696	2.318421E-5	20.936231
2428.593729	-2.997800	3.141200	-9.416000	28.266721	2.565939E-5	20.949507
2429.594695	-2.998000	3.140700	-9.415900	28.278792	2.216113E-5	20.920886
2430.592970	-3.018500	3.139300	-9.475600	28.278270	2.433929E-5	20.927473
2431.593559	-3.008000	3.138900	-9.441000	28.276288	2.199612E-5	20.935433
2432.593480	-2.993100	3.138600	-9.392300	28.288036	2.364624E-5	20.903643
2433.595853	-3.025800	3.137700	-9.493200	28.313814	2.143508E-5	20.945714
2434.601415	-3.004200	3.136200	-9.420800	28.345984	2.021399E-5	20.931640
2435.598206	-2.997300	3.135000	-9.395700	28.391685	2.377825E-5	20.936881
2436.597355	-2.993100	3.135100	-9.383000	28.390769	2.080803E-5	20.914149
2437.596714	-3.010700	3.133000	-9.431900	28.351214	2.110505E-5	20.925053
2438.595677	-3.007400	3.133700	-9.423600	28.289053	1.985096E-5	20.926001
2439.596574	-3.005800	3.131900	-9.413200	28.264639	2.160009E-5	20.942196
2440.598228	-3.000100	3.132800	-9.398200	28.266299	2.292019E-5	20.930118
2441.604552	-3.003800	3.129600	-9.399600	28.312153	2.018098E-5	20.929345
2442.595160	-2.984300	3.130300	-9.341200	28.279312	2.004897E-5	20.918092
2443.596568	-3.006300	3.129000	-9.406100	28.250560	1.975195E-5	20.939401
2444.597816	-3.019200	3.127900	-9.442300	28.293885	1.856387E-5	20.938452
2445.597893	-3.001300	3.126600	-9.382700	28.278197	1.806883E-5	20.938303
2446.601102	-3.010100	3.126100	-9.408700	28.255144	1.912491E-5	20.935008
2447.603819	-3.020200	3.124900	-9.436900	28.288531	1.836585E-5	20.959137
2448.600977	-3.006700	3.123800	-9.391200	28.354385	1.968595E-5	20.970914
2449.617973	-3.032200	3.123900	-9.471300	28.415699	1.889389E-5	20.951576
2450.605715	-2.992200	3.123200	-9.344900	28.455350	2.008198E-5	20.951675
2451.601075	-2.976500	3.123000	-9.293600	28.489648	1.780481E-5	20.947335
2452.605328	-3.015700	3.120600	-9.409000	28.465982	2.094004E-5	20.932513
2453.602666	-2.980900	3.121300	-9.302700	28.442711	1.938893E-5	20.948906
2454.602057	-3.007700	3.118500	-9.378500	28.386479	1.800282E-5	20.943017
2455.603836	-2.991500	3.118600	-9.328300	28.384396	1.787081E-5	20.956564
2456.605080	-2.995900	3.116800	-9.336600	28.322263	1.892689E-5	20.953746
2457.609792	-3.007300	3.116800	-9.372500	28.330938	1.773881E-5	20.946360
2458.606774	-3.006100	3.115600	-9.364300	28.284862	1.661672E-5	20.938376
2459.608652	-3.008600	3.114300	-9.369100	28.209857	1.754079E-5	20.932562
2460.607522	-2.999400	3.114700	-9.341000	28.235562	1.942193E-5	20.942319
2461.612815	-3.031700	3.111300	-9.430300	28.231027	1.820084E-5	20.938227
2462.608063	-3.005700	3.111700	-9.352300	28.305930	1.810183E-5	20.954370
2463.608153	-3.008600	3.109600	-9.354900	28.358945	1.721077E-5	20.949904
2464.609911	-3.009400	3.110700	-9.360400	28.390642	1.750779E-5	20.951949
2465.610520	-3.017500	3.108900	-9.380200	28.417285	1.704575E-5	20.943691
2466.613884	-2.980200	3.107900	-9.260000	28.422291	1.816784E-5	20.961058
2467.609572	-2.938500	3.108900	-9.134800	28.460009	1.823384E-5	20.937877
2468.613719	-3.015400	3.105800	-9.364100	28.520747	1.816784E-5	20.924602
2469.610279	-2.966700	3.106700	-9.215200	28.492200	1.661672E-5	20.929044
2470.610054	-2.989400	3.105200	-9.282100	28.439291	1.608868E-5	20.936454
2471.611301	-2.990600	3.103000	-9.278600	28.425139	1.615469E-5	20.921257
2472.616610	-2.995700	3.103000	-9.294700	28.411659	1.638571E-5	20.939923
2473.611619	-2.980600	3.100900	-9.241800	28.416219	1.661672E-5	20.923180
2474.614138	-2.985100	3.101400	-9.257300	28.407470	1.526362E-5	20.959884
2475.611450	-3.019000	3.099600	-9.356400	28.447668	1.552764E-5	20.926873
2476.609588	-3.014700	3.098300	-9.340100	28.474159	1.457057E-5	20.935531
2477.611586	-3.018800	3.095500	-9.344000	28.544016	1.404253E-5	20.918639
2478.610911	-2.984300	3.096400	-9.239900	28.537573	1.381152E-5	20.935855
2479.612481	-3.010000	3.095600	-9.317200	28.450963	1.757379E-5	20.920709
2480.610009	-3.007400	3.094000	-9.303500	28.504714	1.460357E-5	20.933111
2481.610653	-2.992100	3.093300	-9.254400	28.462586	1.565965E-5	20.918189
2482.611347	-2.999100	3.092600	-9.274200	28.427817	1.536263E-5	20.904514
2483.612435	-3.004300	3.091200	-9.285600	28.402191	1.308546E-5	20.900047
2484.612269	-2.996900	3.090000	-9.259000	28.466748	1.724377E-5	20.912897
2485.612091	-3.000200	3.089700	-9.268300	28.549589	1.407554E-5	20.908605
2486.611554	-3.002600	3.089600	-9.275800	28.591368	1.453757E-5	20.916067
2487.616114	-2.987600	3.088900	-9.227600	28.554918	1.242541E-5	20.911127
2488.616024	-2.993200	3.086100	-9.236700	28.510537	1.367951E-5	20.893934
2489.612286	-2.995200	3.083100	-9.233500	28.510562	1.420755E-5	20.908182
2490.617161	-2.985700	3.085800	-9.212000	28.437159	1.123733E-5	20.901595
2491.613312	-2.992500	3.083200	-9.224900	28.515146	1.285445E-5	20.900946
2492.614295	-2.987100	3.082100	-9.205600	28.561931	1.361350E-5	20.911551
2493.614674	-3.009800	3.080500	-9.270300	28.603956	1.136934E-5	20.901720
2494.614365	-3.012600	3.079000	-9.275400	28.595953	1.242541E-5	20.914995
2495.619411	-3.009500	3.078000	-9.261900	28.624795	1.196338E-5	20.901371
2496.618798	-3.010100	3.077300	-9.262000	28.633020	1.325048E-5	20.906336
2497.615041	-2.992300	3.076900	-9.206600	28.635424	1.265643E-5	20.902593
2498.617205	-3.012600	3.074200	-9.260600	28.594219	1.407554E-5	20.910405
2499.614612	-3.011200	3.073200	-9.252600	28.485064	9.455196E-6	20.891990
2500.616363	-3.009600	3.072400	-9.245700	28.514181	1.453757E-5	20.893811
2501.617651	-3.013300	3.071100	-9.253800	28.561089	1.268943E-5	20.894110
2502.615689	-2.997400	3.072200	-9.207900	28.545775	1.216140E-5	20.905713
2503.616875	-3.021600	3.068900	-9.271800	28.511975	1.367951E-5	20.898701
2504.619104	-3.027800	3.068400	-9.289400	28.506648	1.153435E-5	20.907086
2505.618384	-3.007600	3.067200	-9.224100	28.547560	1.391052E-5	20.889020
2506.619569	-2.990400	3.067900	-9.172900	28.542976	1.222740E-5	20.888671
2507.616813	-3.046500	3.064400	-9.334700	28.551971	1.130333E-5	20.895832
2508.619273	-2.991600	3.064500	-9.167100	28.586465	1.196338E-5	20.889795
2509.620416	-3.013600	3.062200	-9.227700	28.579031	1.298646E-5	20.904592
2510.621030	-3.020400	3.061600	-9.246900	28.562776	1.041227E-5	20.895808
2511.624757	-2.991700	3.060500	-9.154800	28.491484	1.212839E-5	20.900351
2512.623675	-3.006400	3.058600	-9.193700	28.535618	1.037926E-5	20.884580
2513.624432	-2.992200	3.059900	-9.155500	28.575736	1.133633E-5	20.891792
2514.623208	-3.025500	3.056400	-9.246300	28.651335	1.186437E-5	20.874050
2515.629160	-3.002000	3.055300	-9.170500	28.729529	1.272244E-5	20.884531
2516.624397	-2.990700	3.055900	-9.137800	28.732403	1.219440E-5	20.895960
2517.626577	-3.031800	3.052600	-9.253900	28.696726	1.166636E-5	20.885629
2518.623841	-3.015200	3.052600	-9.203000	28.707677	9.455196E-6	20.872005
2519.624514	-3.000000	3.052400	-9.155800	28.759854	1.103931E-5	20.893739
2520.625877	-2.998200	3.048800	-9.140300	28.796941	1.094031E-5	20.901699
2521.627665	-3.006400	3.049600	-9.167400	28.845521	1.061028E-5	20.885205
2522.634374	-2.990600	3.046400	-9.110000	28.833829	1.103931E-5	20.876746
2523.628323	-2.997200	3.046000	-9.129000	28.835613	1.193038E-5	20.874276
2524.626752	-3.010700	3.044500	-9.163300	28.842649	1.229340E-5	20.881363
2525.627067	-2.995700	3.043600	-9.115900	28.835935	1.130333E-5	20.881712
2526.630187	-3.000900	3.042900	-9.130400	28.747814	1.143534E-5	20.878293
2527.628170	-3.022100	3.039900	-9.185400	28.657704	1.103931E-5	20.900852
2528.631855	-2.985400	3.040500	-9.075800	28.682010	1.143534E-5	20.884083
2529.631500	-3.020900	3.038700	-9.178600	28.738400	1.057728E-5	20.873079
2530.628561	-2.994300	3.036900	-9.092700	28.785670	9.125172E-6	20.869011
2531.631521	-2.993900	3.037900	-9.094200	28.756213	1.070929E-5	20.880116
2532.628481	-3.004200	3.035300	-9.117700	28.721132	1.070929E-5	20.868962
2533.633065	-2.991100	3.034300	-9.074400	28.615236	1.011524E-5	20.889374
2534.629931	-2.977900	3.032400	-9.029500	28.650123	9.785220E-6	20.875200
2535.629513	-2.966000	3.032900	-8.994500	28.636099	9.653210E-6	20.874826
2536.631433	-2.984900	3.029700	-9.041600	28.695440	8.069094E-6	20.883860
2537.629758	-2.985000	3.029300	-9.041600	28.693112	1.067629E-5	20.853542
2538.630970	-2.997000	3.026900	-9.070700	28.656665	8.498126E-6	20.883686
2539.629645	-3.019000	3.025900	-9.134700	28.623809	9.125172E-6	20.864346
2540.629206	-2.990800	3.024900	-9.045400	28.595264	8.333113E-6	20.876373
2541.630278	-3.000500	3.023100	-9.070000	28.536985	9.455196E-6	20.875051
2542.634332	-3.003400	3.021100	-9.073300	28.473076	6.154953E-6	20.866642
2543.629919	-2.998700	3.020700	-9.057700	28.445716	8.102096E-6	20.870858
2544.632173	-3.005800	3.020000	-9.077000	28.457462	8.696140E-6	20.871782
2545.630401	-2.992900	3.018000	-9.032200	28.528856	7.508053E-6	20.860702
2546.630268	-2.985100	3.016100	-9.002600	28.585452	9.653210E-6	20.878818
2547.633234	-2.955100	3.015700	-8.911500	28.622496	8.993162E-6	20.872506
2548.631144	-2.988900	3.014400	-9.008400	28.625370	7.838077E-6	20.867339
2549.634262	-3.020800	3.012100	-9.098200	28.655919	8.531128E-6	20.858280
2550.631899	-2.984700	3.011500	-8.987500	28.634562	1.028026E-5	20.861899
2551.631529	-2.989700	3.010200	-8.998700	28.678442	8.894155E-6	20.874326
2552.631990	-2.988700	3.009900	-8.994300	28.728316	8.036092E-6	20.872879
2553.631053	-2.957200	3.008500	-8.895200	28.783216	9.587206E-6	20.879815
2554.632435	-3.005800	3.005800	-9.034000	28.849139	8.267109E-6	20.861824
2555.634411	-2.985000	3.005500	-8.970300	28.895883	9.785220E-6	20.870033
2556.631698	-2.997800	3.002700	-9.001100	28.930538	6.848004E-6	20.875073
2557.630515	-2.994300	3.002200	-8.989300	28.939380	1.080830E-5	20.883507
2558.634764	-2.999600	3.000100	-8.998700	28.866924	6.583985E-6	20.848447
2559.633045	-2.987000	3.000800	-8.962400	28.849360	1.004924E-5	20.842608
2560.633091	-3.009600	2.997300	-9.019800	28.764585	8.003089E-6	20.864842
2561.631577	-3.030000	2.994900	-9.072800	28.773826	9.026164E-6	20.846176
2562.632498	-2.994100	2.996400	-8.970700	28.794983	7.706067E-6	20.856107
2563.633329	-3.016000	2.994000	-9.029100	28.856965	8.795147E-6	20.870655
2564.632418	-3.013500	2.992600	-9.018000	28.942822	8.102096E-6	20.857105
2565.633508	-3.015000	2.989700	-9.013500	28.928183	9.521201E-6	20.871753
2566.633802	-3.007700	2.988800	-8.989000	28.950748	7.376043E-6	20.850866
2567.633277	-2.982900	2.988100	-8.912500	28.955182	9.653210E-6	20.840635
2568.631664	-2.971200	2.987700	-8.875900	28.989637	7.673065E-6	20.859700
2569.633214	-3.011400	2.984300	-8.985600	29.018146	1.018125E-5	20.841957
2570.636164	-3.018900	2.982700	-9.002600	29.027261	7.277036E-6	20.868210
2571.636091	-2.986800	2.982100	-8.906200	29.030258	8.135099E-6	20.869332
2572.636801	-2.995600	2.980600	-8.927800	29.057454	8.432121E-6	20.869707
2573.635636	-3.006000	2.980000	-8.956800	28.989935	8.729143E-6	20.847673
2574.638577	-3.010700	2.977300	-8.963000	28.967989	8.828150E-6	20.858752
2575.636361	-3.010500	2.976300	-8.958500	28.925557	8.465123E-6	20.851565
2576.641848	-3.018700	2.974300	-8.977700	28.918968	1.133633E-5	20.847772
2577.637496	-2.996700	2.973500	-8.909500	28.965364	1.054428E-5	20.850892
2578.637558	-2.983800	2.972200	-8.868100	28.961549	6.980014E-6	20.853213
2579.638958	-3.001300	2.970400	-8.914100	28.941138	7.805075E-6	20.849719
2580.639433	-2.970300	2.970700	-8.822500	28.943590	7.310038E-6	20.870206
2581.641890	-2.976400	2.967100	-8.830300	28.862934	7.508053E-6	20.843954
2582.641768	-2.986400	2.966500	-8.858400	28.872968	7.376043E-6	20.860699
2583.639647	-3.004500	2.965300	-8.908100	28.838064	5.626914E-6	20.841659
2584.637239	-3.010200	2.963700	-8.920700	28.885108	7.541055E-6	20.853014
2585.641936	-2.996500	2.962000	-8.875100	28.941807	8.630135E-6	20.834272
2586.638373	-3.007300	2.960700	-8.903300	28.905468	6.649990E-6	20.846974
2587.640454	-3.014400	2.959200	-8.919300	28.936556	5.923936E-6	20.859326
2588.640361	-2.983900	2.957700	-8.824500	28.881043	7.112024E-6	20.852239
2589.638690	-2.998700	2.954300	-8.858400	28.874206	7.772072E-6	20.828757
2590.639434	-2.997800	2.954400	-8.855500	28.851465	6.815002E-6	20.833349
2591.640016	-2.998200	2.953100	-8.853200	28.840392	9.059167E-6	20.826935
2592.641788	-3.033200	2.949400	-8.945100	28.946861	8.003089E-6	20.823717
2593.639656	-3.015300	2.948600	-8.890000	28.985723	5.329892E-6	20.826361
2594.639263	-3.025500	2.946200	-8.913100	28.926325	6.220958E-6	20.845226
2595.639328	-3.019500	2.945400	-8.892000	28.872794	7.640062E-6	20.835869
2596.642004	-3.015000	2.944600	-8.876300	28.833033	5.461902E-6	20.848919
2597.641434	-3.008000	2.942900	-8.851100	28.891422	6.418973E-6	20.817177
2598.646155	-2.996900	2.941900	-8.815200	28.899795	5.725922E-6	20.839363
2599.640182	-3.013400	2.939700	-8.858000	28.900044	8.234106E-6	20.822070
2600.639510	-2.960800	2.939300	-8.701400	28.956273	5.065873E-6	20.830354
2601.641448	-2.970900	2.937400	-8.725800	29.057925	5.956939E-6	20.837467
2602.640612	-2.986400	2.934700	-8.762900	29.110357	6.484977E-6	20.826761
2603.641425	-2.981100	2.934700	-8.748200	29.106690	7.904082E-6	20.831127
2604.639217	-2.995000	2.933100	-8.783700	29.046729	7.376043E-6	20.836144
2605.641237	-3.026700	2.929200	-8.865000	28.973933	7.211031E-6	20.837715
2606.640903	-3.001100	2.928500	-8.788400	28.923823	6.947011E-6	20.820422
2607.640014	-3.004100	2.928600	-8.797200	28.987730	7.013016E-6	20.845451
2608.640691	-2.979700	2.927000	-8.720500	28.988474	5.989941E-6	20.834347
2609.643886	-2.993900	2.925400	-8.757600	28.972621	7.244033E-6	20.836867
2610.644504	-3.009900	2.922000	-8.794100	28.946512	6.550982E-6	20.841383
2611.642471	-2.990200	2.922300	-8.737300	28.937026	5.263888E-6	20.836094
2612.642426	-2.998300	2.918400	-8.749000	28.980448	7.079021E-6	20.851865
2613.643413	-3.030200	2.916700	-8.837400	28.979160	6.319965E-6	20.839188
2614.644953	-2.999200	2.914800	-8.741100	29.017577	8.267109E-6	20.827160
2615.643684	-2.991700	2.914400	-8.717800	28.990603	7.673065E-6	20.833174
2616.644883	-2.988500	2.912700	-8.703900	29.002468	6.187956E-6	20.831377
2617.643994	-3.004700	2.910400	-8.743700	29.049255	5.659917E-6	20.834421
2618.643150	-3.016300	2.908700	-8.771700	29.116350	7.046019E-6	20.834222
2619.644261	-2.971800	2.907200	-8.637400	29.164792	6.385970E-6	20.833723
2620.643803	-2.999000	2.905600	-8.713000	29.087694	6.418973E-6	20.827159
2621.652552	-3.002600	2.903100	-8.716600	29.019508	4.900861E-6	20.814407
2622.644361	-2.988600	2.900800	-8.667800	29.063670	7.211031E-6	20.826186
2623.648354	-3.000500	2.899500	-8.698300	29.005910	3.778778E-6	20.836742
2624.650030	-3.019400	2.898900	-8.751300	29.010245	6.517980E-6	20.819299
2625.648783	-2.998100	2.895500	-8.680700	28.939974	5.659917E-6	20.829581
2626.649737	-2.994600	2.894000	-8.665400	28.944358	5.989941E-6	20.812186
2627.649490	-3.019600	2.892600	-8.733500	28.950650	5.065873E-6	20.807146
2628.655541	-3.041800	2.890700	-8.791800	28.998504	5.626914E-6	20.809840
2629.652256	-2.998600	2.890100	-8.665400	29.064562	4.108802E-6	20.802429
2630.653732	-2.984100	2.888500	-8.619000	29.164394	3.349747E-6	20.821943
2631.649657	-3.026000	2.886000	-8.731300	29.212413	3.184734E-6	20.846624
2632.651622	-3.011500	2.883900	-8.684300	29.136261	5.329892E-6	20.825363
2633.653501	-3.009300	2.881800	-8.670400	29.039719	4.636841E-6	20.824339
2634.650391	-3.009600	2.879400	-8.664000	29.015546	6.055946E-6	20.814682
2635.653041	-2.999600	2.876800	-8.628700	28.956321	4.471829E-6	20.828032
2636.655764	-3.001600	2.877700	-8.636700	29.012943	6.022943E-6	20.823914
2637.650986	-2.997800	2.874000	-8.615300	29.035731	5.065873E-6	20.819847
2638.652976	-3.023100	2.871300	-8.678900	29.044177	5.296890E-6	20.830727
2639.659182	-2.998700	2.870200	-8.606400	29.099284	5.626914E-6	20.816553
2640.654265	-3.013800	2.868100	-8.643400	29.113400	4.867858E-6	20.812759
2641.655658	-2.989500	2.866600	-8.568300	29.153249	7.904082E-6	20.829205
2642.653120	-3.033200	2.864200	-8.686200	29.220782	6.649990E-6	20.820919
2643.654354	-2.998100	2.862800	-8.582400	29.256145	6.451975E-6	20.817675
2644.653248	-2.982800	2.861500	-8.534400	29.308195	5.659917E-6	20.814181
2645.652989	-3.010900	2.857500	-8.603000	29.377205	6.616987E-6	20.810713
2646.657710	-3.003000	2.856700	-8.577000	29.366731	5.461902E-6	20.803002
2647.654632	-2.992700	2.855600	-8.545400	29.283755	4.867858E-6	20.812310
2648.656101	-3.002200	2.853300	-8.565700	29.273677	5.296890E-6	20.815429
2649.656536	-2.985300	2.851900	-8.513000	29.253420	6.484977E-6	20.802127
2650.657386	-2.987100	2.849800	-8.511300	29.168604	6.022943E-6	20.819547
2651.657887	-3.014600	2.845700	-8.577600	29.062058	5.230885E-6	20.812709
2652.661762	-3.026200	2.843700	-8.604800	29.083235	6.187956E-6	20.816029
2653.660848	-2.995200	2.843800	-8.517100	29.150302	5.791926E-6	20.796838
2654.662809	-3.061400	2.837500	-8.685200	29.164319	5.263888E-6	20.807643
2655.662901	-2.986200	2.838200	-8.474800	29.178806	6.121951E-6	20.796638
2656.669321	-3.010400	2.835000	-8.532400	29.198297	4.306817E-6	20.801579
2657.664821	-2.997700	2.833800	-8.493900	29.319983	5.527907E-6	20.786706
2658.662585	-2.994000	2.832400	-8.479000	29.303466	7.508053E-6	20.798510
2659.666555	-2.999300	2.829100	-8.484500	29.291184	5.527907E-6	20.797512
2660.663064	-2.992000	2.827800	-8.459400	29.363512	6.848004E-6	20.795490
2661.664376	-3.012800	2.824100	-8.507700	29.330853	6.682992E-6	20.815205
2662.663158	-3.011800	2.822000	-8.498100	29.225142	6.088948E-6	20.793545
2663.666726	-3.008200	2.820100	-8.481700	29.254734	5.461902E-6	20.810090
2664.664525	-3.015100	2.817500	-8.494300	29.297277	5.857931E-6	20.799859
2665.664588	-2.994000	2.817000	-8.432300	29.360591	6.187956E-6	20.772632
2666.666706	-2.978600	2.813500	-8.379100	29.415856	6.154953E-6	20.790875
2667.665098	-2.997700	2.810400	-8.422500	29.415559	8.003089E-6	20.800533
2668.666869	-3.018300	2.807100	-8.471900	29.415014	4.603839E-6	20.792871
2669.667121	-3.017600	2.804200	-8.460100	29.402139	9.257181E-6	20.788903
2670.666661	-3.010400	2.801900	-8.433600	29.390601	6.781999E-6	20.781067
2671.667117	-2.994700	2.799700	-8.383100	29.426923	7.079021E-6	20.782589
2672.667901	-3.019100	2.797800	-8.445900	29.482927	6.715994E-6	20.796365
2673.668720	-2.993000	2.794900	-8.364300	29.499217	7.640062E-6	20.786233
2674.667713	-2.968800	2.793100	-8.291100	29.420931	5.296890E-6	20.791249
2675.670396	-3.000900	2.789700	-8.371000	29.415904	6.616987E-6	20.781441
2676.671158	-3.017900	2.786600	-8.408800	29.451409	6.418973E-6	20.785933
2677.675190	-3.027500	2.783600	-8.426300	29.453067	5.230885E-6	20.791398
2678.670040	-3.003800	2.780200	-8.350300	29.497533	7.376043E-6	20.780742
2679.672029	-2.996200	2.778400	-8.324100	29.466661	4.801853E-6	20.788504
2680.673356	-2.989100	2.776200	-8.297100	29.363018	3.811781E-6	20.770336
2681.671954	-2.972600	2.773200	-8.242500	29.351826	6.980014E-6	20.791299
2682.674976	-2.991300	2.770600	-8.286800	29.436530	5.527907E-6	20.786108
2683.673348	-2.991400	2.765800	-8.273300	29.537095	6.781999E-6	20.774628
2684.676382	-2.977400	2.764500	-8.229900	29.524221	5.824929E-6	20.777772
2685.674393	-3.029100	2.758800	-8.355300	29.514441	8.135099E-6	20.789251
2686.675969	-2.974100	2.758800	-8.204000	29.503029	5.890934E-6	20.756884
2687.676950	-2.996200	2.754000	-8.250600	29.482158	4.339819E-6	20.778995
2688.676638	-2.990000	2.751000	-8.223600	29.566331	5.395897E-6	20.791298
2689.677773	-2.999000	2.748300	-8.241000	29.489214	4.735849E-6	20.790849
2690.678242	-2.997400	2.746100	-8.230200	29.538158	5.725922E-6	20.775700
2691.676453	-2.995000	2.741400	-8.209800	29.513252	6.055946E-6	20.779518
2692.676383	-3.027900	2.738400	-8.290800	29.533083	5.296890E-6	20.767265
2693.680291	-2.971900	2.736800	-8.131700	29.431452	5.329892E-6	20.785258
2694.678916	-3.021600	2.731700	-8.252600	29.420731	4.306817E-6	20.765442
2695.678174	-2.996900	2.727700	-8.173900	29.395749	5.758924E-6	20.767290
2696.677954	-3.049800	2.724100	-8.306100	29.432046	5.032870E-6	20.765467
2697.676856	-2.994200	2.722700	-8.151500	29.419220	5.065873E-6	20.768661
2698.677980	-3.043800	2.716700	-8.267600	29.408995	5.164880E-6	20.770683
2699.679829	-2.975400	2.714500	-8.074500	29.405528	7.607060E-6	20.776672
2700.684325	-2.995300	2.710800	-8.117700	29.374850	5.197883E-6	20.784633
2701.684477	-3.007300	2.705600	-8.135300	29.374107	6.385970E-6	20.792892
2702.682521	-2.999700	2.701500	-8.103000	29.455317	4.438827E-6	20.769958
2703.680000	-2.984400	2.699800	-8.056300	29.515800	6.715994E-6	20.760748
2704.681057	-3.016300	2.694100	-8.125000	29.529664	8.564130E-6	20.768560
2705.680619	-3.002500	2.689900	-8.075400	29.564223	5.560909E-6	20.763094
2706.682240	-3.010900	2.686400	-8.087700	29.630913	5.329892E-6	20.784806
2707.679981	-2.996400	2.683200	-8.039300	29.604846	4.075800E-6	20.764691
2708.680819	-2.981200	2.678100	-7.983100	29.610242	6.781999E-6	20.764915
2709.680814	-2.984500	2.675000	-7.982400	29.618361	4.042798E-6	20.775471
2710.680433	-2.995800	2.670000	-7.997700	29.665443	7.805075E-6	20.782159
2711.684239	-2.926300	2.668000	-7.806900	29.775566	7.772072E-6	20.791243
2712.680622	-3.001900	2.661800	-7.989200	29.824547	7.145026E-6	20.777093
2713.681246	-2.998500	2.657200	-7.967000	29.811379	7.607060E-6	20.760022
2714.681569	-2.998100	2.652000	-7.949700	29.755715	7.574058E-6	20.772651
2715.681961	-3.012500	2.646600	-7.972100	29.672399	6.121951E-6	20.776843
2716.682590	-3.014000	2.642900	-7.964800	29.716435	5.362895E-6	20.774298
2717.686911	-2.994600	2.637200	-7.896800	29.766951	5.296890E-6	20.778764
2718.683272	-3.024200	2.632300	-7.959500	29.751061	8.399118E-6	20.777915
2719.683261	-3.019000	2.627500	-7.930200	29.670666	5.791926E-6	20.770829
2720.686991	-2.986800	2.623500	-7.835200	29.636332	4.702846E-6	20.753284
2721.686356	-3.012200	2.618500	-7.886100	29.666680	6.055946E-6	20.769655
2722.683768	-3.037400	2.611200	-7.930500	29.761977	5.758924E-6	20.771851
2723.690079	-2.995500	2.608100	-7.811400	29.846746	6.088948E-6	20.766286
2724.683894	-2.995900	2.603300	-7.797700	29.857017	6.154953E-6	20.760521
2725.685812	-3.012600	2.596500	-7.821500	29.767125	7.310038E-6	20.776568
2726.689150	-3.010900	2.590400	-7.798300	29.738587	6.154953E-6	20.757277
2727.687543	-2.990600	2.586400	-7.733700	29.785490	3.712773E-6	20.756678
2728.684837	-3.002500	2.581600	-7.749700	29.810092	5.296890E-6	20.773424
2729.684800	-3.015000	2.574700	-7.762100	29.738958	5.824929E-6	20.768557
2730.684217	-3.009600	2.568700	-7.729000	29.704577	5.329892E-6	20.773723
2731.684869	-2.966300	2.565200	-7.608800	29.686557	8.399118E-6	20.770254
2732.685087	-3.000600	2.556700	-7.670500	29.774179	8.663138E-6	20.765188
2733.686932	-2.973700	2.551700	-7.587600	29.841623	5.032870E-6	20.764440
2734.684935	-2.998200	2.544100	-7.626800	29.774229	5.395897E-6	20.797955
2735.685904	-2.980200	2.539100	-7.566600	29.768561	6.881007E-6	20.780386
2736.687129	-2.997200	2.533500	-7.592600	29.837762	1.120432E-5	20.772400
2737.688973	-3.005100	2.526000	-7.589400	29.931311	9.851225E-6	20.775695
2738.687748	-2.989300	2.521100	-7.534600	29.947002	7.970087E-6	20.786302
2739.687721	-2.992900	2.514200	-7.523200	29.889094	4.801853E-6	20.776271
2740.689330	-2.995100	2.508900	-7.513700	29.798014	6.715994E-6	20.764091
2741.689168	-3.002800	2.502300	-7.512200	29.798287	5.824929E-6	20.790919
2742.691247	-3.027100	2.494700	-7.550500	29.783684	8.564130E-6	20.784730
