LabVIEW Measurement	
Writer_Version	2
Reader_Version	2
Separator	Tab
Decimal_Separator	.
Multi_Headings	No
X_Columns	One
Time_Pref	Absolute
Operator	admin
Description	Clolumns are: time, Current, Voltage, Power, Battery Temp, and Chamber Temp
Date	2024/08/16
Time	13:07:17.8513970375061035156
***End_of_Header***	
	
Channels	6						
Samples	1	1	1	1	1	1	
Date	2024/09/05	2024/09/05	2024/09/05	2024/09/05	2024/09/05	2024/09/05	
Time	11:45:59.5291390419006347656	11:45:59.5355944633483886719	11:45:59.5434846878051757813	11:45:59.5131049156188964844	11:45:59.5131049156188964844	11:45:59.5131049156188964844	
X_Dimension	Time	Time	Time	Time	Time	Time	
X0	0.0000000000000000E+0	0.0000000000000000E+0	0.0000000000000000E+0	0.0000000000000000E+0	0.0000000000000000E+0	0.0000000000000000E+0	
Delta_X	1.000000	1.000000	1.000000	1.000000	1.000000	1.000000	
***End_of_Header***							
X_Value	Untitled	Untitled 1	Untitled 2	Untitled 3	Untitled 4	Untitled 5	Comment
0.000000	0.025798	4.093500	0.105600	20.774167	0.000467	20.779857
1.003222	-2.978300	3.926400	-11.694000	20.752253	0.000467	20.752253
2.001159	-2.992900	3.919300	-11.729000	20.757992	0.000467	20.764631
3.002912	-3.015900	3.914100	-11.803000	20.750604	0.000464	20.772889
4.002429	-2.999700	3.910500	-11.729000	20.780876	0.000463	20.775660
5.002342	-2.982000	3.909000	-11.656000	20.772889	0.000462	20.763880
6.001598	-2.986400	3.904700	-11.661000	20.770642	0.000463	20.761633
7.003730	-2.990100	3.904200	-11.673000	20.788409	0.000464	20.765649
8.001911	-2.980300	3.902200	-11.629000	20.793674	0.000462	20.752896
9.001956	-2.998100	3.898300	-11.686000	20.798239	0.000462	20.755564
10.004328	-2.995500	3.897400	-11.674000	20.813783	0.000462	20.748823
11.002964	-2.996000	3.897800	-11.677000	20.815737	0.000460	20.769269
12.003090	-2.997000	3.894500	-11.671000	20.840990	0.000461	20.746159
13.005550	-2.992100	3.895300	-11.654000	20.838966	0.000460	20.754092
14.004583	-3.002700	3.892300	-11.687000	20.821320	0.000459	20.747351
15.004619	-2.987300	3.892500	-11.628000	20.830629	0.000459	20.770886
16.011719	-2.985500	3.891500	-11.617000	20.848696	0.000459	20.762401
17.007648	-2.993600	3.891200	-11.648000	20.852935	0.000458	20.773278
18.007450	-2.983300	3.888000	-11.599000	20.863844	0.000459	20.750996
19.011170	-3.004000	3.888300	-11.680000	20.879617	0.000458	20.775780
20.007119	-2.988700	3.887200	-11.617000	20.893989	0.000456	20.733253
21.008723	-3.035300	3.884100	-11.789000	20.902940	0.000457	20.768759
22.012114	-3.013400	3.885500	-11.708000	20.899098	0.000458	20.775822
23.008398	-2.986700	3.885700	-11.604000	20.920160	0.000455	20.756583
24.007414	-3.026500	3.883800	-11.753000	20.912451	0.000453	20.763098
25.010275	-3.013900	3.882900	-11.702000	20.925796	0.000453	20.761746
26.008050	-3.003000	3.881400	-11.654000	20.931609	0.000454	20.743377
27.016841	-2.993200	3.881100	-11.616000	20.922407	0.000454	20.757408
28.028840	-2.987500	3.882200	-11.597000	20.943816	0.000453	20.747999
29.020839	-2.992800	3.880800	-11.613000	20.948808	0.000452	20.779071
30.013704	-3.011300	3.880400	-11.684000	20.944315	0.000451	20.759878
31.014699	-2.988600	3.881300	-11.598000	20.958838	0.000452	20.751169
32.016212	-2.987000	3.879200	-11.586000	20.962829	0.000451	20.742358
33.015211	-3.012000	3.880100	-11.686000	20.978226	0.000450	20.770561
34.014212	-3.017100	3.878500	-11.701000	20.970538	0.000450	20.752440
35.030211	-2.998400	3.878200	-11.628000	20.988030	0.000451	20.764718
36.014211	-2.988500	3.877800	-11.588000	20.997334	0.000452	20.757429
37.017213	-2.987300	3.878100	-11.584000	21.025584	0.000450	20.746329
38.014276	-2.995700	3.876900	-11.613000	21.011263	0.000448	20.756661
39.012272	-2.996700	3.876600	-11.616000	21.028676	0.000449	20.780716
40.016274	-2.997900	3.875400	-11.617000	21.026956	0.000450	20.747702
41.015273	-2.996100	3.875800	-11.611000	21.049286	0.000447	20.751544
42.015274	-3.012300	3.874100	-11.668000	21.050634	0.000448	20.756686
43.018274	-2.993800	3.875300	-11.600000	21.070420	0.000449	20.763201
45.284806	-2.988300	3.875200	-11.579000	21.067148	0.000447	20.755186
46.275814	-3.008400	3.874400	-11.655000	21.077032	0.000449	20.744683
47.276811	-3.006300	3.874300	-11.646000	21.103001	0.000448	20.751693
48.277814	-3.017400	3.872900	-11.684000	21.096018	0.000448	20.772684
49.278814	-2.995600	3.873000	-11.600000	21.110763	0.000448	20.758034
50.278811	-3.003300	3.872300	-11.630000	21.129349	0.000449	20.753392
51.278813	-2.994800	3.872600	-11.596000	21.140799	0.000448	20.762475
52.295815	-3.021400	3.870800	-11.694000	21.137807	0.000447	20.749998
53.289814	-2.983700	3.873900	-11.558000	21.142073	0.000446	20.752369
54.279390	-2.988000	3.871900	-11.568000	21.164347	0.000447	20.767065
55.302390	-2.979300	3.872700	-11.537000	21.160432	0.000445	20.749871
56.296391	-3.014300	3.871800	-11.669000	21.184057	0.000445	20.763547
57.279385	-3.016500	3.871100	-11.676000	21.168090	0.000445	20.766541
58.281334	-3.024900	3.870100	-11.705000	21.200124	0.000448	20.750695
59.280324	-3.003300	3.870100	-11.623000	21.221181	0.000445	20.777924
60.283250	-2.993600	3.870900	-11.587000	21.207881	0.000447	20.765094
61.284170	-3.034700	3.868300	-11.738000	21.203095	0.000447	20.754142
62.282320	-2.998200	3.869200	-11.600000	21.217834	0.000446	20.764145
63.287415	-2.987100	3.871500	-11.563000	21.235145	0.000448	20.766290
64.288939	-2.988800	3.869200	-11.563000	21.239963	0.000447	20.768738
65.286712	-2.999300	3.869300	-11.605000	21.248119	0.000447	20.760777
66.287713	-2.988300	3.869300	-11.561000	21.254656	0.000447	20.765893
67.287436	-3.011700	3.868800	-11.651000	21.286613	0.000444	20.758983
68.289002	-2.981700	3.869900	-11.538000	21.265759	0.000447	20.754241
69.288117	-2.985200	3.867800	-11.545000	21.274538	0.000446	20.763498
70.292821	-2.996800	3.869100	-11.593000	21.275287	0.000446	20.784637
71.288344	-2.996900	3.868000	-11.591000	21.323131	0.000447	20.761378
72.287489	-3.001000	3.868100	-11.607000	21.307566	0.000448	20.754340
73.288991	-2.987100	3.868100	-11.553000	21.322307	0.000446	20.761028
74.288921	-2.996100	3.866700	-11.584000	21.341314	0.000448	20.760129
75.289499	-2.996000	3.868500	-11.588000	21.339047	0.000449	20.793423
76.288438	-2.982600	3.867700	-11.535000	21.346153	0.000449	20.755961
77.289022	-2.990700	3.866700	-11.564000	21.365488	0.000450	20.751124
78.288801	-2.987800	3.867300	-11.553000	21.365283	0.000450	20.767988
79.290987	-3.019000	3.866300	-11.672000	21.368798	0.000449	20.754910
80.290574	-3.003200	3.867300	-11.613000	21.352734	0.000448	20.747846
81.290853	-3.003400	3.866600	-11.612000	21.391971	0.000448	20.761973
82.291674	-2.983800	3.867100	-11.538000	21.394885	0.000451	20.764414
83.291817	-3.010000	3.866400	-11.637000	21.377597	0.000449	20.777938
84.291570	-3.011700	3.865600	-11.641000	21.418176	0.000446	20.765907
85.295388	-2.991400	3.866400	-11.565000	21.416631	0.000449	20.766732
86.291719	-3.000600	3.864000	-11.592000	21.437355	0.000449	20.789364
87.292573	-2.985300	3.866100	-11.541000	21.443141	0.000449	20.760065
88.292057	-2.983600	3.865000	-11.531000	21.447529	0.000450	20.768249
89.292559	-3.002700	3.865000	-11.604000	21.458627	0.000451	20.765128
90.292974	-3.003400	3.863800	-11.604000	21.463189	0.000451	20.777280
91.291095	-2.996600	3.863900	-11.577000	21.475506	0.000450	20.768741
92.292175	-2.996700	3.865400	-11.582000	21.499871	0.000450	20.785535
93.291896	-3.010700	3.863400	-11.630000	21.491239	0.000450	20.777371
94.292628	-3.011500	3.864500	-11.637000	21.504804	0.000450	20.780513
95.293031	-3.000300	3.864700	-11.594000	21.500564	0.000451	20.791444
96.294983	-3.017900	3.864100	-11.660000	21.504800	0.000448	20.784303
97.294091	-3.040300	3.862500	-11.742000	21.506770	0.000451	20.775368
98.295320	-2.990600	3.863200	-11.552000	21.522998	0.000450	20.757467
99.294477	-2.979300	3.864000	-11.511000	21.531329	0.000449	20.788563
100.294811	-2.988100	3.863800	-11.544000	21.550007	0.000451	20.778330
101.294796	-2.976100	3.863200	-11.496000	21.560729	0.000448	20.801387
102.295373	-2.996500	3.863600	-11.576000	21.558010	0.000451	20.780647
103.298284	-2.990600	3.861800	-11.547000	21.574113	0.000449	20.783959
104.297510	-3.002900	3.862200	-11.597000	21.587557	0.000451	20.796939
105.297302	-2.995200	3.862300	-11.568000	21.588183	0.000451	20.799936
106.297862	-3.001200	3.863500	-11.594000	21.606209	0.000451	20.778146
107.296982	-3.002700	3.862400	-11.597000	21.590668	0.000451	20.782508
108.297802	-3.022000	3.862200	-11.670000	21.612090	0.000449	20.782133
109.297561	-2.999800	3.862600	-11.586000	21.622460	0.000450	20.779235
110.300493	-2.994500	3.860900	-11.561000	21.626003	0.000451	20.796057
111.301148	-3.013900	3.861600	-11.637000	21.623058	0.000450	20.788368
112.298177	-3.008300	3.861300	-11.616000	21.660110	0.000451	20.783722
113.299325	-2.983600	3.861000	-11.519000	21.675749	0.000450	20.782777
114.300022	-3.005100	3.859300	-11.596000	21.673030	0.000447	20.786694
115.298698	-2.982000	3.861100	-11.513000	21.689510	0.000450	20.785169
116.298851	-2.994900	3.860400	-11.560000	21.687067	0.000451	20.798845
117.299642	-3.005400	3.859200	-11.597000	21.690030	0.000453	20.796595
118.298893	-3.002300	3.858000	-11.582000	21.710908	0.000452	20.792359
119.298920	-2.993800	3.860000	-11.555000	21.741749	0.000452	20.807578
120.303027	-3.015700	3.859500	-11.638000	21.728208	0.000452	20.795923
121.302590	-2.976300	3.859700	-11.487000	21.724690	0.000453	20.761581
122.303426	-2.991000	3.860000	-11.544000	21.726985	0.000452	20.786638
123.305929	-3.007800	3.858400	-11.604000	21.739451	0.000453	20.800063
124.304541	-2.999300	3.858200	-11.571000	21.738606	0.000453	20.808226
125.305957	-2.993100	3.859400	-11.550000	21.733243	0.000451	20.804755
126.309374	-3.021000	3.859900	-11.660000	21.745112	0.000452	20.782968
127.304950	-3.004600	3.858100	-11.590000	21.774909	0.000454	20.778177
128.306307	-2.999700	3.858400	-11.572000	21.784858	0.000454	20.804256
129.309851	-2.991400	3.858300	-11.540000	21.811384	0.000452	20.802830
130.307602	-2.984300	3.858000	-11.513000	21.782089	0.000455	20.793424
131.307122	-3.012100	3.857000	-11.616000	21.809842	0.000454	20.816934
132.310843	-3.029800	3.857000	-11.684000	21.810440	0.000454	20.806626
133.313202	-2.990000	3.857300	-11.532000	21.807993	0.000454	20.807971
134.310433	-3.001700	3.857000	-11.577000	21.818217	0.000452	20.802557
135.312778	-2.997000	3.856600	-11.557000	21.832804	0.000455	20.811941
136.307922	-2.995300	3.857600	-11.554000	21.818543	0.000453	20.813788
137.307460	-2.992000	3.856400	-11.537000	21.852354	0.000452	20.797844
138.310691	-3.008800	3.857800	-11.606000	21.869903	0.000456	20.795969
139.307560	-2.993600	3.856700	-11.545000	21.869701	0.000453	20.810465
140.307575	-3.029600	3.855800	-11.680000	21.877906	0.000453	20.815833
141.310531	-3.012400	3.855600	-11.614000	21.879978	0.000455	20.792777
142.309247	-2.990200	3.857100	-11.533000	21.890820	0.000457	20.820699
143.312751	-2.994600	3.855900	-11.546000	21.908025	0.000456	20.804730
144.311065	-3.008800	3.856300	-11.602000	21.896508	0.000456	20.805055
145.313818	-3.007200	3.856600	-11.596000	21.912787	0.000457	20.815660
146.313480	-3.001400	3.855400	-11.570000	21.895660	0.000458	20.802784
147.313131	-3.026300	3.854500	-11.663000	21.918051	0.000459	20.828041
148.312795	-2.987200	3.856100	-11.518000	21.911490	0.000459	20.816258
149.313683	-2.998600	3.855900	-11.560000	21.932707	0.000459	20.826590
150.312257	-2.990200	3.854800	-11.526000	21.946543	0.000458	20.796344
151.313668	-3.002500	3.853700	-11.568000	21.964443	0.000460	20.808572
152.313333	-2.995100	3.854600	-11.544000	21.954397	0.000460	20.817008
153.314136	-2.990400	3.853500	-11.523000	21.983489	0.000462	20.824792
154.315800	-3.004900	3.853500	-11.578000	21.999244	0.000463	20.812589
155.315687	-3.026700	3.853200	-11.662000	21.997720	0.000462	20.830977
156.315886	-3.012300	3.853500	-11.607000	22.000113	0.000462	20.821519
157.315021	-3.019500	3.852900	-11.633000	22.014100	0.000460	20.813710
158.315285	-2.997100	3.852900	-11.547000	22.020056	0.000459	20.812086
159.315884	-2.993600	3.853700	-11.536000	22.043314	0.000463	20.846274
160.316532	-2.997800	3.852400	-11.547000	22.051790	0.000462	20.825362
161.316290	-2.978200	3.853200	-11.473000	22.067692	0.000462	20.816152
162.317514	-2.967500	3.853300	-11.434000	22.083619	0.000462	20.825458
163.315410	-2.993900	3.852700	-11.534000	22.075118	0.000463	20.822637
164.318819	-2.988000	3.852500	-11.511000	22.076613	0.000465	20.824608
165.316887	-2.996000	3.852400	-11.541000	22.095682	0.000463	20.823784
166.317859	-2.987300	3.853200	-11.510000	22.113679	0.000465	20.813353
167.318914	-3.001000	3.852800	-11.561000	22.104158	0.000465	20.811881
168.318579	-3.004800	3.852900	-11.576000	22.093611	0.000465	20.801796
169.318462	-3.008700	3.851300	-11.587000	22.128831	0.000467	20.835634
170.320689	-2.991800	3.852800	-11.526000	22.119808	0.000465	20.816643
171.319197	-2.998700	3.851800	-11.550000	22.124968	0.000464	20.827025
172.319942	-2.985900	3.852600	-11.502000	22.132620	0.000465	20.830892
173.319810	-2.993800	3.851300	-11.529000	22.112926	0.000467	20.816866
174.319619	-2.976700	3.851500	-11.464000	22.108388	0.000464	20.836030
175.321192	-3.003800	3.850700	-11.566000	22.140795	0.000464	20.809680
176.320622	-2.990600	3.850000	-11.513000	22.160633	0.000467	20.820058
177.321464	-3.025500	3.849200	-11.645000	22.134285	0.000464	20.821654
178.321635	-3.014500	3.850300	-11.605000	22.174441	0.000467	20.840520
179.321278	-3.027100	3.848300	-11.648000	22.161255	0.000467	20.831586
180.321427	-3.012200	3.850100	-11.596000	22.196897	0.000468	20.836925
181.321495	-3.003200	3.850300	-11.562000	22.215543	0.000467	20.836628
182.321408	-3.008000	3.848300	-11.575000	22.238274	0.000468	20.838999
183.322839	-2.986800	3.849900	-11.498000	22.219106	0.000467	20.846358
184.323166	-2.990100	3.848900	-11.507000	22.218855	0.000471	20.836150
185.321971	-3.003000	3.848200	-11.554000	22.220152	0.000469	20.834604
186.322319	-3.007800	3.849700	-11.578000	22.231192	0.000470	20.851347
187.321818	-2.995900	3.848200	-11.528000	22.259305	0.000469	20.818331
188.322429	-3.010100	3.846800	-11.577000	22.258733	0.000470	20.852844
189.324272	-2.983100	3.848300	-11.479000	22.297312	0.000469	20.818455
190.324810	-3.002400	3.847300	-11.551000	22.301874	0.000469	20.842937
191.324147	-3.011900	3.846600	-11.585000	22.311020	0.000469	20.833603
192.325648	-3.011600	3.846700	-11.583000	22.332452	0.000473	20.851269
193.324758	-2.998000	3.846400	-11.530000	22.300478	0.000473	20.847229
194.326816	-3.007100	3.847000	-11.567000	22.298881	0.000472	20.840888
195.324375	-3.002500	3.847800	-11.553000	22.308825	0.000471	20.829983
196.323990	-3.006400	3.845600	-11.560000	22.336413	0.000474	20.841486
197.327024	-3.020900	3.846600	-11.619000	22.332873	0.000473	20.857854
198.324554	-3.006700	3.846200	-11.563000	22.346082	0.000473	20.839788
199.324082	-2.984300	3.846900	-11.479000	22.371552	0.000474	20.850120
200.323943	-3.010000	3.847000	-11.578000	22.372372	0.000476	20.862794
201.326330	-3.006100	3.847100	-11.562000	22.361948	0.000475	20.858993
202.325592	-3.004700	3.847200	-11.559000	22.369552	0.000475	20.846220
203.325822	-3.001900	3.845500	-11.543000	22.352506	0.000476	20.856651
204.326810	-3.008200	3.846200	-11.569000	22.375185	0.000477	20.858024
205.325860	-2.993700	3.845500	-11.511000	22.373488	0.000477	20.858222
206.328187	-2.979500	3.846000	-11.457000	22.411015	0.000478	20.846963
207.327384	-2.985600	3.845400	-11.481000	22.396707	0.000478	20.852550
208.331837	-2.984600	3.845200	-11.475000	22.436477	0.000478	20.840693
209.328606	-3.003100	3.844200	-11.543000	22.439840	0.000476	20.853070
210.333140	-2.999400	3.843100	-11.526000	22.439540	0.000480	20.838546
211.336296	-3.010000	3.842800	-11.566000	22.449628	0.000478	20.860501
212.329754	-3.005300	3.844500	-11.554000	22.459122	0.000479	20.877120
213.333879	-3.024400	3.843500	-11.624000	22.459617	0.000482	20.879512
214.336195	-3.009800	3.844300	-11.569000	22.456398	0.000480	20.858746
215.331955	-2.986600	3.844100	-11.480000	22.471948	0.000478	20.852508
216.334106	-2.981800	3.843300	-11.459000	22.478449	0.000480	20.869923
217.335876	-2.992700	3.843300	-11.500000	22.474011	0.000480	20.873065
218.331000	-2.992600	3.841600	-11.495000	22.471192	0.000480	20.876405
219.334484	-2.995800	3.842700	-11.510000	22.486565	0.000480	20.857189
220.335507	-2.986900	3.842900	-11.477000	22.496479	0.000480	20.848152
221.333165	-2.995100	3.843500	-11.510000	22.488003	0.000481	20.885654
222.337350	-3.009800	3.841100	-11.560000	22.505892	0.000480	20.868483
223.334430	-3.031600	3.840600	-11.642000	22.499362	0.000482	20.870953
224.334327	-3.016800	3.841100	-11.586000	22.534171	0.000482	20.853658
225.336112	-3.015200	3.840200	-11.578000	22.517149	0.000483	20.869325
226.338347	-3.000000	3.840500	-11.520000	22.544085	0.000481	20.889189
227.335717	-3.007800	3.840500	-11.551000	22.545724	0.000484	20.871866
228.338442	-2.995900	3.841800	-11.509000	22.575822	0.000482	20.876880
229.339280	-3.031200	3.838900	-11.635000	22.574995	0.000487	20.886482
230.339652	-2.998500	3.840200	-11.514000	22.594529	0.000485	20.901304
231.338663	-3.015200	3.839700	-11.577000	22.590590	0.000485	20.873653
232.341077	-2.983400	3.840400	-11.456000	22.589240	0.000486	20.877517
233.336382	-3.029700	3.838700	-11.629000	22.612685	0.000486	20.891514
234.340743	-3.030600	3.837600	-11.629000	22.622919	0.000485	20.875213
235.339990	-2.988200	3.840100	-11.474000	22.628127	0.000487	20.879955
236.339587	-2.996700	3.841000	-11.509000	22.640806	0.000484	20.877482
237.339298	-2.996400	3.839300	-11.503000	22.653637	0.000485	20.877531
238.342220	-3.024400	3.839400	-11.611000	22.653955	0.000486	20.883065
239.338995	-2.989700	3.838400	-11.474000	22.694192	0.000486	20.869790
240.339597	-2.986800	3.839100	-11.466000	22.627643	0.000491	20.893220
241.344234	-3.005600	3.837900	-11.534000	22.657265	0.000491	20.869786
242.340724	-3.006600	3.838000	-11.538000	22.680086	0.000489	20.896910
243.340289	-2.989400	3.837700	-11.471000	22.685866	0.000489	20.886104
244.342311	-3.024800	3.837100	-11.606000	22.651232	0.000489	20.885553
245.339819	-3.029900	3.836100	-11.621000	22.679560	0.000490	20.907287
246.342504	-2.981600	3.836300	-11.437000	22.709700	0.000492	20.887693
247.341219	-3.009600	3.837600	-11.549000	22.693655	0.000493	20.893906
248.342604	-3.002900	3.837200	-11.522000	22.704119	0.000490	20.908179
249.343267	-3.002900	3.836600	-11.520000	22.676038	0.000490	20.897123
250.345492	-3.000100	3.837400	-11.511000	22.710248	0.000490	20.911947
251.343533	-2.988000	3.836300	-11.463000	22.721955	0.000491	20.909924
252.344002	-3.016400	3.835000	-11.566000	22.723548	0.000493	20.916260
253.344730	-3.009900	3.836000	-11.544000	22.734732	0.000492	20.919876
254.343696	-2.998600	3.835300	-11.500000	22.720079	0.000492	20.898563
255.343789	-3.003200	3.835000	-11.517000	22.714579	0.000491	20.885468
256.345012	-3.018500	3.834800	-11.574000	22.724841	0.000493	20.898117
257.345944	-2.988700	3.836300	-11.464000	22.726583	0.000493	20.900336
258.347714	-3.003800	3.835400	-11.519000	22.752592	0.000493	20.905526
259.347413	-2.992000	3.835100	-11.475000	22.765973	0.000493	20.884792
260.345832	-3.000500	3.834100	-11.503000	22.736894	0.000494	20.888854
261.344127	-3.003400	3.833200	-11.512000	22.775136	0.000494	20.863627
262.346270	-3.020900	3.834500	-11.582000	22.772518	0.000494	20.894193
263.345266	-3.023300	3.833100	-11.588000	22.801663	0.000498	20.892569
264.344136	-3.004200	3.833500	-11.516000	22.807668	0.000496	20.912808
265.346015	-3.042100	3.832100	-11.656000	22.802681	0.000496	20.895485
266.346537	-3.014000	3.833600	-11.553000	22.773412	0.000497	20.889399
267.345147	-3.003100	3.833000	-11.510000	22.804274	0.000495	20.903718
268.348043	-3.010700	3.833000	-11.539000	22.806817	0.000496	20.904369
269.349480	-3.003800	3.832200	-11.511000	22.816827	0.000497	20.884528
270.346821	-2.998300	3.832200	-11.490000	22.836357	0.000497	20.875169
271.349103	-2.987900	3.833000	-11.451000	22.836604	0.000498	20.901967
272.349519	-2.974700	3.833300	-11.402000	22.852866	0.000497	20.884595
273.348955	-2.993800	3.831500	-11.470000	22.911476	0.000498	20.890207
274.348984	-3.008600	3.830800	-11.524000	22.921115	0.000499	20.860036
275.349083	-3.031900	3.831100	-11.614000	22.907962	0.000500	20.871989
276.348803	-3.019800	3.831500	-11.569000	22.912942	0.000499	20.880771
277.349338	-2.997100	3.831200	-11.482000	22.937125	0.000499	20.868015
278.350123	-3.024200	3.831200	-11.585000	22.944097	0.000501	20.880215
279.349164	-3.022700	3.830400	-11.577000	22.966665	0.000501	20.889075
280.350246	-3.003700	3.829700	-11.502000	22.956596	0.000500	20.866187
281.350111	-3.006900	3.830200	-11.516000	22.961626	0.000501	20.847045
282.352833	-3.003000	3.829400	-11.499000	22.941823	0.000502	20.881730
283.350979	-3.017500	3.829900	-11.556000	22.939927	0.000502	20.897847
284.353501	-2.989700	3.830000	-11.450000	22.943310	0.000502	20.890332
285.350736	-3.011100	3.828800	-11.528000	22.970957	0.000503	20.872039
286.351376	-3.002500	3.828800	-11.495000	22.991056	0.000501	20.872262
287.358547	-3.014500	3.828500	-11.540000	22.971201	0.000502	20.877499
288.352857	-3.028500	3.827100	-11.590000	23.010332	0.000501	20.863127
289.353301	-3.000700	3.829700	-11.490000	23.032595	0.000504	20.870734
290.356461	-3.025800	3.828700	-11.584000	23.013938	0.000502	20.861998
291.355814	-2.994700	3.828200	-11.464000	23.002280	0.000503	20.855534
292.356733	-3.020300	3.827300	-11.559000	22.999289	0.000506	20.863442
293.357026	-3.026100	3.827800	-11.582000	22.992462	0.000503	20.858025
294.353200	-2.997600	3.827900	-11.474000	23.035950	0.000505	20.868881
295.355749	-3.012000	3.827500	-11.527000	23.035498	0.000504	20.882652
296.357978	-3.003600	3.826700	-11.493000	23.033606	0.000504	20.880755
297.353877	-2.994600	3.827300	-11.460000	23.042445	0.000504	20.868276
298.360488	-2.997000	3.826800	-11.468000	23.057112	0.000506	20.859738
299.364178	-2.999600	3.825500	-11.474000	23.023414	0.000505	20.855846
300.352489	-2.986200	3.825400	-11.423000	23.037261	0.000507	20.871616
301.358571	-3.016000	3.825100	-11.536000	23.052750	0.000505	20.853946
302.359788	-2.993900	3.825900	-11.453000	23.076736	0.000507	20.875133
303.353657	-3.014500	3.824200	-11.526000	23.098651	0.000506	20.856317
304.357114	-2.974600	3.826100	-11.380000	23.105845	0.000507	20.865421
305.357590	-2.994300	3.825600	-11.454000	23.098970	0.000507	20.878920
306.355793	-2.985100	3.825100	-11.417000	23.111823	0.000506	20.856239
307.357750	-2.975800	3.826400	-11.385000	23.072569	0.000506	20.869062
308.358250	-2.991800	3.825400	-11.444000	23.078371	0.000510	20.858756
309.354683	-3.000400	3.823000	-11.470000	23.087959	0.000511	20.835173
310.358083	-3.011200	3.823400	-11.511000	23.106732	0.000510	20.843552
311.358215	-2.996800	3.824200	-11.460000	23.117071	0.000510	20.855334
312.354572	-2.996600	3.822600	-11.454000	23.105987	0.000511	20.859400
313.361864	-3.004900	3.823100	-11.487000	23.092882	0.000511	20.861442
314.358415	-2.990300	3.823000	-11.431000	23.121097	0.000508	20.856998
315.356686	-3.017700	3.823400	-11.537000	23.129117	0.000510	20.854602
316.361507	-3.006400	3.820700	-11.485000	23.121892	0.000510	20.871544
317.360244	-2.994200	3.822800	-11.446000	23.129110	0.000512	20.861234
318.358270	-3.019000	3.821600	-11.537000	23.128213	0.000514	20.859861
319.363038	-2.988100	3.820700	-11.416000	23.159217	0.000513	20.861531
320.360583	-3.005700	3.821400	-11.485000	23.172862	0.000514	20.846755
321.358723	-3.017200	3.821300	-11.528000	23.181898	0.000514	20.863396
322.363420	-2.986500	3.822200	-11.414000	23.183042	0.000512	20.865017
323.365638	-3.022300	3.819800	-11.544000	23.155521	0.000513	20.841233
324.358706	-3.008900	3.819600	-11.491000	23.181397	0.000514	20.856256
325.360541	-3.006700	3.821600	-11.489000	23.179148	0.000512	20.859218
326.362198	-3.004900	3.819900	-11.477000	23.182213	0.000515	20.873669
327.358124	-3.001700	3.819500	-11.465000	23.218893	0.000515	20.846891
328.369482	-3.010600	3.820100	-11.500000	23.207612	0.000516	20.842698
329.360787	-2.981300	3.820400	-11.389000	23.234080	0.000514	20.836981
330.358737	-2.987600	3.820000	-11.412000	23.254972	0.000516	20.860287
331.359974	-2.974100	3.820000	-11.361000	23.247748	0.000516	20.851152
332.359681	-2.973200	3.819400	-11.355000	23.259075	0.000516	20.836426
333.358422	-2.958800	3.820700	-11.304000	23.270155	0.000517	20.867442
334.359601	-3.002200	3.818200	-11.462000	23.259171	0.000515	20.840315
335.362327	-2.999300	3.818600	-11.452000	23.247046	0.000518	20.852345
336.359703	-2.993900	3.818700	-11.432000	23.235310	0.000518	20.847222
337.363758	-3.001100	3.817000	-11.454000	23.241340	0.000519	20.836670
338.364809	-3.008300	3.818100	-11.484000	23.264771	0.000517	20.851616
339.361071	-2.998000	3.817700	-11.445000	23.268429	0.000519	20.837265
340.364161	-3.008300	3.816500	-11.480000	23.242927	0.000518	20.851061
341.364437	-2.985700	3.817800	-11.397000	23.278111	0.000519	20.828950
342.359434	-3.009200	3.816200	-11.483000	23.259412	0.000517	20.838185
343.363316	-3.008100	3.816400	-11.479000	23.295391	0.000519	20.844371
344.362906	-2.991400	3.817200	-11.419000	23.289388	0.000519	20.832192
345.360102	-3.015300	3.815700	-11.504000	23.332141	0.000518	20.845167
346.364043	-3.002900	3.816000	-11.458000	23.326115	0.000519	20.852403
347.367802	-2.977100	3.816500	-11.362000	23.329723	0.000519	20.822830
348.365672	-2.984500	3.815300	-11.386000	23.310177	0.000520	20.816517
349.362754	-2.999800	3.815400	-11.445000	23.323601	0.000519	20.840875
350.372322	-2.998100	3.814600	-11.435000	23.331962	0.000520	20.846410
351.363258	-2.982500	3.815000	-11.377000	23.322725	0.000519	20.821032
352.363115	-2.998000	3.814300	-11.435000	23.337716	0.000517	20.838901
353.366855	-3.004400	3.814700	-11.460000	23.324865	0.000521	20.848306
354.362915	-2.994600	3.814500	-11.422000	23.322577	0.000522	20.849806
355.366836	-3.023400	3.812600	-11.526000	23.338910	0.000520	20.835830
356.367947	-2.988200	3.814100	-11.397000	23.329473	0.000521	20.825898
357.364364	-3.011000	3.813900	-11.482000	23.327361	0.000522	20.826152
358.368020	-2.998300	3.813900	-11.434000	23.317172	0.000518	20.831587
359.365376	-2.983600	3.813700	-11.378000	23.347598	0.000521	20.829365
360.366060	-3.008000	3.812300	-11.467000	23.375362	0.000520	20.832062
361.364507	-2.988500	3.812700	-11.394000	23.398892	0.000522	20.815817
362.368361	-2.995700	3.811800	-11.417000	23.413384	0.000519	20.824652
363.365190	-2.995900	3.811500	-11.418000	23.403870	0.000519	20.833134
364.366652	-3.014100	3.810900	-11.485000	23.402377	0.000521	20.830215
365.372082	-2.979100	3.810800	-11.352000	23.413483	0.000521	20.818587
366.366745	-3.015600	3.810100	-11.489000	23.416297	0.000521	20.828045
367.367256	-3.022900	3.809900	-11.515000	23.429366	0.000520	20.817437
368.369108	-2.990300	3.809300	-11.390000	23.448987	0.000523	20.815767
369.366557	-2.998900	3.809600	-11.423000	23.470496	0.000522	20.834956
370.366302	-3.028100	3.809700	-11.535000	23.475378	0.000521	20.814246
371.369021	-2.996200	3.810200	-11.415000	23.477842	0.000523	20.825724
372.369373	-2.999800	3.808500	-11.424000	23.467463	0.000522	20.806786
373.368975	-2.998800	3.808000	-11.418000	23.467986	0.000524	20.825802
374.369603	-3.003800	3.807500	-11.436000	23.463951	0.000524	20.824602
375.370176	-3.003100	3.808100	-11.434000	23.475752	0.000524	20.811776
376.368151	-3.003300	3.807700	-11.435000	23.493904	0.000524	20.826651
377.369206	-3.032900	3.807900	-11.547000	23.495397	0.000525	20.810130
378.371522	-3.005000	3.807700	-11.441000	23.458973	0.000524	20.814398
379.370280	-3.022500	3.807800	-11.508000	23.475854	0.000525	20.823258
380.369986	-3.008400	3.807400	-11.453000	23.475530	0.000525	20.801595
381.369690	-2.987300	3.808100	-11.375000	23.518575	0.000525	20.807285
382.370594	-3.000700	3.806400	-11.421000	23.534859	0.000524	20.799900
383.370349	-3.023500	3.806400	-11.508000	23.517131	0.000527	20.813424
384.369896	-3.037900	3.804900	-11.558000	23.554026	0.000524	20.814373
385.371719	-3.002500	3.806700	-11.428000	23.543923	0.000526	20.792391
386.371779	-3.014000	3.805200	-11.468000	23.530128	0.000525	20.805116
387.372602	-3.005800	3.804900	-11.436000	23.506951	0.000526	20.808909
388.372612	-2.986500	3.805400	-11.365000	23.510089	0.000525	20.822960
389.371554	-3.005100	3.804700	-11.433000	23.499184	0.000526	20.813452
390.372408	-2.979400	3.806200	-11.340000	23.521645	0.000526	20.817475
391.372173	-2.997400	3.804500	-11.403000	23.539793	0.000525	20.813381
392.371013	-2.993900	3.804600	-11.389000	23.509693	0.000526	20.810236
393.372724	-3.002500	3.804800	-11.423000	23.529313	0.000529	20.808565
394.375427	-3.005400	3.804600	-11.433000	23.548505	0.000526	20.789872
395.375087	-3.006100	3.803100	-11.431000	23.544699	0.000527	20.814506
396.374006	-2.994800	3.803000	-11.389000	23.530679	0.000528	20.781012
397.375324	-2.996600	3.803900	-11.398000	23.589486	0.000527	20.784486
398.374128	-3.000500	3.804100	-11.413000	23.620205	0.000529	20.799160
399.373663	-2.991700	3.803000	-11.376000	23.641065	0.000529	20.794468
400.377943	-2.993600	3.803100	-11.384000	23.670039	0.000530	20.798385
401.375702	-3.012800	3.803000	-11.456000	23.638947	0.000529	20.797087
402.375668	-2.997200	3.802800	-11.397000	23.636607	0.000531	20.805172
403.375727	-2.987700	3.802100	-11.359000	23.658141	0.000529	20.785983
404.376191	-3.004000	3.802300	-11.422000	23.652815	0.000532	20.800558
405.380798	-3.007500	3.802300	-11.434000	23.673053	0.000528	20.804252
406.378333	-3.003000	3.801000	-11.413000	23.663544	0.000528	20.792822
407.378808	-2.998300	3.800500	-11.394000	23.679649	0.000528	20.803753
408.379587	-2.988600	3.801800	-11.361000	23.681866	0.000531	20.787957
409.378057	-3.018700	3.800000	-11.470000	23.662697	0.000531	20.800982
410.382623	-3.022700	3.800400	-11.487000	23.649281	0.000528	20.812188
411.381834	-3.015500	3.800100	-11.458000	23.683510	0.000529	20.784390
412.379717	-2.992900	3.800300	-11.373000	23.671909	0.000532	20.800734
413.381210	-2.977300	3.799800	-11.312000	23.669223	0.000532	20.772437
414.384716	-3.009700	3.799800	-11.435000	23.678633	0.000531	20.800363
415.380435	-2.986200	3.800700	-11.349000	23.645254	0.000531	20.802935
416.382635	-2.988700	3.798700	-11.352000	23.651180	0.000530	20.804608
417.383420	-2.993000	3.798400	-11.367000	23.656756	0.000531	20.780327
418.382256	-2.996400	3.798200	-11.380000	23.631735	0.000532	20.800288
419.382631	-2.966400	3.799300	-11.270000	23.666262	0.000531	20.789857
420.385052	-3.000700	3.797000	-11.394000	23.645133	0.000533	20.787641
421.383778	-2.986000	3.798000	-11.340000	23.651504	0.000532	20.781226
422.387799	-2.991200	3.796100	-11.354000	23.668527	0.000533	20.775059
423.385699	-3.017200	3.795000	-11.449000	23.651779	0.000534	20.763958
424.382485	-3.021400	3.796900	-11.471000	23.642765	0.000532	20.769146
425.384239	-2.995800	3.795900	-11.371000	23.638607	0.000533	20.788685
426.384694	-3.012300	3.795800	-11.433000	23.676691	0.000535	20.787985
427.386800	-2.996200	3.794600	-11.369000	23.726749	0.000533	20.770367
428.385502	-3.006300	3.795000	-11.408000	23.711096	0.000536	20.786916
429.388288	-2.992900	3.794800	-11.357000	23.716146	0.000537	20.796247
430.386339	-2.998000	3.795400	-11.377000	23.726851	0.000535	20.779004
431.386234	-3.006900	3.794700	-11.408000	23.686651	0.000537	20.769995
432.387906	-3.015400	3.793700	-11.439000	23.730387	0.000533	20.757419
433.386128	-3.000400	3.795000	-11.386000	23.716746	0.000536	20.767451
434.386418	-3.020300	3.794200	-11.458000	23.746043	0.000536	20.763158
435.386567	-3.014100	3.793400	-11.433000	23.747836	0.000536	20.760688
436.386054	-2.976300	3.793900	-11.291000	23.754555	0.000535	20.798246
437.387851	-2.996600	3.794900	-11.371000	23.732748	0.000537	20.759786
438.387656	-2.978300	3.793800	-11.297000	23.742408	0.000537	20.782274
439.388740	-2.988500	3.791600	-11.331000	23.748630	0.000537	20.765278
440.387491	-3.002100	3.792200	-11.384000	23.778250	0.000537	20.776010
441.389380	-2.980900	3.793700	-11.308000	23.792935	0.000539	20.759913
442.387809	-2.990500	3.792900	-11.342000	23.804733	0.000540	20.759415
443.389139	-2.996900	3.792000	-11.364000	23.824443	0.000535	20.774436
444.388659	-2.992800	3.791600	-11.346000	23.846093	0.000537	20.779075
445.389336	-2.998100	3.791500	-11.366000	23.794595	0.000537	20.782441
446.389638	-3.000400	3.791200	-11.374000	23.784590	0.000538	20.748700
447.391602	-2.988300	3.791600	-11.329000	23.835807	0.000538	20.751691
448.389565	-2.961100	3.791100	-11.224000	23.832620	0.000539	20.756557
449.390390	-2.995600	3.790500	-11.354000	23.835955	0.000539	20.762271
450.390954	-2.999300	3.790100	-11.367000	23.827320	0.000540	20.749819
451.391995	-3.006200	3.791400	-11.396000	23.828908	0.000540	20.752360
452.390820	-2.997500	3.790700	-11.362000	23.846204	0.000538	20.757849
453.391659	-2.989500	3.790300	-11.330000	23.853442	0.000539	20.776013
454.392993	-3.005000	3.788600	-11.384000	23.831665	0.000538	20.757970
455.391664	-3.012300	3.789700	-11.415000	23.852744	0.000539	20.750655
456.393238	-3.005700	3.788000	-11.385000	23.858415	0.000539	20.775783
457.391450	-2.993600	3.789300	-11.343000	23.840569	0.000540	20.765950
458.394184	-3.001000	3.789100	-11.370000	23.865057	0.000540	20.766321
459.393666	-3.002800	3.787600	-11.373000	23.823218	0.000540	20.755663
460.397139	-2.995600	3.785800	-11.339000	23.817837	0.000539	20.774924
461.394809	-3.009000	3.788200	-11.398000	23.836801	0.000540	20.754111
462.395375	-3.016200	3.786500	-11.420000	23.860841	0.000537	20.754507
463.395239	-3.010900	3.786200	-11.398000	23.817036	0.000539	20.749939
464.399248	-3.011900	3.786500	-11.403000	23.848765	0.000540	20.768004
465.398989	-3.026500	3.786100	-11.458000	23.863449	0.000540	20.771348
466.396884	-3.006600	3.785100	-11.380000	23.874795	0.000540	20.764706
467.395382	-3.006500	3.785100	-11.379000	23.910704	0.000541	20.754721
468.399066	-3.003000	3.784900	-11.365000	23.908488	0.000540	20.755344
469.398541	-2.989300	3.785100	-11.314000	23.895894	0.000539	20.751724
470.397029	-3.013300	3.784600	-11.403000	23.902363	0.000541	20.748727
471.399945	-3.012700	3.784100	-11.398000	23.910698	0.000542	20.766569
472.400842	-2.995600	3.784800	-11.338000	23.893001	0.000540	20.741710
473.398605	-3.012200	3.783400	-11.395000	23.926122	0.000541	20.746474
474.401512	-2.988200	3.783900	-11.306000	23.974475	0.000542	20.747546
475.400414	-3.002600	3.783900	-11.361000	23.981663	0.000541	20.750487
476.398474	-2.999200	3.784100	-11.348000	23.991793	0.000542	20.751637
477.400994	-2.988700	3.783000	-11.305000	23.976459	0.000541	20.760916
478.400332	-3.005300	3.782100	-11.366000	23.940845	0.000543	20.775463
479.400071	-3.011900	3.781900	-11.389000	23.929420	0.000541	20.737452
480.401120	-2.995900	3.783100	-11.334000	23.928150	0.000540	20.756094
481.400314	-3.024200	3.781600	-11.436000	23.919963	0.000541	20.751203
482.399600	-3.014400	3.780800	-11.397000	23.927133	0.000541	20.754600
483.401796	-3.022300	3.781300	-11.427000	23.965973	0.000542	20.754194
484.401536	-2.998800	3.781200	-11.338000	23.999395	0.000541	20.734130
485.402264	-3.015300	3.781600	-11.401000	24.019751	0.000542	20.755492
486.404520	-3.020200	3.779800	-11.414000	23.983613	0.000541	20.744856
487.403389	-2.961900	3.782300	-11.202000	24.006710	0.000543	20.750949
488.403600	-2.998600	3.780300	-11.334000	24.036620	0.000542	20.731158
489.404247	-2.984000	3.780900	-11.281000	24.051001	0.000541	20.757910
490.405517	-2.989000	3.778900	-11.294000	24.046076	0.000541	20.751547
491.404555	-3.007500	3.778700	-11.364000	24.018703	0.000542	20.754916
492.404816	-2.998900	3.779500	-11.333000	24.012853	0.000542	20.749997
493.405968	-2.999000	3.779100	-11.332000	24.069638	0.000543	20.735822
494.405646	-3.000700	3.778400	-11.337000	24.082548	0.000542	20.753986
495.406713	-3.007300	3.777400	-11.359000	24.068019	0.000542	20.738465
496.405534	-3.008000	3.776900	-11.360000	24.039055	0.000541	20.754463
497.405917	-2.991200	3.778500	-11.301000	24.025990	0.000542	20.748473
498.405719	-3.014000	3.777800	-11.385000	24.055130	0.000541	20.759679
499.406897	-2.990800	3.777700	-11.297000	24.070732	0.000542	20.741661
500.406073	-3.006900	3.778000	-11.359000	24.049580	0.000541	20.744156
501.405968	-3.020300	3.775800	-11.403000	24.071776	0.000542	20.763572
502.407886	-2.993000	3.776000	-11.301000	24.078469	0.000541	20.741360
503.406656	-3.008100	3.777300	-11.361000	24.065182	0.000542	20.759803
504.407143	-3.007100	3.776300	-11.355000	24.063167	0.000541	20.754463
505.408641	-3.028300	3.775700	-11.434000	24.088002	0.000541	20.737644
506.407855	-3.014300	3.774900	-11.378000	24.070213	0.000542	20.742563
507.409089	-2.982900	3.775700	-11.262000	24.076034	0.000543	20.742237
508.409422	-2.990300	3.774700	-11.286000	24.039679	0.000543	20.757460
509.408532	-2.997800	3.776100	-11.320000	24.071656	0.000544	20.751123
510.410321	-2.990900	3.775200	-11.290000	24.024373	0.000544	20.740688
511.411751	-2.987300	3.775200	-11.277000	24.012581	0.000545	20.732180
512.412281	-2.989700	3.773900	-11.282000	24.066878	0.000543	20.752021
513.415341	-2.978000	3.773900	-11.238000	24.085289	0.000542	20.752942
514.412119	-2.973700	3.774700	-11.224000	24.109227	0.000545	20.747078
515.410616	-2.968700	3.772900	-11.199000	24.115623	0.000544	20.749226
516.412494	-2.997000	3.772700	-11.305000	24.103829	0.000545	20.734077
517.409370	-3.011000	3.771800	-11.355000	24.112861	0.000542	20.757835
518.413256	-3.003000	3.771800	-11.325000	24.104178	0.000545	20.736798
519.412737	-2.979900	3.773100	-11.242000	24.063964	0.000545	20.747676
520.412356	-2.989700	3.772000	-11.276000	24.082727	0.000545	20.745157
521.415185	-3.005600	3.771100	-11.334000	24.118210	0.000543	20.745181
522.411989	-3.006000	3.771700	-11.336000	24.145157	0.000545	20.764148
523.413273	-2.988600	3.772400	-11.273000	24.144437	0.000547	20.747304
524.413768	-3.009200	3.771500	-11.348000	24.143788	0.000548	20.769888
525.413116	-3.006000	3.770500	-11.333000	24.148018	0.000544	20.760854
526.414128	-2.974800	3.770200	-11.215000	24.143812	0.000545	20.772283
527.415958	-3.000700	3.770400	-11.313000	24.132809	0.000544	20.768360
528.414818	-2.978700	3.770200	-11.229000	24.167820	0.000546	20.767914
529.414805	-3.015800	3.769900	-11.368000	24.176750	0.000546	20.765964
530.415186	-3.003200	3.769800	-11.321000	24.153264	0.000546	20.759004
531.414079	-3.025200	3.768000	-11.397000	24.152813	0.000546	20.766138
532.414848	-2.995900	3.769000	-11.291000	24.166149	0.000547	20.752486
533.414930	-2.989700	3.768400	-11.266000	24.188068	0.000546	20.770204
534.416353	-2.996100	3.768600	-11.290000	24.132213	0.000546	20.764917
535.417749	-3.008500	3.767400	-11.333000	24.155724	0.000545	20.761471
536.415636	-3.008100	3.767400	-11.332000	24.203841	0.000546	20.759472
537.415427	-3.012300	3.768100	-11.350000	24.214290	0.000546	20.765211
538.416605	-2.967200	3.768300	-11.180000	24.216379	0.000547	20.758297
539.416606	-2.986500	3.766800	-11.248000	24.267008	0.000546	20.763088
540.420074	-2.991000	3.766600	-11.265000	24.302781	0.000546	20.760091
541.415871	-2.976200	3.767400	-11.212000	24.275389	0.000546	20.763435
542.416080	-3.013400	3.765800	-11.347000	24.256556	0.000549	20.754501
543.414818	-3.007700	3.765400	-11.325000	24.242897	0.000545	20.739851
544.415834	-3.002300	3.764900	-11.303000	24.231898	0.000546	20.754897
545.417842	-3.025000	3.765200	-11.389000	24.227195	0.000545	20.762509
546.419228	-3.011100	3.765300	-11.337000	24.242693	0.000544	20.755768
547.416818	-3.014900	3.763800	-11.347000	24.265658	0.000546	20.770743
548.417479	-3.002700	3.765000	-11.304000	24.277472	0.000547	20.755093
549.420003	-2.991600	3.764400	-11.260000	24.268590	0.000544	20.777952
550.420653	-2.993900	3.764500	-11.270000	24.256794	0.000546	20.768964
551.424807	-3.002400	3.763600	-11.299000	24.237261	0.000547	20.771183
552.421101	-2.985700	3.763200	-11.234000	24.260100	0.000546	20.784134
553.420592	-2.986700	3.763500	-11.238000	24.264481	0.000547	20.760553
554.421515	-2.993600	3.763400	-11.265000	24.257761	0.000545	20.773728
555.421378	-3.004800	3.762200	-11.304000	24.288854	0.000546	20.772200
556.422903	-3.015000	3.762400	-11.342000	24.317412	0.000546	20.766708
557.422637	-3.018500	3.763100	-11.357000	24.307285	0.000545	20.770300
558.423206	-2.997100	3.762200	-11.275000	24.314276	0.000546	20.771624
559.423588	-2.997700	3.762100	-11.277000	24.314023	0.000546	20.768050
560.423554	-3.013700	3.760500	-11.332000	24.335269	0.000545	20.756171
561.422132	-2.981500	3.761900	-11.215000	24.363999	0.000545	20.763182
562.423206	-2.998700	3.761400	-11.278000	24.336582	0.000547	20.782619
563.422719	-3.008100	3.759600	-11.309000	24.333696	0.000545	20.775931
564.423301	-2.993800	3.760700	-11.258000	24.381107	0.000547	20.770861
565.423730	-2.995700	3.760100	-11.263000	24.389189	0.000545	20.780391
566.423790	-3.003300	3.758800	-11.288000	24.406849	0.000546	20.759227
567.423778	-3.005300	3.759700	-11.298000	24.405929	0.000547	20.773477
568.426255	-3.009800	3.758800	-11.312000	24.438139	0.000543	20.774497
569.423295	-3.001300	3.759200	-11.282000	24.394582	0.000545	20.782483
570.424663	-3.003800	3.758000	-11.287000	24.362214	0.000543	20.773245
571.424536	-2.992600	3.760000	-11.251000	24.362313	0.000545	20.792785
572.429121	-2.995000	3.757900	-11.254000	24.351167	0.000543	20.772120
573.427155	-2.975800	3.758900	-11.185000	24.360042	0.000544	20.788610
574.426015	-2.992200	3.757500	-11.242000	24.365514	0.000543	20.790306
575.428370	-2.994800	3.756700	-11.249000	24.408002	0.000545	20.790256
576.430019	-2.993400	3.758100	-11.248000	24.383524	0.000544	20.782295
577.427615	-3.011600	3.756400	-11.312000	24.355687	0.000545	20.800362
578.430110	-3.002900	3.756300	-11.279000	24.307796	0.000544	20.798314
579.430790	-3.000700	3.756200	-11.271000	24.323817	0.000543	20.798738
580.429667	-3.014600	3.756700	-11.323000	24.351303	0.000546	20.810663
581.429441	-3.011400	3.754900	-11.306000	24.363098	0.000546	20.780296
582.431362	-3.000300	3.755200	-11.266000	24.371779	0.000544	20.790427
583.430901	-2.977800	3.754300	-11.178000	24.377994	0.000544	20.791446
584.430435	-2.993900	3.754600	-11.241000	24.359462	0.000544	20.784709
585.432959	-2.993800	3.755200	-11.241000	24.374735	0.000546	20.805721
586.429840	-3.008000	3.752800	-11.288000	24.399683	0.000544	20.791868
587.430703	-2.998500	3.753400	-11.254000	24.401796	0.000544	20.804419
588.432343	-2.989000	3.754300	-11.220000	24.386527	0.000542	20.773927
589.435186	-3.020800	3.752200	-11.335000	24.361699	0.000542	20.783160
590.432607	-3.013400	3.753300	-11.309000	24.329483	0.000544	20.779766
591.434058	-2.995800	3.753600	-11.244000	24.327738	0.000542	20.779438
592.433531	-3.018700	3.752400	-11.326000	24.371816	0.000544	20.784774
593.434596	-3.015000	3.752800	-11.313000	24.404657	0.000544	20.774098
594.434371	-3.016000	3.751900	-11.314000	24.412738	0.000543	20.811129
595.434105	-3.006800	3.751100	-11.278000	24.394083	0.000544	20.775818
596.436388	-2.980900	3.753600	-11.188000	24.355944	0.000544	20.784025
597.437455	-2.998600	3.752600	-11.251000	24.364325	0.000543	20.810450
598.437245	-3.007500	3.750100	-11.277000	24.435792	0.000543	20.812920
599.437671	-3.014700	3.749900	-11.304000	24.449724	0.000543	20.816939
600.439347	-3.013200	3.750200	-11.299000	24.462061	0.000545	20.790911
601.437359	-3.011100	3.752100	-11.296000	24.482257	0.000543	20.773240
602.437705	-3.004500	3.750300	-11.267000	24.505862	0.000542	20.808303
603.439888	-3.023000	3.749000	-11.332000	24.535607	0.000544	20.802111
604.437761	-2.995400	3.749600	-11.231000	24.519712	0.000542	20.822199
605.439858	-3.024800	3.748700	-11.339000	24.479987	0.000542	20.800834
606.441366	-2.995200	3.750600	-11.233000	24.432055	0.000543	20.802058
607.440909	-3.001300	3.749500	-11.253000	24.423825	0.000543	20.810872
608.439427	-2.994400	3.749400	-11.226000	24.397877	0.000541	20.814712
609.441485	-2.975900	3.749800	-11.158000	24.408671	0.000543	20.818427
610.440399	-2.999700	3.748500	-11.244000	24.443598	0.000543	20.817432
611.442650	-2.997900	3.748000	-11.235000	24.472647	0.000541	20.816704
612.444031	-3.007700	3.747500	-11.270000	24.531373	0.000539	20.810190
613.442499	-3.007600	3.747000	-11.268000	24.548213	0.000539	20.808120
614.440975	-3.012600	3.747400	-11.288000	24.577089	0.000539	20.815756
615.442990	-2.973100	3.748300	-11.143000	24.544979	0.000540	20.813884
616.442809	-2.999600	3.747500	-11.240000	24.498764	0.000538	20.817777
617.442589	-3.003400	3.746300	-11.251000	24.488120	0.000542	20.815158
618.443966	-3.009700	3.745800	-11.272000	24.478964	0.000539	20.804076
619.444398	-3.000300	3.745300	-11.235000	24.464564	0.000539	20.810965
620.447279	-2.989500	3.747400	-11.202000	24.452597	0.000541	20.811287
621.444335	-3.003800	3.745800	-11.251000	24.444887	0.000540	20.807820
622.444543	-3.016700	3.743600	-11.291000	24.416282	0.000538	20.829382
623.445476	-2.976900	3.746700	-11.153000	24.401581	0.000538	20.831703
624.444943	-3.004800	3.744200	-11.250000	24.445588	0.000540	20.803307
625.447527	-2.990400	3.745200	-11.198000	24.465283	0.000539	20.809316
626.445235	-2.996700	3.744400	-11.221000	24.503070	0.000539	20.813562
627.446175	-2.987900	3.743700	-11.185000	24.480339	0.000539	20.821576
628.448206	-3.003700	3.744700	-11.247000	24.469021	0.000538	20.828713
629.446137	-3.016500	3.744600	-11.295000	24.472181	0.000537	20.810546
630.451225	-2.991900	3.744000	-11.200000	24.484370	0.000539	20.809973
631.450223	-3.010400	3.742700	-11.266000	24.466608	0.000539	20.813016
632.450082	-2.975200	3.743500	-11.137000	24.505911	0.000539	20.832059
633.454958	-3.005000	3.742700	-11.246000	24.485914	0.000537	20.827643
634.451965	-2.974500	3.743200	-11.133000	24.511536	0.000537	20.813995
635.448665	-2.976100	3.742500	-11.137000	24.523922	0.000538	20.793232
636.455189	-3.010600	3.741900	-11.264000	24.566655	0.000536	20.828520
637.453534	-2.992500	3.742800	-11.199000	24.567973	0.000538	20.840274
638.451800	-3.012500	3.741300	-11.270000	24.543403	0.000537	20.827476
639.451179	-3.001400	3.741500	-11.229000	24.547906	0.000539	20.828675
640.453496	-2.999700	3.741600	-11.223000	24.581681	0.000539	20.815622
641.455102	-2.993500	3.741100	-11.198000	24.597031	0.000539	20.819644
642.453124	-2.993800	3.740400	-11.197000	24.613471	0.000540	20.813856
643.460149	-3.002000	3.741100	-11.230000	24.636382	0.000539	20.824516
644.454586	-2.983100	3.740400	-11.157000	24.613153	0.000538	20.829183
645.455679	-3.018200	3.738600	-11.282000	24.581940	0.000538	20.817779
646.456782	-3.001600	3.740500	-11.227000	24.621532	0.000538	20.843754
647.457643	-2.993600	3.740300	-11.196000	24.600647	0.000537	20.836075
648.459881	-3.010700	3.738800	-11.256000	24.623629	0.000536	20.808875
649.460813	-3.006400	3.740300	-11.244000	24.611244	0.000537	20.823474
650.460083	-3.025100	3.738400	-11.308000	24.575753	0.000536	20.830537
651.462784	-3.005700	3.738700	-11.237000	24.576352	0.000539	20.838250
652.460236	-3.030300	3.737300	-11.324000	24.597098	0.000536	20.822083
653.460220	-2.994800	3.738100	-11.194000	24.583020	0.000538	20.819811
654.459898	-2.996000	3.739100	-11.201000	24.611154	0.000537	20.818643
655.463943	-3.012800	3.737500	-11.259000	24.585785	0.000538	20.827326
656.460175	-2.980500	3.736300	-11.135000	24.562107	0.000536	20.843397
657.460402	-2.983600	3.737200	-11.150000	24.582576	0.000539	20.835012
658.459929	-2.965700	3.736400	-11.080000	24.593623	0.000536	20.827131
659.460575	-2.999100	3.736400	-11.205000	24.613467	0.000537	20.820964
660.460760	-2.979700	3.735100	-11.128000	24.585367	0.000537	20.829752
661.462359	-3.005900	3.736000	-11.230000	24.576787	0.000536	20.838213
662.462598	-3.003600	3.734900	-11.217000	24.613699	0.000536	20.824515
663.461090	-3.006500	3.735600	-11.231000	24.628573	0.000537	20.840862
664.460618	-3.014000	3.734000	-11.253000	24.648046	0.000538	20.835272
665.459520	-3.021000	3.734600	-11.281000	24.687617	0.000536	20.827564
666.460496	-3.002900	3.733700	-11.211000	24.703633	0.000536	20.831782
667.459409	-3.009200	3.734600	-11.237000	24.705925	0.000536	20.836926
668.463587	-2.986800	3.733700	-11.151000	24.708784	0.000535	20.834106
669.461770	-2.994200	3.734000	-11.180000	24.700381	0.000534	20.845588
670.462671	-3.017300	3.732800	-11.262000	24.701774	0.000535	20.818537
671.466289	-2.997000	3.733600	-11.189000	24.658531	0.000535	20.832516
672.464790	-3.003800	3.732300	-11.210000	24.689464	0.000535	20.835581
673.463685	-2.995700	3.733500	-11.184000	24.701305	0.000536	20.847462
674.462955	-2.993400	3.733000	-11.172000	24.708222	0.000538	20.845395
675.464818	-2.975400	3.732600	-11.105000	24.684946	0.000537	20.829625
676.464751	-2.962800	3.732000	-11.056000	24.684053	0.000536	20.850065
677.463396	-3.003400	3.731400	-11.206000	24.612750	0.000534	20.829253
678.465140	-3.003000	3.732300	-11.207000	24.605341	0.000533	20.853112
679.465994	-2.993900	3.732200	-11.173000	24.629419	0.000534	20.834599
680.465250	-3.021800	3.731700	-11.275000	24.652002	0.000536	20.833077
681.463698	-3.006900	3.730200	-11.216000	24.659661	0.000535	20.855461
682.464808	-3.009200	3.730400	-11.225000	24.660958	0.000535	20.841590
683.468335	-3.001900	3.730800	-11.199000	24.648052	0.000534	20.838122
684.465294	-3.011000	3.729800	-11.229000	24.638925	0.000536	20.846508
685.470494	-2.993000	3.730400	-11.163000	24.654720	0.000535	20.850028
686.466486	-3.019700	3.729000	-11.260000	24.662354	0.000535	20.840146
687.466770	-2.979400	3.729600	-11.111000	24.665813	0.000535	20.832237
688.467072	-2.988100	3.729700	-11.144000	24.652956	0.000535	20.834983
689.470150	-3.013800	3.728600	-11.236000	24.634379	0.000534	20.833886
690.465823	-2.991700	3.728100	-11.153000	24.677456	0.000533	20.845343
691.468836	-2.991300	3.728100	-11.151000	24.744428	0.000533	20.853753
692.472595	-3.013500	3.729200	-11.237000	24.774046	0.000533	20.845544
693.469526	-3.018300	3.728100	-11.252000	24.741146	0.000535	20.852355
694.470476	-3.001200	3.727700	-11.186000	24.763207	0.000533	20.848891
695.471825	-2.986900	3.727700	-11.133000	24.744950	0.000533	20.854751
696.469254	-3.013600	3.726700	-11.230000	24.766737	0.000536	20.862864
697.471765	-3.015200	3.727600	-11.239000	24.761635	0.000533	20.837831
698.472687	-3.005300	3.725800	-11.196000	24.751392	0.000534	20.845569
699.471255	-2.996900	3.726300	-11.166000	24.766360	0.000534	20.846839
700.471790	-2.995200	3.726600	-11.161000	24.780213	0.000534	20.857422
701.474651	-2.987400	3.726600	-11.132000	24.811498	0.000535	20.861317
702.474476	-2.993000	3.726400	-11.152000	24.818113	0.000535	20.856576
703.479376	-3.003700	3.726300	-11.192000	24.810081	0.000534	20.867481
704.477695	-2.985800	3.726500	-11.125000	24.770890	0.000534	20.869402
705.474219	-3.016400	3.725000	-11.235000	24.758655	0.000533	20.874667
706.479331	-2.992800	3.725800	-11.150000	24.761290	0.000532	20.861664
707.476664	-3.016900	3.724200	-11.235000	24.724559	0.000534	20.860366
708.479948	-3.018500	3.724600	-11.241000	24.721424	0.000531	20.870970
709.477969	-3.010200	3.723400	-11.206000	24.697080	0.000535	20.878308
710.482875	-3.004800	3.723600	-11.188000	24.726202	0.000531	20.860592
711.474961	-2.982700	3.725100	-11.110000	24.752087	0.000532	20.872343
712.478755	-3.006500	3.723200	-11.194000	24.739009	0.000534	20.868228
713.482637	-2.996200	3.723200	-11.155000	24.685393	0.000532	20.861841
714.474856	-2.999900	3.722500	-11.166000	24.698448	0.000533	20.885845
715.477803	-2.987200	3.723000	-11.120000	24.678130	0.000530	20.873518
716.476339	-3.004000	3.723400	-11.184000	24.695761	0.000532	20.885993
717.478241	-3.017300	3.722600	-11.231000	24.726526	0.000532	20.862814
718.476778	-3.017600	3.722900	-11.233000	24.706131	0.000532	20.870797
719.475143	-3.007200	3.721400	-11.190000	24.692950	0.000531	20.882225
720.510963	-2.996300	3.721200	-11.149000	24.678102	0.000532	20.864481
721.476907	-3.028700	3.719900	-11.265000	24.734058	0.000532	20.886966
722.477097	-2.990900	3.721300	-11.129000	24.779219	0.000531	20.884398
723.481942	-2.984400	3.720800	-11.103000	24.791902	0.000532	20.849238
724.476870	-2.987800	3.721400	-11.118000	24.838922	0.000529	20.875563
725.476238	-2.996300	3.720800	-11.148000	24.832681	0.000530	20.891110
726.476780	-3.012000	3.719600	-11.202000	24.827907	0.000530	20.869725
727.476810	-2.999000	3.720700	-11.158000	24.812588	0.000531	20.871894
728.475147	-2.989700	3.720100	-11.121000	24.765641	0.000531	20.878358
729.479050	-2.974800	3.721200	-11.069000	24.807817	0.000530	20.875166
730.476149	-2.994100	3.720100	-11.138000	24.813783	0.000530	20.893480
731.476611	-2.993300	3.718300	-11.129000	24.835664	0.000529	20.906904
732.476593	-2.991600	3.718700	-11.124000	24.820898	0.000530	20.886396
733.477056	-2.992100	3.719100	-11.127000	24.870279	0.000529	20.889015
734.475558	-3.021700	3.716800	-11.230000	24.877736	0.000532	20.903610
735.479756	-2.987400	3.718600	-11.107000	24.876964	0.000528	20.887190
736.478058	-2.993400	3.718400	-11.130000	24.879326	0.000530	20.893827
737.485552	-2.992100	3.716800	-11.120000	24.885940	0.000529	20.874388
738.480840	-3.003700	3.718100	-11.167000	24.898844	0.000527	20.894450
739.479458	-2.983100	3.717200	-11.088000	24.910108	0.000527	20.889634
740.480431	-3.004600	3.717000	-11.166000	24.922169	0.000528	20.905531
741.480408	-3.011900	3.716400	-11.192000	24.874852	0.000527	20.885070
742.481655	-3.010200	3.716300	-11.186000	24.853515	0.000529	20.904905
743.482790	-2.988000	3.716700	-11.105000	24.841828	0.000527	20.913563
744.490878	-2.995500	3.716000	-11.130000	24.805869	0.000524	20.909244
745.482610	-3.001100	3.715600	-11.150000	24.778515	0.000524	20.886536
746.482248	-2.974800	3.716900	-11.056000	24.785602	0.000526	20.889380
747.482586	-3.003200	3.715500	-11.158000	24.784660	0.000525	20.890806
748.482883	-2.998700	3.715600	-11.141000	24.755712	0.000524	20.896842
749.481353	-2.992100	3.715100	-11.115000	24.719182	0.000524	20.902383
750.481691	-2.994300	3.713700	-11.119000	24.734327	0.000523	20.902882
751.482926	-2.982500	3.714300	-11.076000	24.729179	0.000524	20.908621
752.488564	-2.999300	3.715000	-11.141000	24.775779	0.000521	20.905599
753.482606	-3.018300	3.712200	-11.203000	24.784833	0.000522	20.913737
754.483799	-3.007600	3.714000	-11.169000	24.778317	0.000522	20.877329
755.481970	-3.008100	3.714200	-11.171000	24.791723	0.000524	20.896470
756.483251	-3.000900	3.713000	-11.141000	24.816189	0.000522	20.885464
757.484050	-2.998000	3.712700	-11.129000	24.813950	0.000521	20.894596
758.486419	-2.988800	3.712900	-11.096000	24.769590	0.000523	20.887537
759.484033	-3.006100	3.712800	-11.160000	24.792068	0.000521	20.885439
760.485549	-3.001600	3.711800	-11.141000	24.817903	0.000520	20.860158
761.485688	-2.997600	3.713100	-11.130000	24.812582	0.000521	20.881370
762.485905	-3.018900	3.711200	-11.203000	24.838867	0.000521	20.877404
763.486261	-2.992600	3.712400	-11.109000	24.825737	0.000520	20.906898
764.485550	-3.037200	3.710300	-11.268000	24.849038	0.000518	20.892352
765.484813	-3.017000	3.710800	-11.194000	24.853463	0.000520	20.874035
766.487098	-2.994100	3.711300	-11.111000	24.876115	0.000520	20.897242
767.486346	-2.998000	3.710800	-11.124000	24.842081	0.000518	20.889163
768.488207	-3.006300	3.708900	-11.149000	24.849514	0.000520	20.881451
769.485957	-2.996800	3.710800	-11.120000	24.865107	0.000521	20.863911
770.486080	-3.007600	3.709300	-11.156000	24.915431	0.000521	20.867004
771.485883	-2.983500	3.710100	-11.068000	24.896988	0.000519	20.867459
772.485651	-3.000700	3.709600	-11.131000	24.894302	0.000517	20.873298
773.486930	-2.992300	3.709800	-11.099000	24.892764	0.000518	20.874599
774.485823	-2.966000	3.709700	-11.002000	24.842683	0.000519	20.882656
775.487864	-3.003300	3.707900	-11.134000	24.817717	0.000517	20.878937
776.488107	-3.017000	3.708000	-11.186000	24.839132	0.000517	20.858231
777.489108	-3.017800	3.707900	-11.188000	24.847639	0.000521	20.852544
778.488523	-3.007800	3.707400	-11.150000	24.837122	0.000521	20.885135
779.488485	-2.997800	3.706900	-11.111000	24.810442	0.000518	20.880171
780.498411	-2.990600	3.706500	-11.083000	24.843288	0.000518	20.861454
781.487467	-2.992500	3.707300	-11.093000	24.906125	0.000517	20.882318
782.488360	-3.001800	3.706700	-11.126000	24.917093	0.000518	20.835008
783.492896	-3.000800	3.706800	-11.122000	24.918936	0.000518	20.860564
784.490078	-2.987200	3.706500	-11.071000	24.955660	0.000518	20.850010
785.491116	-3.008100	3.706900	-11.150000	24.955435	0.000517	20.855947
786.493627	-3.018400	3.705500	-11.184000	24.965979	0.000517	20.860366
787.490795	-3.014000	3.705200	-11.167000	24.976495	0.000518	20.861912
788.491986	-3.002300	3.705300	-11.123000	24.956083	0.000516	20.856124
789.494177	-2.982200	3.705400	-11.049000	24.906483	0.000519	20.830049
790.492786	-2.994100	3.704400	-11.090000	24.876622	0.000519	20.860769
791.496653	-2.955500	3.707100	-10.955000	24.891168	0.000516	20.846446
792.494137	-2.973400	3.706300	-11.020000	24.946888	0.000517	20.857800
793.495626	-3.016600	3.703700	-11.171000	24.950939	0.000516	20.885572
794.494749	-2.994100	3.704800	-11.091000	24.917624	0.000518	20.864463
795.496619	-2.998400	3.703200	-11.103000	24.940571	0.000518	20.861417
796.496272	-3.019300	3.702700	-11.179000	24.918121	0.000517	20.845048
797.495868	-3.020300	3.703300	-11.184000	24.946515	0.000517	20.849365
798.496954	-3.002200	3.703600	-11.118000	24.991611	0.000515	20.849111
799.498563	-2.987200	3.701400	-11.056000	25.012893	0.000517	20.836808
800.498933	-2.988100	3.702700	-11.063000	25.010904	0.000515	20.852830
801.498515	-3.003700	3.703300	-11.123000	25.009389	0.000515	20.852256
802.499663	-2.975300	3.702900	-11.016000	24.955061	0.000517	20.844193
803.499808	-3.018700	3.702500	-11.176000	24.964583	0.000516	20.854224
804.499166	-3.010400	3.701100	-11.140000	24.951208	0.000515	20.837007
805.499839	-2.971800	3.702700	-11.003000	24.974602	0.000514	20.847211
806.499496	-2.985000	3.701000	-11.046000	24.993723	0.000512	20.845541
807.499141	-3.005300	3.702300	-11.126000	24.951554	0.000511	20.841147
808.500129	-3.017800	3.700400	-11.165000	25.003072	0.000510	20.837382
809.500836	-2.997200	3.700700	-11.091000	25.031713	0.000511	20.855699
810.499734	-3.007100	3.700600	-11.127000	25.077831	0.000511	20.827552
811.502266	-2.988000	3.700000	-11.055000	25.087352	0.000510	20.848014
812.500075	-2.993100	3.701600	-11.078000	25.077013	0.000513	20.850911
813.500171	-2.997100	3.700000	-11.088000	25.044248	0.000509	20.847893
814.501402	-2.993700	3.699600	-11.074000	25.059240	0.000509	20.863890
815.502309	-3.010400	3.699200	-11.135000	25.027218	0.000512	20.835067
816.501974	-3.017800	3.699100	-11.162000	24.999027	0.000510	20.849443
817.502075	-3.018700	3.698400	-11.163000	25.018398	0.000508	20.830954
818.502834	-3.001400	3.698400	-11.099000	24.975587	0.000508	20.825441
819.503382	-2.997500	3.699100	-11.087000	24.972382	0.000508	20.826018
820.503158	-2.977800	3.698600	-11.013000	25.020117	0.000508	20.845008
821.503036	-2.990100	3.699400	-11.061000	25.009031	0.000507	20.824397
822.504823	-3.025900	3.696000	-11.183000	24.950553	0.000506	20.839195
823.504237	-3.012000	3.697900	-11.138000	24.975297	0.000507	20.846486
824.505513	-3.004100	3.696100	-11.101000	24.965676	0.000506	20.824028
825.506038	-3.015000	3.697400	-11.146000	24.993152	0.000505	20.826003
826.505910	-3.012000	3.697000	-11.135000	25.005412	0.000506	20.829300
827.509216	-3.008300	3.696900	-11.120000	24.994745	0.000505	20.838033
828.505290	-3.011800	3.696000	-11.131000	24.967100	0.000505	20.826405
829.506898	-2.982600	3.696900	-11.026000	25.009540	0.000505	20.807365
830.506416	-2.999500	3.695100	-11.082000	25.001312	0.000503	20.838935
831.507951	-2.997400	3.696400	-11.078000	25.010837	0.000503	20.823840
832.507360	-2.990200	3.695900	-11.050000	24.995968	0.000503	20.831674
833.507499	-2.983500	3.694900	-11.022000	24.964939	0.000503	20.837986
834.508360	-3.020600	3.695400	-11.162000	24.978193	0.000502	20.819997
835.510662	-2.989100	3.696300	-11.048000	25.014246	0.000504	20.816356
836.514261	-3.008900	3.695500	-11.119000	25.022424	0.000504	20.817453
837.513032	-2.996400	3.695300	-11.071000	25.019167	0.000503	20.806123
838.510818	-2.988100	3.694300	-11.039000	25.041742	0.000502	20.837317
839.511600	-3.010400	3.694600	-11.120000	25.036151	0.000503	20.819377
840.521455	-2.973200	3.694500	-10.984000	25.006042	0.000501	20.823768
841.511494	-2.986400	3.693900	-11.031000	24.970191	0.000503	20.838516
842.515302	-3.016800	3.693300	-11.141000	24.976931	0.000503	20.841962
843.514219	-3.013600	3.693400	-11.130000	24.976684	0.000501	20.812318
844.513047	-3.008400	3.692700	-11.108000	24.993239	0.000501	20.798589
845.515718	-3.009900	3.691000	-11.109000	24.988212	0.000501	20.821993
846.514801	-3.024000	3.691200	-11.162000	24.964050	0.000501	20.806275
847.512834	-2.990600	3.691700	-11.040000	24.986449	0.000502	20.817852
848.515632	-2.968600	3.692100	-10.958000	25.012807	0.000501	20.802584
849.516110	-3.002300	3.691500	-11.082000	24.975560	0.000499	20.832526
850.512181	-3.000800	3.691000	-11.074000	24.986774	0.000499	20.830031
851.514821	-2.987900	3.690900	-11.027000	24.976011	0.000496	20.808323
852.515089	-3.012700	3.689600	-11.115000	24.968601	0.000500	20.810843
853.512845	-2.979400	3.689500	-10.992000	24.967208	0.000499	20.829359
854.513446	-2.996300	3.690500	-11.057000	24.968057	0.000496	20.826892
855.516458	-2.987000	3.690300	-11.022000	24.954108	0.000499	20.808624
856.514782	-2.998600	3.689800	-11.063000	24.969326	0.000497	20.792131
857.515199	-3.005000	3.689300	-11.085000	24.957467	0.000496	20.814840
858.516680	-3.017100	3.689300	-11.130000	24.926214	0.000496	20.815714
859.514146	-3.002100	3.688700	-11.073000	24.923260	0.000496	20.818913
860.514546	-3.018900	3.687400	-11.132000	24.929947	0.000496	20.792909
861.515576	-3.022500	3.686800	-11.142000	24.908414	0.000498	20.812547
862.515079	-3.014800	3.688700	-11.120000	24.936364	0.000496	20.801245
863.515447	-3.022500	3.688200	-11.147000	24.958668	0.000499	20.808934
864.518199	-3.011500	3.687600	-11.104000	24.939649	0.000497	20.820664
865.514423	-3.028300	3.687100	-11.163000	24.938182	0.000498	20.812554
866.515715	-3.014200	3.686200	-11.110000	24.938037	0.000497	20.801503
867.519151	-3.009600	3.687100	-11.096000	24.925529	0.000495	20.828777
868.513146	-3.021200	3.686500	-11.137000	24.954991	0.000496	20.797657
869.514166	-3.015600	3.686200	-11.115000	24.964816	0.000498	20.815104
870.517520	-2.992800	3.687100	-11.033000	24.961485	0.000492	20.798484
871.516858	-3.000700	3.684900	-11.057000	25.002283	0.000494	20.794390
872.517042	-3.006900	3.686500	-11.084000	25.050513	0.000496	20.813406
873.521279	-2.987100	3.686600	-11.011000	25.084899	0.000494	20.781542
874.516326	-2.994300	3.685400	-11.034000	25.055611	0.000494	20.801453
875.518532	-2.996800	3.685400	-11.044000	25.055811	0.000494	20.808293
876.520995	-3.010000	3.684800	-11.090000	25.077990	0.000492	20.789779
877.517747	-3.003300	3.686000	-11.069000	25.115530	0.000493	20.789531
878.519013	-3.006100	3.685100	-11.077000	25.167334	0.000494	20.786535
879.521204	-2.988000	3.684200	-11.007000	25.164130	0.000494	20.786163
880.518374	-3.010500	3.684400	-11.091000	25.071356	0.000492	20.782645
881.517180	-3.012100	3.683000	-11.093000	25.021162	0.000491	20.769245
882.520576	-2.987800	3.683200	-11.004000	24.999757	0.000493	20.786166
883.518271	-2.994700	3.682900	-11.028000	24.965104	0.000494	20.786944
884.519163	-2.996200	3.682600	-11.033000	24.963063	0.000494	20.783473
885.521086	-2.981600	3.684000	-10.983000	24.994367	0.000492	20.776962
886.519031	-3.006400	3.683000	-11.071000	25.013710	0.000491	20.784049
887.519765	-2.999900	3.682600	-11.046000	25.094356	0.000495	20.779181
888.520474	-2.999700	3.681500	-11.043000	25.105871	0.000494	20.803068
889.520258	-3.024200	3.682100	-11.134000	25.135526	0.000493	20.779258
890.520184	-3.010100	3.681400	-11.081000	25.175302	0.000490	20.783628
891.521052	-2.987700	3.681700	-10.999000	25.186362	0.000494	20.780507
892.521485	-2.987400	3.681900	-10.998000	25.210449	0.000492	20.792835
893.523012	-2.996100	3.681000	-11.027000	25.201401	0.000491	20.788968
894.523902	-3.012600	3.681100	-11.089000	25.137017	0.000495	20.789290
895.522383	-3.009500	3.680700	-11.076000	25.089385	0.000492	20.800270
896.524596	-2.992300	3.679900	-11.010000	25.068476	0.000493	20.786866
897.525852	-2.990000	3.680700	-11.004000	25.088042	0.000492	20.784223
898.524843	-2.984600	3.678800	-10.979000	25.070340	0.000492	20.794902
899.523466	-2.987100	3.679400	-10.990000	25.059822	0.000492	20.796198
900.525032	-2.998200	3.680500	-11.033000	25.049328	0.000491	20.788509
901.526430	-2.994200	3.680400	-11.018000	25.056364	0.000491	20.772338
902.526171	-3.015000	3.679200	-11.092000	25.031950	0.000491	20.787660
903.527251	-2.997500	3.679900	-11.029000	25.035080	0.000491	20.793647
904.526443	-3.002200	3.678400	-11.043000	25.012625	0.000490	20.781539
905.527356	-3.015700	3.678300	-11.092000	25.019788	0.000491	20.775452
906.528287	-2.999600	3.679200	-11.036000	25.035944	0.000488	20.776971
907.527075	-3.003900	3.676700	-11.043000	25.058367	0.000489	20.762969
908.528183	-3.008100	3.676600	-11.059000	25.087748	0.000489	20.792463
909.529885	-3.005600	3.676900	-11.050000	25.106522	0.000489	20.782859
910.527885	-3.004600	3.675800	-11.044000	25.095457	0.000489	20.778864
911.527196	-3.015100	3.675600	-11.081000	25.081432	0.000488	20.795605
912.528227	-3.006500	3.675600	-11.050000	25.063159	0.000486	20.782952
913.528150	-3.014900	3.676000	-11.082000	25.073072	0.000486	20.787687
914.528160	-3.005100	3.675900	-11.045000	25.050896	0.000488	20.763529
915.530547	-3.014000	3.675300	-11.077000	25.090996	0.000484	20.771066
916.535696	-3.004200	3.675000	-11.039000	25.148691	0.000485	20.769715
917.528852	-3.016800	3.674000	-11.083000	25.121670	0.000488	20.785737
918.528298	-2.986200	3.675400	-10.974000	25.136234	0.000484	20.787556
919.529680	-2.975700	3.674200	-10.933000	25.094472	0.000485	20.775030
920.530483	-2.991100	3.674300	-10.989000	25.044622	0.000483	20.787104
921.533528	-2.995900	3.674900	-11.009000	25.026323	0.000484	20.786279
922.530902	-3.009100	3.672500	-11.050000	25.022270	0.000484	20.782210
923.531222	-3.024100	3.671900	-11.103000	25.062766	0.000485	20.773548
924.533552	-3.000800	3.674000	-11.024000	25.055829	0.000482	20.755679
925.531465	-3.031700	3.671400	-11.129000	25.101643	0.000484	20.787445
926.532265	-3.026700	3.671400	-11.112000	25.103085	0.000483	20.778934
927.533215	-2.993600	3.672700	-10.994000	25.105073	0.000482	20.773344
928.532356	-2.994200	3.673000	-10.997000	25.093589	0.000486	20.778885
929.532256	-2.996500	3.672600	-11.004000	25.112130	0.000483	20.746288
930.532885	-2.986600	3.673000	-10.968000	25.094502	0.000483	20.762258
931.532622	-2.984700	3.671900	-10.959000	25.076479	0.000482	20.783521
932.533355	-3.003600	3.671100	-11.024000	25.067628	0.000483	20.770368
933.533663	-3.006500	3.671200	-11.037000	25.066930	0.000482	20.762081
934.535203	-3.017900	3.671500	-11.079000	25.064491	0.000479	20.767220
935.533419	-2.996800	3.670100	-10.997000	25.094549	0.000484	20.753769
936.534839	-2.986300	3.671300	-10.963000	25.124454	0.000482	20.770040
937.534566	-2.996600	3.671300	-11.001000	25.176732	0.000481	20.763727
938.536241	-2.995400	3.670700	-10.994000	25.171287	0.000481	20.753518
939.534261	-2.996600	3.669900	-10.997000	25.157263	0.000480	20.768837
940.536350	-2.986400	3.668800	-10.956000	25.150851	0.000478	20.777574
941.535924	-3.007600	3.668900	-11.034000	25.137549	0.000477	20.766116
942.537379	-2.980500	3.670300	-10.938000	25.144309	0.000480	20.780016
943.537981	-2.987100	3.669700	-10.961000	25.107620	0.000477	20.751244
944.538023	-3.010400	3.668900	-11.044000	25.079054	0.000479	20.762397
945.540226	-3.007900	3.666800	-11.027000	25.094465	0.000479	20.746573
946.536943	-2.984700	3.669000	-10.950000	25.157926	0.000479	20.759072
947.539343	-2.997900	3.666900	-10.992000	25.213262	0.000479	20.761520
948.539975	-2.993700	3.668000	-10.980000	25.211398	0.000478	20.752062
949.540160	-2.995400	3.665800	-10.979000	25.174408	0.000477	20.773721
950.541119	-2.982200	3.668300	-10.939000	25.158096	0.000477	20.766829
951.541318	-2.992000	3.667100	-10.971000	25.159041	0.000475	20.756871
952.542907	-3.024700	3.665900	-11.087000	25.158442	0.000475	20.772866
953.540306	-3.011700	3.665200	-11.037000	25.174448	0.000474	20.760485
954.541594	-3.030500	3.665400	-11.107000	25.208478	0.000474	20.747707
955.545237	-3.003000	3.666200	-11.009000	25.159880	0.000476	20.755818
956.539846	-3.004300	3.665500	-11.011000	25.107697	0.000475	20.756063
957.542140	-2.995200	3.664800	-10.975000	25.074784	0.000473	20.753844
958.545568	-3.014100	3.664200	-11.043000	25.072990	0.000474	20.751095
959.541750	-2.993400	3.664400	-10.968000	25.053476	0.000470	20.783663
960.540467	-2.979900	3.665200	-10.921000	25.075874	0.000473	20.746877
961.546937	-2.999100	3.663700	-10.987000	25.108663	0.000473	20.753239
962.543740	-3.005500	3.663300	-11.009000	25.115448	0.000470	20.749145
963.543945	-2.998100	3.664300	-10.985000	25.116467	0.000472	20.780989
964.547045	-2.996300	3.663000	-10.975000	25.174537	0.000471	20.775274
965.547244	-2.999500	3.663000	-10.986000	25.214756	0.000472	20.790047
966.544797	-2.997900	3.663300	-10.981000	25.186817	0.000469	20.750143
967.549051	-3.000100	3.662700	-10.987000	25.165437	0.000469	20.773724
968.547835	-2.995700	3.663300	-10.974000	25.234419	0.000470	20.759053
969.545851	-3.006400	3.663000	-11.011000	25.283087	0.000468	20.773777
970.554747	-2.963600	3.663600	-10.856000	25.284779	0.000466	20.772630
971.546718	-2.999500	3.661100	-10.980000	25.279584	0.000468	20.769311
972.547309	-3.014100	3.662000	-11.037000	25.310055	0.000469	20.762921
973.552687	-2.978500	3.661400	-10.905000	25.322688	0.000468	20.758062
974.547370	-3.030400	3.661300	-11.093000	25.321743	0.000468	20.756639
975.547931	-3.013200	3.660300	-11.029000	25.288337	0.000468	20.743486
976.550230	-2.994900	3.661500	-10.965000	25.244343	0.000466	20.742938
977.547288	-2.997600	3.660900	-10.973000	25.234256	0.000466	20.766002
978.548059	-3.004900	3.659900	-10.997000	25.194957	0.000465	20.753100
979.550140	-3.006300	3.659700	-11.001000	25.166795	0.000465	20.753276
980.547584	-3.003900	3.659100	-10.990000	25.191975	0.000464	20.728768
981.548643	-2.998600	3.659500	-10.972000	25.231178	0.000467	20.745842
982.550059	-3.032000	3.657800	-11.089000	25.190064	0.000465	20.744394
983.549088	-2.991300	3.659100	-10.945000	25.241793	0.000464	20.763612
984.548365	-3.023400	3.657200	-11.056000	25.285168	0.000464	20.749787
985.550594	-2.995900	3.658400	-10.959000	25.282285	0.000464	20.765385
986.547622	-3.015000	3.656700	-11.024000	25.287609	0.000463	20.746074
987.548700	-3.000600	3.657100	-10.972000	25.250004	0.000463	20.745302
988.551336	-3.007200	3.656700	-10.995000	25.279263	0.000461	20.745281
989.548233	-3.012500	3.656500	-11.014000	25.216528	0.000463	20.740142
990.547973	-2.998000	3.656400	-10.961000	25.208475	0.000462	20.760507
991.551287	-3.018100	3.655900	-11.033000	25.193636	0.000462	20.750351
992.551095	-3.005200	3.655700	-10.986000	25.196473	0.000460	20.739448
993.550260	-3.018800	3.654500	-11.032000	25.246958	0.000463	20.757417
994.555566	-3.005600	3.654600	-10.983000	25.280813	0.000463	20.742095
995.551235	-3.001800	3.654900	-10.970000	25.295977	0.000459	20.742622
996.550592	-3.008000	3.655500	-10.995000	25.313105	0.000460	20.751758
997.552826	-2.982200	3.656100	-10.902000	25.297101	0.000460	20.753708
998.550770	-3.011800	3.654500	-11.006000	25.284653	0.000461	20.739312
999.549999	-3.003300	3.654500	-10.975000	25.277097	0.000457	20.739786
1000.554992	-3.025200	3.652500	-11.048000	25.238000	0.000460	20.738940
1001.550478	-3.010800	3.653400	-10.999000	25.229898	0.000459	20.740763
1002.550832	-3.017800	3.654800	-11.028000	25.248270	0.000458	20.750200
1003.554687	-3.000200	3.652900	-10.958000	25.282745	0.000460	20.748777
1004.550310	-2.997400	3.652400	-10.947000	25.258537	0.000459	20.732057
1005.551690	-2.996600	3.654200	-10.949000	25.265173	0.000456	20.724495
1006.554512	-3.019600	3.651200	-11.024000	25.245288	0.000457	20.732981
1007.551366	-2.993200	3.651800	-10.929000	25.253996	0.000459	20.748362
1008.549804	-2.992500	3.653100	-10.931000	25.263364	0.000461	20.756820
1009.553767	-3.018900	3.652000	-11.024000	25.274106	0.000461	20.752906
1010.550023	-2.997700	3.650900	-10.944000	25.261997	0.000459	20.737428
1011.553539	-3.028200	3.650700	-11.054000	25.266476	0.000458	20.770375
1012.556868	-3.007300	3.651400	-10.980000	25.217035	0.000459	20.743022
1013.550557	-2.997600	3.649800	-10.939000	25.198471	0.000458	20.759947
1014.552660	-2.999900	3.651000	-10.952000	25.240850	0.000457	20.732792
1015.555893	-3.006300	3.649900	-10.972000	25.257154	0.000456	20.760542
1016.551910	-2.996300	3.650000	-10.935000	25.268019	0.000458	20.745372
1017.552137	-3.014800	3.649400	-11.002000	25.292728	0.000457	20.756429
1018.556162	-3.002000	3.648300	-10.951000	25.285095	0.000456	20.753981
1019.551629	-3.004100	3.648600	-10.960000	25.301376	0.000456	20.750414
1020.552556	-2.984600	3.648300	-10.888000	25.309624	0.000455	20.750634
1021.557971	-3.012000	3.646500	-10.982000	25.305352	0.000455	20.755354
1022.554598	-2.991800	3.649600	-10.918000	25.271223	0.000454	20.757124
1023.554615	-2.992300	3.647100	-10.912000	25.268911	0.000457	20.746741
1024.557829	-2.985300	3.647600	-10.889000	25.233414	0.000453	20.756147
1025.555751	-2.989100	3.648500	-10.905000	25.274057	0.000454	20.760917
1026.556900	-3.003100	3.646700	-10.951000	25.252904	0.000454	20.743946
1027.559905	-3.009400	3.645600	-10.970000	25.216736	0.000452	20.766904
1028.555653	-3.021400	3.645000	-11.012000	25.235553	0.000452	20.764933
1029.556570	-2.997700	3.647200	-10.932000	25.248851	0.000454	20.774491
1030.558718	-3.007500	3.646300	-10.965000	25.274202	0.000453	20.765330
1031.559776	-3.001700	3.645200	-10.941000	25.279869	0.000450	20.755372
1032.556195	-3.006300	3.644300	-10.954000	25.259487	0.000452	20.752453
1033.559391	-2.991500	3.644100	-10.900000	25.256827	0.000451	20.735082
1034.556432	-3.007600	3.645100	-10.962000	25.200425	0.000452	20.736303
1035.556696	-2.993100	3.645700	-10.911000	25.216807	0.000451	20.734732
1036.558604	-2.991700	3.644100	-10.901000	25.222372	0.000450	20.754545
1037.556224	-3.004800	3.642600	-10.945000	25.229802	0.000450	20.778126
1038.556555	-2.986300	3.642900	-10.877000	25.229284	0.000450	20.763855
1039.559019	-2.978100	3.643600	-10.850000	25.237062	0.000450	20.765026
1040.557413	-2.978300	3.644000	-10.852000	25.247452	0.000451	20.749853
1041.557901	-3.011800	3.642100	-10.968000	25.242381	0.000449	20.771314
1042.560850	-2.980700	3.642600	-10.856000	25.260426	0.000451	20.750550
1043.557411	-2.993200	3.642000	-10.900000	25.243371	0.000449	20.755239
1044.556667	-2.998700	3.641700	-10.920000	25.257265	0.000449	20.767766
1045.558818	-3.010300	3.640400	-10.957000	25.273967	0.000450	20.759878
1046.560485	-2.979400	3.640600	-10.846000	25.263376	0.000447	20.759677
1047.567550	-3.035600	3.639300	-11.047000	25.235290	0.000447	20.778420
1048.559965	-3.000600	3.640200	-10.922000	25.287560	0.000448	20.753138
1049.559316	-2.980200	3.641600	-10.852000	25.348183	0.000448	20.745253
1050.559006	-2.994800	3.640400	-10.901000	25.342241	0.000447	20.772479
1051.563156	-2.999600	3.640100	-10.918000	25.334038	0.000447	20.765190
1052.563163	-3.015100	3.640600	-10.976000	25.316515	0.000444	20.776995
1053.561523	-3.025200	3.639500	-11.010000	25.350319	0.000444	20.773003
1054.561316	-3.009000	3.639600	-10.951000	25.306848	0.000444	20.781987
1055.563474	-3.036900	3.638000	-11.047000	25.251668	0.000443	20.774001
1056.562637	-3.007200	3.639800	-10.945000	25.305379	0.000445	20.770555
1057.562848	-2.995800	3.638400	-10.898000	25.276945	0.000443	20.776620
1058.563856	-3.010400	3.637600	-10.950000	25.293770	0.000443	20.770279
1059.562572	-2.999300	3.638300	-10.912000	25.257505	0.000444	20.781284
1060.567258	-3.026800	3.635800	-11.004000	25.313108	0.000445	20.775944
1061.564400	-3.000400	3.637800	-10.914000	25.318151	0.000442	20.770102
1062.565481	-2.990300	3.638300	-10.879000	25.313879	0.000440	20.769132
1063.568951	-2.987100	3.636500	-10.861000	25.288974	0.000440	20.775894
1064.566016	-3.006500	3.635300	-10.928000	25.262080	0.000441	20.771178
1065.565642	-2.987300	3.636400	-10.863000	25.287934	0.000442	20.771057
1066.570516	-3.004900	3.636700	-10.927000	25.322401	0.000440	20.773421
1067.566014	-3.004600	3.636800	-10.926000	25.308731	0.000442	20.759695
1068.567479	-3.012500	3.633900	-10.946000	25.319620	0.000440	20.792914
1069.568998	-2.978400	3.635700	-10.827000	25.350488	0.000441	20.782657
1070.566483	-2.967700	3.633900	-10.783000	25.385355	0.000440	20.774044
1071.567978	-2.989600	3.634100	-10.863000	25.427508	0.000439	20.768955
1072.570467	-3.003500	3.633800	-10.913000	25.420922	0.000441	20.777989
1073.571169	-2.978600	3.634100	-10.824000	25.412870	0.000438	20.779861
1074.568572	-2.984700	3.634300	-10.846000	25.451166	0.000440	20.767108
1075.570136	-2.986800	3.632800	-10.849000	25.484117	0.000439	20.776963
1076.567767	-2.969800	3.633000	-10.788000	25.424477	0.000438	20.797681
1077.568811	-3.003800	3.633700	-10.913000	25.445250	0.000436	20.790565
1078.575123	-3.004000	3.633400	-10.915000	25.398006	0.000436	20.792437
1079.569983	-3.013100	3.632000	-10.943000	25.352229	0.000435	20.795310
1080.578183	-3.006800	3.632300	-10.921000	25.354618	0.000435	20.784432
1081.573794	-3.013300	3.631800	-10.943000	25.414336	0.000436	20.791765
1082.571014	-3.019700	3.632200	-10.967000	25.387596	0.000432	20.806166
1083.572702	-2.986500	3.631300	-10.844000	25.340223	0.000434	20.786574
1084.573873	-3.004800	3.631600	-10.912000	25.343680	0.000433	20.799054
1085.571678	-3.021000	3.629000	-10.962000	25.395102	0.000435	20.794263
1086.573500	-3.010000	3.628500	-10.921000	25.366646	0.000434	20.797458
1087.575274	-3.011600	3.629800	-10.930000	25.400969	0.000434	20.795887
1088.574162	-3.001700	3.630200	-10.896000	25.396941	0.000432	20.788997
1089.572495	-2.987900	3.628600	-10.841000	25.425897	0.000434	20.801003
1090.576956	-3.008900	3.627800	-10.914000	25.431563	0.000434	20.796262
1091.577053	-3.003700	3.628100	-10.897000	25.431313	0.000433	20.771354
1092.575909	-2.989500	3.627000	-10.841000	25.433029	0.000430	20.792044
1093.579404	-3.005300	3.626900	-10.899000	25.472569	0.000432	20.792868
1094.575447	-3.002200	3.626900	-10.888000	25.451568	0.000431	20.790271
1095.578197	-3.000800	3.628000	-10.885000	25.407308	0.000430	20.790398
1096.579091	-3.004900	3.627500	-10.899000	25.413172	0.000430	20.786329
1097.576423	-2.999000	3.627000	-10.875000	25.436112	0.000431	20.827382
1098.578022	-3.013700	3.626400	-10.928000	25.465014	0.000429	20.808041
1099.581971	-2.999100	3.626800	-10.876000	25.441658	0.000430	20.803554
1100.576107	-3.010900	3.625500	-10.914000	25.410120	0.000428	20.810291
1101.579048	-2.993200	3.624500	-10.848000	25.372717	0.000430	20.787432
1102.581401	-2.994200	3.625700	-10.855000	25.381019	0.000429	20.829433
1103.579018	-2.990800	3.625500	-10.842000	25.416808	0.000429	20.797566
1104.580554	-2.996100	3.624900	-10.860000	25.414919	0.000428	20.788083
1105.583601	-3.014800	3.624400	-10.925000	25.385893	0.000429	20.818680
1106.581008	-3.020400	3.622900	-10.942000	25.357507	0.000429	20.791601
1107.583225	-3.017800	3.623900	-10.935000	25.368195	0.000427	20.780522
1108.583706	-3.020300	3.623300	-10.942000	25.356118	0.000427	20.809172
1109.580478	-2.989400	3.623600	-10.832000	25.366705	0.000428	20.818854
1110.582528	-3.008200	3.623000	-10.897000	25.337402	0.000425	20.788009
1111.582435	-3.026300	3.620700	-10.957000	25.366754	0.000426	20.797092
1112.580420	-3.001400	3.623900	-10.876000	25.355421	0.000427	20.806101
1113.583077	-2.973700	3.622600	-10.772000	25.361859	0.000425	20.789332
1114.582822	-3.001900	3.622500	-10.874000	25.353979	0.000427	20.798490
1115.582279	-2.984900	3.621900	-10.810000	25.393025	0.000426	20.809721
1116.582495	-3.014500	3.621200	-10.915000	25.369165	0.000423	20.811366
1117.583236	-2.996200	3.620400	-10.846000	25.326393	0.000427	20.798292
1118.582738	-2.965100	3.621500	-10.736000	25.362106	0.000421	20.787684
1119.583612	-2.985300	3.621600	-10.810000	25.400951	0.000423	20.806774
1120.582530	-3.004900	3.619400	-10.875000	25.451799	0.000425	20.816108
1121.581097	-3.011900	3.619600	-10.901000	25.467057	0.000424	20.817679
1122.582286	-2.992800	3.619800	-10.832000	25.480972	0.000424	20.799884
1123.581974	-3.005100	3.620000	-10.877000	25.500779	0.000425	20.809817
1124.581717	-2.981000	3.619200	-10.787000	25.501948	0.000422	20.820474
1125.586753	-3.010100	3.618000	-10.890000	25.479355	0.000421	20.796364
1126.586094	-3.006200	3.618900	-10.878000	25.422517	0.000422	20.809463
1127.585752	-2.992600	3.618700	-10.829000	25.415089	0.000422	20.813858
1128.589684	-2.982900	3.619000	-10.794000	25.400127	0.000421	20.810688
1129.588768	-2.996600	3.616700	-10.837000	25.404623	0.000419	20.835591
1130.586553	-3.002000	3.618300	-10.861000	25.420431	0.000421	20.837240
1131.589600	-3.004100	3.616600	-10.864000	25.473584	0.000419	20.814750
1132.590937	-2.999300	3.616800	-10.847000	25.510163	0.000419	20.800275
1133.587389	-3.005800	3.615700	-10.867000	25.453253	0.000418	20.836059
1134.594175	-3.001000	3.614700	-10.846000	25.467841	0.000417	20.829845
1135.591993	-3.002800	3.616400	-10.857000	25.517171	0.000418	20.822011
1136.588916	-3.004800	3.614300	-10.859000	25.516795	0.000415	20.849133
1137.590654	-3.011000	3.615400	-10.885000	25.498751	0.000416	20.814893
1138.592432	-3.001500	3.614100	-10.847000	25.467020	0.000416	20.838978
1139.588800	-3.007700	3.613800	-10.868000	25.431825	0.000417	20.824499
1140.599082	-2.996900	3.614600	-10.832000	25.420545	0.000416	20.853000
1141.591250	-3.002100	3.613900	-10.849000	25.476337	0.000414	20.824152
1142.587584	-3.028800	3.613300	-10.942000	25.481407	0.000414	20.825925
1143.590736	-3.011300	3.613600	-10.880000	25.435853	0.000413	20.856518
1144.593819	-3.017600	3.612400	-10.901000	25.468557	0.000414	20.834357
1145.587936	-3.016400	3.612400	-10.895000	25.456928	0.000415	20.857292
1146.595056	-3.006600	3.613000	-10.861000	25.412441	0.000412	20.842018
1147.592770	-3.000300	3.612000	-10.836000	25.469430	0.000413	20.814846
1148.589803	-2.996500	3.611000	-10.820000	25.467514	0.000411	20.846111
1149.593312	-3.019400	3.610900	-10.902000	25.492218	0.000410	20.810703
1150.594478	-3.014600	3.611600	-10.887000	25.482725	0.000412	20.851429
1151.589896	-3.008300	3.610800	-10.862000	25.472837	0.000411	20.843397
1152.590496	-3.029800	3.610600	-10.938000	25.477136	0.000412	20.829697
1153.596110	-2.992400	3.610800	-10.804000	25.535835	0.000412	20.832693
1154.590482	-2.984400	3.611000	-10.775000	25.559143	0.000413	20.843298
1155.592930	-3.005800	3.610000	-10.849000	25.598579	0.000411	20.867255
1156.590471	-2.984600	3.609000	-10.771000	25.605118	0.000413	20.839685
1157.589756	-3.001600	3.608600	-10.830000	25.606482	0.000410	20.856226
1158.592258	-3.009800	3.609000	-10.861000	25.565509	0.000411	20.848269
1159.592599	-2.993900	3.608100	-10.801000	25.513650	0.000411	20.842656
1160.591583	-2.980700	3.608200	-10.755000	25.491758	0.000412	20.825888
1161.592359	-3.002300	3.605900	-10.825000	25.417404	0.000408	20.843682
1162.592887	-2.991100	3.608200	-10.791000	25.433906	0.000407	20.833227
1163.591198	-3.017100	3.605900	-10.878000	25.456222	0.000407	20.865591
1164.596935	-3.018500	3.604400	-10.880000	25.445034	0.000408	20.842030
1165.593232	-2.989800	3.607100	-10.783000	25.428165	0.000407	20.872979
1166.595322	-3.017400	3.606100	-10.880000	25.448346	0.000407	20.847726
1167.594685	-3.011200	3.606300	-10.858000	25.471578	0.000406	20.842133
1168.596659	-3.001200	3.605000	-10.818000	25.491536	0.000408	20.862648
1169.594438	-3.013500	3.605600	-10.865000	25.544269	0.000408	20.850171
1170.596571	-2.990200	3.605100	-10.778000	25.563750	0.000405	20.844132
1171.598091	-2.980200	3.605000	-10.743000	25.552644	0.000405	20.836772
1172.594955	-2.962500	3.606400	-10.683000	25.498245	0.000405	20.852316
1173.595827	-2.996500	3.604000	-10.798000	25.481519	0.000404	20.867761
1174.597850	-2.999700	3.603500	-10.808000	25.432613	0.000404	20.871755
1175.595224	-3.021600	3.602500	-10.884000	25.465817	0.000406	20.842985
1176.600222	-3.013300	3.602100	-10.854000	25.485126	0.000403	20.847677
1177.598045	-3.020700	3.603300	-10.883000	25.507815	0.000404	20.849124
1178.596012	-3.012700	3.601700	-10.849000	25.506670	0.000405	20.853190
1179.596684	-3.002200	3.602200	-10.814000	25.528790	0.000403	20.876825
1180.604818	-2.970000	3.603200	-10.701000	25.562263	0.000403	20.862552
1181.598638	-2.973900	3.602200	-10.712000	25.578192	0.000403	20.869540
1182.597793	-3.018500	3.600700	-10.867000	25.554955	0.000404	20.865644
1183.604509	-2.957300	3.600700	-10.647000	25.538134	0.000403	20.878148
1184.598376	-2.987300	3.601800	-10.759000	25.498199	0.000400	20.875028
1185.600507	-2.993000	3.600800	-10.776000	25.502275	0.000402	20.878647
1186.602612	-3.005900	3.599500	-10.819000	25.492385	0.000401	20.863974
1187.599803	-2.992000	3.600500	-10.771000	25.459682	0.000402	20.866221
1188.602373	-2.975800	3.600600	-10.713000	25.489678	0.000401	20.862205
1189.603043	-3.002500	3.600000	-10.808000	25.471038	0.000401	20.853918
1190.600839	-2.985800	3.598200	-10.743000	25.474520	0.000398	20.867844
1191.604291	-3.006500	3.599300	-10.821000	25.482994	0.000398	20.877302
1192.601566	-3.008400	3.598000	-10.823000	25.429416	0.000400	20.873286
1193.600393	-3.017500	3.597000	-10.853000	25.414426	0.000398	20.874829
1194.603021	-3.021500	3.596600	-10.867000	25.452000	0.000398	20.866568
1195.608771	-2.981800	3.598300	-10.729000	25.520961	0.000398	20.865170
1196.603064	-2.989000	3.597600	-10.753000	25.515968	0.000398	20.863475
1197.604213	-3.005100	3.597900	-10.811000	25.509108	0.000397	20.882189
1198.608375	-2.987700	3.596200	-10.743000	25.544269	0.000398	20.888101
1199.604124	-3.010900	3.596500	-10.828000	25.539298	0.000396	20.866989
1200.604719	-3.033500	3.594600	-10.903000	25.498544	0.000396	20.875375
1201.607181	-3.011600	3.594800	-10.825000	25.491434	0.000395	20.887200
1202.603578	-2.997900	3.594800	-10.776000	25.469517	0.000394	20.879889
1203.608004	-3.000500	3.594100	-10.783000	25.490388	0.000394	20.882356
1204.609081	-3.001700	3.594200	-10.788000	25.485543	0.000395	20.863741
1205.604826	-3.000900	3.595200	-10.787000	25.484151	0.000396	20.889843
1206.607636	-2.975200	3.594500	-10.694000	25.519190	0.000394	20.889468
1207.609893	-3.017700	3.592600	-10.840000	25.546821	0.000395	20.884974
1208.606052	-2.983400	3.594100	-10.722000	25.519010	0.000392	20.863685
1209.608682	-2.994900	3.593800	-10.762000	25.500646	0.000393	20.879381
1210.610102	-2.969500	3.594200	-10.672000	25.531681	0.000394	20.891107
1211.606119	-3.014800	3.592600	-10.829000	25.570693	0.000391	20.881448
1212.609555	-2.949700	3.594100	-10.600000	25.573205	0.000393	20.881600
1213.610302	-2.997000	3.592200	-10.765000	25.619025	0.000392	20.887788
1214.609095	-2.990700	3.592700	-10.744000	25.589923	0.000391	20.892225
1215.614086	-3.001000	3.591600	-10.778000	25.583934	0.000392	20.898538
1216.610898	-3.004500	3.590600	-10.787000	25.581274	0.000390	20.875954
1217.608755	-3.042800	3.589200	-10.920000	25.631790	0.000389	20.886858
1218.613849	-2.993800	3.590100	-10.747000	25.673232	0.000389	20.901928
1219.611156	-2.993500	3.590500	-10.747000	25.684164	0.000390	20.904373
1220.609632	-3.008700	3.589800	-10.799000	25.647042	0.000390	20.902175
1221.609944	-2.998000	3.590700	-10.764000	25.663167	0.000389	20.883759
1222.613232	-2.989500	3.590100	-10.732000	25.630516	0.000389	20.888423
1223.610909	-2.981900	3.589400	-10.703000	25.636801	0.000388	20.907062
1224.611778	-2.998500	3.587700	-10.757000	25.635385	0.000388	20.898528
1225.612060	-2.993300	3.587600	-10.738000	25.619978	0.000387	20.906762
1226.609774	-3.008900	3.587000	-10.792000	25.607154	0.000388	20.897202
1227.609373	-2.996100	3.587300	-10.748000	25.559392	0.000388	20.890961
1228.612668	-3.005100	3.587800	-10.781000	25.600393	0.000386	20.879034
1229.610220	-2.995300	3.587400	-10.744000	25.619197	0.000384	20.928260
1230.609630	-2.988600	3.586700	-10.719000	25.632123	0.000386	20.907105
1231.610435	-3.002200	3.586700	-10.767000	25.646033	0.000388	20.893102
1232.610650	-2.995100	3.585500	-10.738000	25.651593	0.000385	20.904850
1233.610165	-2.984600	3.586400	-10.703000	25.610030	0.000384	20.909098
1234.611661	-3.013900	3.585300	-10.805000	25.649433	0.000383	20.887035
1235.610353	-2.981800	3.585300	-10.690000	25.668240	0.000384	20.922989
1236.610419	-2.993000	3.584700	-10.728000	25.630299	0.000385	20.919497
1237.614636	-2.987500	3.584500	-10.707000	25.662550	0.000383	20.908742
1238.610742	-3.005900	3.583600	-10.771000	25.626597	0.000382	20.887806
1239.614397	-2.984000	3.584700	-10.695000	25.637801	0.000383	20.895739
1240.613969	-2.991300	3.583400	-10.718000	25.654722	0.000380	20.900406
1241.611789	-2.994400	3.582700	-10.727000	25.604750	0.000382	20.909959
1242.614374	-3.022200	3.583700	-10.830000	25.553119	0.000380	20.895566
1243.614324	-2.994400	3.583200	-10.728000	25.593095	0.000380	20.883084
1244.613622	-2.982200	3.583400	-10.685000	25.637427	0.000380	20.883037
1245.614800	-2.984000	3.582500	-10.689000	25.647539	0.000379	20.875650
1246.622087	-2.993100	3.582400	-10.722000	25.649180	0.000380	20.884410
1247.613941	-3.003300	3.581900	-10.756000	25.687965	0.000379	20.878795
1248.616117	-2.999400	3.580700	-10.739000	25.691045	0.000379	20.878095
1249.617811	-3.011900	3.581300	-10.785000	25.667539	0.000378	20.893365
1250.613694	-2.997800	3.579600	-10.730000	25.677083	0.000377	20.880667
1251.622266	-3.021200	3.580200	-10.816000	25.682797	0.000377	20.887828
1252.618458	-3.008200	3.579800	-10.768000	25.595159	0.000376	20.874726
1253.616863	-3.014500	3.579100	-10.788000	25.580771	0.000376	20.891094
1254.617582	-3.008200	3.579300	-10.767000	25.620058	0.000376	20.877921
1255.619759	-3.004800	3.580700	-10.758000	25.657576	0.000374	20.877196
1256.616926	-3.010700	3.577900	-10.771000	25.653876	0.000376	20.854515
1257.621239	-3.010800	3.578700	-10.773000	25.660183	0.000377	20.891667
1258.619592	-2.980100	3.578800	-10.664000	25.667836	0.000377	20.887974
1259.619564	-3.007900	3.578400	-10.763000	25.698647	0.000376	20.885256
1260.619722	-2.959600	3.578700	-10.591000	25.700582	0.000373	20.874398
1261.620156	-3.003200	3.578000	-10.745000	25.673673	0.000373	20.883406
1262.620611	-3.016600	3.575600	-10.786000	25.626637	0.000373	20.883105
1263.620945	-2.977700	3.577800	-10.652000	25.553162	0.000374	20.878067
1264.622616	-3.023600	3.576000	-10.811000	25.584893	0.000372	20.875795
1265.622301	-2.994200	3.574800	-10.703000	25.640599	0.000375	20.870103
1266.622256	-2.987600	3.577700	-10.687000	25.640275	0.000372	20.873096
1267.625119	-2.997900	3.576000	-10.719000	25.638834	0.000372	20.860744
1268.621854	-3.002600	3.574700	-10.733000	25.646508	0.000371	20.881252
1269.622143	-2.999000	3.574500	-10.718000	25.647927	0.000369	20.872247
1270.625224	-2.997000	3.575000	-10.713000	25.617562	0.000370	20.874940
1271.624433	-2.982700	3.573600	-10.658000	25.606604	0.000368	20.871522
1272.624459	-3.007000	3.573700	-10.745000	25.623030	0.000368	20.856725
1273.627621	-3.028100	3.574000	-10.822000	25.653639	0.000369	20.882250
1274.622811	-2.995100	3.572900	-10.701000	25.623576	0.000366	20.857273
1275.624066	-2.987200	3.573500	-10.674000	25.632617	0.000367	20.868250
1276.624808	-3.012400	3.572200	-10.760000	25.620536	0.000368	20.878875
1277.626986	-3.013900	3.571800	-10.764000	25.634675	0.000366	20.850877
1278.626091	-2.999000	3.571500	-10.710000	25.665438	0.000367	20.872290
1279.624512	-2.983600	3.572200	-10.656000	25.691776	0.000366	20.867450
1280.624767	-3.005400	3.571200	-10.732000	25.667771	0.000365	20.873685
1281.625111	-3.000300	3.570400	-10.711000	25.644191	0.000366	20.853322
1282.623913	-2.991400	3.570300	-10.679000	25.628414	0.000367	20.864029
1283.624030	-2.981300	3.570700	-10.645000	25.629580	0.000366	20.868045
1284.624341	-3.005700	3.570500	-10.731000	25.653682	0.000366	20.842467
1285.625873	-3.016700	3.569900	-10.768000	25.603368	0.000364	20.868745
1286.624944	-3.036100	3.569500	-10.836000	25.577990	0.000364	20.868863
1287.624036	-3.010600	3.569600	-10.746000	25.581548	0.000363	20.847307
1288.624702	-3.000300	3.569300	-10.708000	25.593796	0.000363	20.856762
1289.624224	-3.005700	3.568600	-10.726000	25.563654	0.000363	20.845931
1290.626010	-3.014600	3.567900	-10.755000	25.512088	0.000363	20.857682
1291.625166	-3.009300	3.568100	-10.736000	25.564595	0.000364	20.853514
1292.626371	-2.989500	3.567800	-10.665000	25.539195	0.000365	20.838438
1293.625897	-3.011600	3.566300	-10.739000	25.501546	0.000363	20.858476
1294.625722	-3.012200	3.567200	-10.744000	25.518618	0.000361	20.838637
1295.626481	-2.979200	3.567000	-10.626000	25.595379	0.000363	20.866412
1296.626399	-3.001300	3.565800	-10.701000	25.649122	0.000364	20.846421
1297.626955	-3.000100	3.565500	-10.697000	25.671356	0.000362	20.849312
1298.627389	-3.020600	3.565300	-10.768000	25.698114	0.000362	20.847738
1299.628186	-3.018200	3.564500	-10.758000	25.703381	0.000363	20.861562
1300.629248	-3.032300	3.564300	-10.807000	25.745616	0.000361	20.835234
1301.631177	-3.003400	3.565200	-10.707000	25.717860	0.000362	20.836753
1302.628142	-3.000100	3.564500	-10.693000	25.731797	0.000361	20.852647
1303.628884	-2.978000	3.565700	-10.617000	25.745459	0.000359	20.834602
1304.630543	-2.990600	3.564500	-10.659000	25.743198	0.000359	20.851296
1305.631861	-2.998000	3.564400	-10.685000	25.726722	0.000357	20.851817
1306.632534	-3.005800	3.562000	-10.706000	25.768759	0.000361	20.847100
1307.632352	-2.982700	3.563500	-10.627000	25.738249	0.000359	20.845851
1308.633107	-2.992600	3.563800	-10.664000	25.697898	0.000359	20.830927
1309.633322	-3.003700	3.562000	-10.698000	25.738243	0.000359	20.842052
1310.632405	-3.006900	3.562000	-10.710000	25.760528	0.000356	20.834565
1311.631444	-2.997600	3.561700	-10.676000	25.695606	0.000357	20.830521
1312.633338	-2.991100	3.561500	-10.652000	25.599669	0.000355	20.844169
1313.633205	-3.012800	3.561200	-10.728000	25.566095	0.000355	20.856918
1314.634545	-3.006300	3.561100	-10.705000	25.604606	0.000356	20.850076
1315.635211	-3.020500	3.559300	-10.750000	25.607812	0.000354	20.862304
1316.640049	-3.014900	3.558900	-10.728000	25.593920	0.000355	20.830336
1317.634819	-3.011500	3.559300	-10.718000	25.616779	0.000354	20.842387
1318.634907	-3.008100	3.560300	-10.709000	25.659759	0.000355	20.853311
1319.634755	-3.017500	3.559800	-10.741000	25.612969	0.000353	20.829552
1320.636994	-3.002900	3.559700	-10.688000	25.647531	0.000355	20.831073
1321.636915	-3.013100	3.557900	-10.720000	25.606828	0.000354	20.821014
1322.635856	-3.026500	3.557100	-10.765000	25.673067	0.000354	20.844867
1323.637262	-2.989600	3.557400	-10.634000	25.687924	0.000354	20.833711
1324.637159	-2.998900	3.558000	-10.668000	25.711454	0.000352	20.836481
1325.638083	-2.974800	3.559100	-10.587000	25.712024	0.000351	20.824253
1326.640531	-3.011900	3.557400	-10.713000	25.688887	0.000351	20.848428
1327.643190	-3.015600	3.555900	-10.722000	25.647763	0.000353	20.828462
1328.641827	-2.998400	3.557600	-10.666000	25.661704	0.000349	20.833928
1329.642491	-3.012200	3.556000	-10.710000	25.639762	0.000350	20.819004
1330.644227	-2.991700	3.555900	-10.637000	25.624525	0.000349	20.837365
1331.642732	-3.027300	3.554300	-10.760000	25.631332	0.000351	20.827133
1332.642134	-2.995000	3.554300	-10.643000	25.630413	0.000348	20.842804
1333.644060	-3.005700	3.554900	-10.684000	25.619801	0.000350	20.836888
1334.644545	-2.983200	3.555000	-10.604000	25.644993	0.000351	20.840852
1335.643163	-3.012600	3.553700	-10.705000	25.632419	0.000351	20.833914
1336.646479	-3.019300	3.553800	-10.728000	25.635995	0.000347	20.846988
1337.645777	-2.997100	3.553800	-10.650000	25.641337	0.000348	20.844292
1338.644805	-2.981400	3.552600	-10.591000	25.686034	0.000347	20.835606
1339.649060	-3.005000	3.553200	-10.676000	25.706108	0.000347	20.859560
1340.649664	-3.021800	3.552900	-10.736000	25.733685	0.000348	20.825621
1341.646055	-3.003600	3.551400	-10.666000	25.758106	0.000348	20.838296
1342.648387	-2.991100	3.552800	-10.627000	25.789880	0.000346	20.835126
1343.647005	-2.994900	3.552200	-10.637000	25.811890	0.000346	20.829260
1344.647298	-2.983500	3.552600	-10.598000	25.808111	0.000344	20.829731
1345.649383	-3.012900	3.550800	-10.697000	25.774297	0.000344	20.833698
1346.645864	-3.003900	3.550600	-10.665000	25.732683	0.000344	20.847847
1347.647125	-3.025200	3.549200	-10.735000	25.700530	0.000345	20.839734
1348.649168	-3.035800	3.548300	-10.771000	25.698741	0.000343	20.837937
1349.647607	-2.987500	3.549000	-10.601000	25.587748	0.000344	20.843103
1350.648821	-2.978200	3.549600	-10.570000	25.557755	0.000342	20.815826
1351.652619	-3.019700	3.547600	-10.712000	25.596268	0.000342	20.840280
1352.650414	-3.022700	3.547900	-10.724000	25.589335	0.000343	20.822412
1353.649163	-2.972200	3.548900	-10.547000	25.626579	0.000341	20.813350
1354.653892	-2.992500	3.548500	-10.617000	25.692870	0.000342	20.845316
1355.649495	-3.003300	3.548200	-10.656000	25.698063	0.000341	20.821135
1356.650210	-3.003200	3.547100	-10.652000	25.711848	0.000339	20.832611
1357.651331	-3.007800	3.546600	-10.666000	25.711676	0.000339	20.838127
1358.651213	-3.025800	3.546500	-10.730000	25.684767	0.000339	20.819635
1359.654818	-3.011900	3.546900	-10.681000	25.683743	0.000339	20.832831
1360.654434	-3.026600	3.545200	-10.728000	25.700988	0.000340	20.793728
1361.652332	-3.002000	3.547200	-10.647000	25.682401	0.000338	20.824371
1362.652016	-2.988900	3.545400	-10.596000	25.663073	0.000338	20.824873
1363.655425	-2.984900	3.544700	-10.579000	25.687495	0.000338	20.810996
1364.654266	-3.019200	3.545100	-10.703000	25.713608	0.000338	20.816360
1365.654937	-2.994200	3.545900	-10.616000	25.697384	0.000336	20.832782
1366.655944	-2.992300	3.545100	-10.607000	25.724116	0.000335	20.839243
1367.656481	-3.020400	3.544000	-10.703000	25.750280	0.000334	20.826168
1368.657104	-3.015200	3.544600	-10.686000	25.785609	0.000337	20.814240
1369.658166	-2.988100	3.543900	-10.589000	25.782406	0.000334	20.817187
1370.656038	-2.985200	3.544100	-10.578000	25.728417	0.000336	20.811321
1371.655722	-3.002700	3.543300	-10.637000	25.711719	0.000337	20.813515
1372.658454	-2.982300	3.544300	-10.570000	25.688239	0.000336	20.800837
1373.655469	-3.005400	3.541600	-10.643000	25.687495	0.000336	20.821427
1374.656279	-2.989200	3.542100	-10.587000	25.714478	0.000332	20.839045
1375.658464	-2.986400	3.541500	-10.576000	25.722876	0.000334	20.821402
1376.656883	-2.991500	3.541700	-10.594000	25.709084	0.000334	20.802808
1377.656145	-2.998000	3.541900	-10.618000	25.773781	0.000333	20.803781
1378.658635	-3.028900	3.539300	-10.719000	25.713185	0.000332	20.806453
1379.658267	-2.994500	3.540900	-10.602000	25.757108	0.000334	20.806475
1380.656126	-2.990600	3.540400	-10.587000	25.758725	0.000333	20.797193
1381.662787	-2.990600	3.538800	-10.582000	25.715913	0.000332	20.806822
1382.659776	-2.989000	3.539800	-10.579000	25.716681	0.000331	20.795740
1383.659747	-2.997600	3.539500	-10.610000	25.716807	0.000331	20.808669
1384.662025	-3.015300	3.537900	-10.666000	25.689724	0.000329	20.799009
1385.660504	-3.002800	3.539200	-10.627000	25.686441	0.000330	20.811359
1386.659664	-3.017100	3.537600	-10.673000	25.712531	0.000329	20.806270
1387.662666	-2.992900	3.538200	-10.588000	25.729298	0.000329	20.807938
1388.660435	-3.006400	3.537100	-10.632000	25.794366	0.000328	20.811183
1389.661952	-2.994000	3.536300	-10.587000	25.796032	0.000330	20.803373
1390.663000	-3.007600	3.537800	-10.639000	25.702044	0.000327	20.802375
1391.662168	-3.002800	3.536800	-10.619000	25.730615	0.000326	20.813529
1392.663127	-2.985700	3.535900	-10.557000	25.777620	0.000327	20.801948
1393.663187	-3.001800	3.536100	-10.614000	25.792080	0.000328	20.804145
1394.662384	-3.008300	3.534900	-10.633000	25.785172	0.000326	20.786775
1395.661457	-2.983600	3.536100	-10.549000	25.704602	0.000324	20.816798
1396.662373	-3.009900	3.535100	-10.640000	25.663331	0.000325	20.808062
1397.663123	-3.023600	3.535500	-10.690000	25.624372	0.000323	20.789322
1398.662853	-3.012900	3.534200	-10.647000	25.619975	0.000322	20.808614
1399.665184	-2.963300	3.535300	-10.475000	25.654163	0.000323	20.796958
1400.663396	-2.990600	3.535700	-10.573000	25.618759	0.000323	20.777521
1401.663942	-2.973800	3.533200	-10.506000	25.632851	0.000322	20.787406
1402.662542	-2.985800	3.533300	-10.549000	25.669276	0.000322	20.783688
1403.663927	-2.983700	3.533500	-10.542000	25.706743	0.000323	20.793819
1404.663542	-3.002600	3.531500	-10.602000	25.754896	0.000322	20.775329
1405.665701	-3.007100	3.531900	-10.619000	25.724015	0.000323	20.790304
1406.665659	-2.971400	3.531700	-10.493000	25.730750	0.000321	20.793276
1407.665492	-3.002200	3.531200	-10.601000	25.785680	0.000321	20.781595
1408.665943	-2.985500	3.531300	-10.541000	25.764170	0.000323	20.778955
1409.666012	-2.996700	3.531100	-10.581000	25.715125	0.000322	20.803186
1410.666954	-2.999500	3.529700	-10.586000	25.718979	0.000321	20.778133
1411.671702	-3.002200	3.529500	-10.595000	25.729537	0.000322	20.782100
1412.667530	-3.017000	3.530200	-10.649000	25.692740	0.000321	20.784022
1413.671300	-2.998700	3.530400	-10.586000	25.660318	0.000321	20.791760
1414.670938	-3.013500	3.529100	-10.634000	25.621680	0.000320	20.779032
1415.667672	-2.991400	3.528200	-10.553000	25.653434	0.000320	20.794803
1416.670078	-3.004600	3.528700	-10.601000	25.690753	0.000323	20.777284
1417.674616	-2.994500	3.529300	-10.568000	25.692543	0.000320	20.784297
1418.671848	-3.006900	3.526900	-10.604000	25.760443	0.000319	20.769995
1419.669463	-3.006300	3.526200	-10.599000	25.784443	0.000318	20.766127
1420.672071	-3.011100	3.527300	-10.620000	25.796987	0.000320	20.796272
1421.671459	-2.985800	3.527800	-10.532000	25.813956	0.000317	20.760685
1422.669811	-3.024400	3.525900	-10.663000	25.735399	0.000318	20.778031
1423.670434	-3.002800	3.526500	-10.589000	25.787401	0.000318	20.775263
1424.673633	-3.002200	3.525600	-10.584000	25.780966	0.000317	20.782075
1425.671387	-2.971100	3.526200	-10.475000	25.761584	0.000316	20.759762
1426.671106	-2.983800	3.525500	-10.519000	25.727501	0.000317	20.793331
1427.673619	-2.985900	3.524700	-10.523000	25.739401	0.000317	20.765455
1428.678145	-3.001600	3.524400	-10.577000	25.772620	0.000317	20.765157
1429.675912	-3.007700	3.524100	-10.598000	25.740320	0.000315	20.756421
1430.676931	-2.989400	3.522800	-10.530000	25.719078	0.000317	20.771120
1431.676967	-3.003400	3.522100	-10.578000	25.735945	0.000315	20.792330
1432.676022	-2.999800	3.522200	-10.565000	25.733138	0.000317	20.769595
1433.678099	-3.004700	3.522400	-10.583000	25.770430	0.000315	20.760112
1434.677833	-3.000900	3.521700	-10.567000	25.721262	0.000317	20.757667
1435.677503	-3.010700	3.522300	-10.604000	25.669211	0.000315	20.778880
1436.677703	-3.008500	3.521300	-10.593000	25.655073	0.000314	20.756145
1437.678141	-3.011000	3.521400	-10.602000	25.668563	0.000314	20.747409
1438.678577	-2.976000	3.521200	-10.478000	25.691571	0.000315	20.760561
1439.677953	-2.999100	3.520900	-10.559000	25.762998	0.000316	20.760233
1440.682847	-2.985100	3.519700	-10.506000	25.736936	0.000314	20.763927
1441.679097	-3.006600	3.519800	-10.581000	25.714925	0.000312	20.763630
1442.678409	-3.013000	3.519600	-10.604000	25.727594	0.000313	20.766397
1443.678092	-2.985300	3.519200	-10.505000	25.658470	0.000309	20.770938
1444.682912	-2.989300	3.518500	-10.517000	25.706054	0.000313	20.738598
1445.679167	-2.980300	3.518300	-10.484000	25.715616	0.000311	20.767169
1446.682440	-2.993500	3.518800	-10.533000	25.725656	0.000310	20.759709
1447.682608	-3.013900	3.518700	-10.604000	25.756389	0.000310	20.738895
1448.682013	-3.010800	3.517900	-10.590000	25.731096	0.000310	20.782243
1449.680580	-3.008000	3.516300	-10.576000	25.694398	0.000310	20.744908
1450.682895	-3.003100	3.516600	-10.560000	25.695864	0.000311	20.777201
1451.679697	-2.987400	3.516500	-10.504000	25.726027	0.000310	20.762927
1452.679045	-3.007700	3.515700	-10.572000	25.689927	0.000310	20.757962
1453.681320	-2.984400	3.516600	-10.494000	25.720908	0.000308	20.755888
1454.684558	-3.005300	3.516300	-10.566000	25.708162	0.000308	20.765372
1455.683007	-2.988300	3.515400	-10.504000	25.736933	0.000307	20.754915
1456.680460	-3.007600	3.515200	-10.570000	25.753779	0.000309	20.780371
1457.694636	-2.982300	3.514900	-10.481000	25.768385	0.000309	20.775128
1458.683173	-3.020600	3.513100	-10.611000	25.786498	0.000306	20.744009
1459.681056	-3.003800	3.514300	-10.555000	25.784212	0.000307	20.770163
1460.680885	-3.010100	3.513700	-10.576000	25.819515	0.000307	20.787608
1461.686177	-3.019800	3.512300	-10.606000	25.873772	0.000308	20.769565
1462.686415	-2.994300	3.513600	-10.520000	25.854839	0.000306	20.749597
1463.682589	-2.964400	3.512500	-10.412000	25.844255	0.000303	20.756509
1464.686546	-3.005500	3.512500	-10.556000	25.814916	0.000304	20.741735
1465.683012	-3.000200	3.511800	-10.535000	25.802520	0.000304	20.758207
1466.683861	-2.985300	3.512200	-10.484000	25.765278	0.000306	20.759205
1467.687040	-2.974500	3.511300	-10.443000	25.770989	0.000304	20.764941
1468.683458	-2.988300	3.511300	-10.492000	25.759509	0.000304	20.754832
1469.684322	-2.994300	3.510700	-10.511000	25.819059	0.000303	20.757752
1470.684034	-2.993100	3.509300	-10.503000	25.874112	0.000304	20.764216
1471.683622	-2.996300	3.508800	-10.513000	25.843253	0.000303	20.751709
1472.686411	-2.997700	3.509700	-10.520000	25.825862	0.000302	20.766008
1473.685594	-2.990700	3.509500	-10.495000	25.791602	0.000304	20.763362
1474.687963	-2.985600	3.509900	-10.478000	25.794286	0.000302	20.764161
1475.688582	-2.997900	3.509600	-10.521000	25.790705	0.000302	20.757718
1476.689300	-3.029200	3.506300	-10.619000	25.822253	0.000304	20.760012
1477.692499	-3.006700	3.507900	-10.546000	25.881079	0.000300	20.773112
1478.689221	-3.010700	3.508000	-10.561000	25.914639	0.000300	20.769368
1479.688920	-3.011200	3.506700	-10.558000	25.880878	0.000301	20.745883
1480.693943	-3.021000	3.507200	-10.594000	25.825549	0.000302	20.764271
1481.690969	-2.990200	3.507700	-10.488000	25.770816	0.000301	20.772828
1482.690460	-3.022400	3.505300	-10.594000	25.758740	0.000299	20.782510
1483.690684	-3.003300	3.506100	-10.529000	25.790413	0.000301	20.727553
1484.692572	-3.021300	3.505000	-10.589000	25.841268	0.000300	20.779113
1485.690547	-3.013700	3.505400	-10.564000	25.836496	0.000300	20.763888
1486.690126	-3.009200	3.506100	-10.549000	25.776543	0.000299	20.777159
1487.692589	-3.002600	3.504900	-10.523000	25.773859	0.000298	20.782523
1488.691651	-3.017300	3.502700	-10.567000	25.810826	0.000301	20.756119
1489.691507	-2.985300	3.504500	-10.461000	25.761207	0.000297	20.770289
1490.693676	-3.000400	3.504700	-10.514000	25.784933	0.000300	20.752394
1491.693199	-3.000300	3.503100	-10.509000	25.832280	0.000299	20.763920
1492.692754	-3.007100	3.502800	-10.532000	25.829026	0.000296	20.798584
1493.692074	-2.990800	3.504200	-10.479000	25.851479	0.000298	20.764714
1494.695830	-2.982500	3.502200	-10.445000	25.787507	0.000297	20.783904
1495.692538	-2.974300	3.502400	-10.416000	25.796053	0.000299	20.760720
1496.694108	-2.991700	3.501500	-10.475000	25.786708	0.000296	20.764610
1497.694785	-2.987500	3.501500	-10.460000	25.764517	0.000297	20.770294
1498.693599	-3.000300	3.500700	-10.502000	25.783645	0.000295	20.748256
1499.695470	-2.988700	3.501700	-10.464000	25.775670	0.000295	20.753996
1500.694276	-3.003700	3.500100	-10.513000	25.776312	0.000295	20.791626
1501.698060	-2.974100	3.500700	-10.410000	25.765228	0.000294	20.782388
1502.696295	-2.994800	3.499900	-10.481000	25.776927	0.000295	20.788450
1503.700555	-2.989200	3.499300	-10.459000	25.769597	0.000295	20.776345
1504.700199	-3.004800	3.499000	-10.512000	25.788747	0.000294	20.798427
1505.699617	-2.990700	3.498600	-10.462000	25.742731	0.000293	20.801043
1506.698922	-2.998900	3.498500	-10.491000	25.788495	0.000291	20.768301
1507.698933	-2.968100	3.498500	-10.383000	25.817909	0.000292	20.797848
1508.698267	-2.995900	3.497400	-10.476000	25.869405	0.000293	20.784144
1509.702355	-3.001200	3.496200	-10.492000	25.809753	0.000292	20.779224
1510.699260	-2.989700	3.495900	-10.451000	25.772388	0.000288	20.777252
1511.700346	-3.010900	3.495700	-10.525000	25.736114	0.000288	20.785388
1512.701372	-2.990200	3.496800	-10.455000	25.739290	0.000289	20.787629
1513.701260	-3.008300	3.495600	-10.515000	25.751563	0.000290	20.795690
1514.701214	-2.982200	3.495900	-10.424000	25.803759	0.000289	20.810187
1515.701704	-2.972300	3.497100	-10.394000	25.776831	0.000288	20.799734
1516.701951	-2.992300	3.495500	-10.458000	25.768329	0.000288	20.788823
1517.702175	-2.982300	3.493200	-10.416000	25.765500	0.000288	20.772704
1518.700684	-2.993100	3.495500	-10.462000	25.779762	0.000288	20.811687
1519.703680	-2.984400	3.493400	-10.425000	25.765275	0.000286	20.795712
1520.703237	-2.983600	3.494600	-10.425000	25.798614	0.000286	20.785578
1521.702858	-3.001500	3.493600	-10.485000	25.806166	0.000285	20.787475
1522.702982	-3.004600	3.492800	-10.494000	25.809994	0.000284	20.800803
1523.703136	-3.008400	3.491700	-10.503000	25.822489	0.000284	20.790595
1524.702994	-3.005400	3.491500	-10.493000	25.798441	0.000285	20.785404
1525.704119	-2.980000	3.492000	-10.405000	25.804454	0.000287	20.788125
1526.709405	-2.997600	3.491700	-10.465000	25.767113	0.000283	20.805619
1527.705467	-2.971300	3.492900	-10.377000	25.769474	0.000285	20.785705
1528.708583	-2.980600	3.489800	-10.400000	25.765055	0.000284	20.792646
1529.708399	-2.985200	3.489900	-10.416000	25.797428	0.000283	20.786758
1530.706711	-2.982400	3.490700	-10.410000	25.833475	0.000282	20.793570
1531.705172	-2.987100	3.491300	-10.426000	25.842072	0.000282	20.785137
1532.708946	-3.007900	3.488500	-10.492000	25.809058	0.000283	20.780897
1533.705887	-2.984400	3.489200	-10.412000	25.796832	0.000281	20.805126
1534.707195	-2.988900	3.489200	-10.428000	25.808861	0.000281	20.790182
1535.710399	-2.959700	3.489800	-10.328000	25.814525	0.000281	20.799190
1536.707409	-2.984700	3.488400	-10.411000	25.821880	0.000279	20.784293
1537.708210	-3.003200	3.487700	-10.473000	25.742306	0.000279	20.798719
1538.713019	-3.003200	3.487100	-10.471000	25.748270	0.000281	20.800442
1539.708152	-2.995700	3.486900	-10.445000	25.763798	0.000280	20.785219
1540.707963	-3.006000	3.486400	-10.480000	25.804247	0.000278	20.796453
1541.707264	-2.993500	3.485900	-10.434000	25.781886	0.000281	20.784423
1542.710315	-3.016900	3.484400	-10.511000	25.825961	0.000278	20.796453
1543.708660	-2.982800	3.484800	-10.393000	25.807104	0.000278	20.774192
1544.709291	-3.006300	3.485200	-10.477000	25.800523	0.000278	20.815945
1545.709466	-3.005400	3.484400	-10.470000	25.769619	0.000280	20.799601
1546.710399	-3.006900	3.484500	-10.477000	25.788226	0.000278	20.825403
1547.710594	-3.002200	3.484400	-10.460000	25.781719	0.000278	20.796108
1548.711931	-3.009300	3.484000	-10.483000	25.764476	0.000279	20.793012
1549.710202	-3.025600	3.483900	-10.539000	25.740031	0.000276	20.801649
1550.711925	-3.013900	3.483700	-10.499000	25.727285	0.000278	20.798330
1551.712981	-2.991100	3.482900	-10.418000	25.793100	0.000278	20.798057
1552.712487	-2.998500	3.482900	-10.442000	25.839462	0.000277	20.784411
1553.711991	-2.994100	3.482800	-10.427000	25.875255	0.000277	20.827479
1554.711935	-3.015500	3.481500	-10.498000	25.855560	0.000276	20.806272
1555.711066	-2.998600	3.481800	-10.440000	25.848230	0.000277	20.809340
1556.712025	-2.971300	3.483600	-10.351000	25.839712	0.000276	20.814534
1557.713487	-3.004200	3.481000	-10.457000	25.838318	0.000276	20.813134
1558.715050	-3.002300	3.480700	-10.450000	25.858642	0.000275	20.820747
1559.714854	-2.999200	3.480200	-10.436000	25.842942	0.000276	20.788855
1560.713378	-2.992600	3.480000	-10.413000	25.863710	0.000276	20.796916
1561.729386	-3.004100	3.480400	-10.455000	25.813776	0.000275	20.816455
1562.713974	-2.975500	3.480400	-10.355000	25.796039	0.000275	20.799113
1563.713739	-2.997500	3.478900	-10.427000	25.779839	0.000273	20.786159
1564.720891	-3.020800	3.478800	-10.507000	25.748934	0.000276	20.818652
1565.713770	-2.965800	3.479000	-10.317000	25.710573	0.000274	20.804304
1566.713343	-2.972000	3.479700	-10.340000	25.704014	0.000272	20.803405
1567.719591	-2.998000	3.478000	-10.426000	25.710151	0.000274	20.806250
1568.713123	-2.975100	3.477700	-10.345000	25.697553	0.000272	20.817304
1569.713110	-2.996400	3.477100	-10.418000	25.734621	0.000271	20.829406
1570.717629	-2.987700	3.475800	-10.384000	25.833002	0.000273	20.826760
1571.713206	-2.997600	3.477100	-10.422000	25.849970	0.000272	20.812036
1572.714810	-3.009200	3.476000	-10.458000	25.851907	0.000271	20.838164
1573.717573	-3.002600	3.476400	-10.438000	25.836830	0.000270	20.817329
1574.715615	-3.006800	3.474900	-10.447000	25.762670	0.000271	20.822492
1575.715096	-3.015300	3.473200	-10.473000	25.788956	0.000270	20.802429
1576.716626	-2.994100	3.475000	-10.404000	25.771040	0.000270	20.824262
1577.715521	-2.993000	3.474000	-10.397000	25.758273	0.000269	20.814283
1578.714047	-2.974800	3.474600	-10.335000	25.742396	0.000268	20.814931
1579.715808	-2.978500	3.474500	-10.348000	25.783365	0.000269	20.813883
1580.717336	-3.003800	3.474000	-10.434000	25.796632	0.000266	20.817252
1581.715312	-2.983200	3.473000	-10.360000	25.779789	0.000267	20.797015
1582.716504	-3.008000	3.473400	-10.448000	25.769031	0.000267	20.820822
1583.718526	-3.020600	3.472500	-10.488000	25.746324	0.000268	20.822669
1584.719343	-3.006800	3.473200	-10.442000	25.747693	0.000265	20.827837
1585.719769	-3.006100	3.472500	-10.438000	25.761580	0.000266	20.812863
1586.720180	-2.986800	3.471800	-10.368000	25.739070	0.000266	20.819650
1587.721696	-2.988700	3.471300	-10.374000	25.780314	0.000268	20.843059
1588.719777	-3.002100	3.470500	-10.418000	25.798649	0.000267	20.831132
1589.720944	-3.003500	3.470400	-10.423000	25.846696	0.000267	20.815860
1590.718596	-3.001300	3.471200	-10.418000	25.869500	0.000264	20.827388
1591.721447	-3.010000	3.470900	-10.447000	25.829059	0.000263	20.832755
1592.719854	-3.026300	3.468900	-10.497000	25.775124	0.000263	20.826942
1593.724067	-3.002300	3.469800	-10.416000	25.792515	0.000264	20.839669
1594.720096	-2.991600	3.470400	-10.380000	25.791346	0.000264	20.842762
1595.720239	-3.015200	3.467700	-10.455000	25.803273	0.000263	20.826768
1596.724823	-3.009400	3.468100	-10.436000	25.842478	0.000261	20.816364
1597.721043	-3.015700	3.467000	-10.455000	25.874251	0.000263	20.827893
1598.720423	-3.021300	3.466800	-10.473000	25.844588	0.000261	20.822751
1599.727052	-3.010300	3.468300	-10.440000	25.829361	0.000262	20.818834
1600.720197	-3.005800	3.467100	-10.420000	25.815200	0.000261	20.824998
1601.720352	-3.012800	3.466300	-10.442000	25.808095	0.000259	20.824025
1602.727102	-3.028200	3.464500	-10.490000	25.841633	0.000260	20.827843
1603.721243	-2.984400	3.465900	-10.343000	25.873309	0.000260	20.831688
1604.725144	-2.991300	3.466400	-10.368000	25.884837	0.000259	20.848959
1605.726367	-2.993800	3.464700	-10.372000	25.884637	0.000259	20.852550
1606.721231	-2.977000	3.465800	-10.317000	25.858032	0.000256	20.845265
1607.724404	-3.014500	3.463500	-10.440000	25.807401	0.000257	20.827121
1608.723295	-2.977400	3.465300	-10.317000	25.805364	0.000256	20.847360
1609.722766	-2.995600	3.464600	-10.378000	25.814585	0.000257	20.832915
1610.722994	-3.009800	3.464400	-10.426000	25.860219	0.000256	20.818539
1611.723430	-3.022000	3.464100	-10.468000	25.878155	0.000257	20.832289
1612.724621	-3.004500	3.463400	-10.405000	25.886402	0.000257	20.841521
1613.723552	-3.021300	3.463100	-10.462000	25.893756	0.000256	20.848909
1614.724771	-3.009700	3.461900	-10.419000	25.882804	0.000255	20.837907
1615.724011	-2.995100	3.462200	-10.369000	25.861089	0.000254	20.843594
1616.736132	-3.020800	3.461900	-10.457000	25.889708	0.000254	20.859541
1617.722987	-3.011700	3.462300	-10.426000	25.907493	0.000253	20.831890
1618.724427	-3.013100	3.461700	-10.430000	25.940386	0.000253	20.829847
1619.724535	-3.009200	3.461900	-10.416000	25.964582	0.000253	20.848939
1620.724288	-3.018500	3.460300	-10.444000	25.969798	0.000252	20.820990
1621.724823	-3.035400	3.459200	-10.500000	25.983707	0.000255	20.847765
1622.723742	-3.022100	3.460300	-10.457000	25.946897	0.000254	20.839707
1623.724283	-3.012800	3.460100	-10.423000	25.953826	0.000251	20.857099
1624.724846	-3.017600	3.460100	-10.440000	25.941752	0.000251	20.838806
1625.728750	-3.044800	3.458100	-10.528000	25.879728	0.000253	20.841929
1626.724142	-3.005500	3.457800	-10.391000	25.870411	0.000250	20.825933
1627.724098	-3.024300	3.457700	-10.456000	25.872700	0.000249	20.851464
1628.724374	-3.026600	3.457100	-10.462000	25.858963	0.000247	20.858527
1629.727910	-3.001800	3.457700	-10.379000	25.919254	0.000249	20.856980
1630.723771	-3.017800	3.458500	-10.436000	25.955000	0.000250	20.856382
1631.725422	-2.981600	3.457700	-10.309000	25.949759	0.000248	20.868186
1632.728905	-2.985600	3.457700	-10.322000	25.886193	0.000247	20.844631
1633.725587	-2.988700	3.455700	-10.327000	25.877947	0.000247	20.841563
1634.725949	-2.996400	3.457500	-10.359000	25.881402	0.000249	20.856887
1635.727351	-3.014400	3.455900	-10.417000	25.919435	0.000248	20.868541
1636.725962	-2.998300	3.456500	-10.363000	25.909378	0.000248	20.856542
1637.728906	-3.005400	3.453900	-10.379000	25.872684	0.000249	20.859508
1638.728789	-2.998300	3.453900	-10.355000	25.893377	0.000247	20.851373
1639.727903	-2.974000	3.454100	-10.272000	25.879594	0.000247	20.847484
1640.727165	-2.991400	3.454000	-10.331000	25.834407	0.000247	20.857568
1641.726678	-2.991400	3.453600	-10.330000	25.835302	0.000247	20.866052
1642.729638	-3.004000	3.453800	-10.374000	25.933427	0.000244	20.875485
1643.729639	-3.025900	3.452000	-10.444000	25.972378	0.000246	20.852978
1644.730146	-3.018400	3.452200	-10.419000	25.988501	0.000246	20.886244
1645.729570	-3.020000	3.451300	-10.421000	25.991431	0.000245	20.862637
1646.730598	-3.006400	3.453100	-10.380000	26.003655	0.000244	20.844099
1647.729990	-3.015300	3.450600	-10.403000	25.965677	0.000244	20.862367
1648.732137	-3.021100	3.452000	-10.428000	25.920670	0.000244	20.877368
1649.728555	-2.984200	3.452100	-10.300000	25.930955	0.000243	20.831278
1650.733125	-2.990700	3.451000	-10.319000	25.928817	0.000247	20.875596
1651.730531	-2.995500	3.449600	-10.333000	25.925563	0.000247	20.870904
1652.730186	-2.997400	3.451200	-10.344000	25.962552	0.000246	20.866813
1653.730635	-3.001600	3.448900	-10.351000	25.921694	0.000245	20.853742
1654.729487	-3.005600	3.449600	-10.368000	25.898391	0.000245	20.865419
1655.730018	-2.995300	3.450100	-10.333000	25.902367	0.000245	20.876525
1656.733451	-3.017200	3.449400	-10.407000	25.854224	0.000243	20.854715
1657.731402	-3.005900	3.449300	-10.368000	25.813011	0.000245	20.865471
1658.734224	-3.016000	3.449400	-10.402000	25.830549	0.000246	20.859382
1659.730962	-3.007500	3.447700	-10.368000	25.883787	0.000247	20.866869
1660.732762	-3.009800	3.447200	-10.374000	25.871685	0.000244	20.875099
1661.737270	-2.997000	3.447500	-10.331000	25.889053	0.000245	20.854616
1662.734095	-2.997400	3.446900	-10.331000	25.886693	0.000244	20.884011
1663.739350	-2.996900	3.448300	-10.334000	25.901322	0.000245	20.876423
1664.738821	-2.975500	3.446700	-10.254000	25.909818	0.000242	20.867414
1665.739475	-3.022000	3.446800	-10.416000	25.950827	0.000243	20.879689
1666.739944	-2.994100	3.446400	-10.318000	25.958205	0.000243	20.873826
1667.740861	-3.015500	3.444600	-10.387000	25.960938	0.000242	20.867563
1668.739533	-2.982000	3.446100	-10.274000	25.944118	0.000241	20.876742
1669.742171	-2.989300	3.446000	-10.301000	25.911404	0.000241	20.888446
1670.740802	-3.014300	3.444000	-10.380000	25.881718	0.000240	20.867635
1671.740596	-3.012700	3.443400	-10.372000	25.926057	0.000241	20.906011
1672.742263	-3.004500	3.444300	-10.347000	25.925039	0.000242	20.877015
1673.743672	-2.997800	3.443900	-10.323000	25.925983	0.000241	20.877489
1674.742734	-2.981200	3.443600	-10.265000	25.922451	0.000239	20.880105
1675.742911	-2.992700	3.443200	-10.303000	25.912166	0.000240	20.876885
1676.745687	-2.983400	3.443800	-10.273000	25.962269	0.000241	20.875538
1677.747154	-3.006700	3.442500	-10.350000	25.961149	0.000237	20.909023
1678.743670	-2.981500	3.443500	-10.266000	25.952481	0.000238	20.871869
1679.744082	-2.971800	3.442200	-10.229000	25.983057	0.000239	20.885516
1680.744520	-2.997500	3.441400	-10.315000	25.946241	0.000239	20.911115
1681.745244	-2.991400	3.441000	-10.293000	25.888265	0.000238	20.878479
1682.744136	-2.997100	3.440000	-10.309000	25.889330	0.000237	20.890927
1683.744758	-3.007200	3.440600	-10.346000	25.867368	0.000239	20.901581
1684.743913	-2.988100	3.441100	-10.281000	25.842352	0.000237	20.895891
1685.744230	-2.988300	3.438900	-10.275000	25.845011	0.000238	20.892873
1686.743790	-3.004400	3.439000	-10.331000	25.886199	0.000239	20.889204
1687.747026	-2.994800	3.439100	-10.298000	25.938487	0.000236	20.898584
1688.743521	-2.981800	3.438900	-10.253000	25.968072	0.000239	20.916926
1689.745786	-3.028300	3.438400	-10.412000	26.015739	0.000236	20.907444
1690.745118	-2.992800	3.438500	-10.290000	26.046238	0.000239	20.905845
1691.745082	-3.015500	3.437100	-10.363000	26.062284	0.000234	20.891622
1692.747340	-2.995400	3.437900	-10.297000	26.090870	0.000236	20.886679
1693.746601	-2.992100	3.437300	-10.284000	26.089948	0.000236	20.877693
1694.745705	-3.005300	3.436800	-10.328000	26.056442	0.000234	20.884331
1695.750147	-2.995000	3.437000	-10.292000	26.083267	0.000234	20.900850
1696.744092	-3.024700	3.435200	-10.389000	26.035551	0.000231	20.900324
1697.746926	-2.993500	3.436200	-10.285000	25.996082	0.000233	20.891489
1698.746646	-3.006600	3.436800	-10.332000	26.016625	0.000234	20.896007
1699.745822	-3.003000	3.435900	-10.318000	26.061406	0.000230	20.878412
1700.746343	-3.011700	3.435500	-10.345000	26.080405	0.000231	20.886122
1701.743257	-3.000900	3.435700	-10.310000	26.058302	0.000230	20.873872
1702.751713	-3.003700	3.435000	-10.316000	26.029090	0.000230	20.892884
1703.749990	-3.010800	3.434900	-10.342000	26.022757	0.000233	20.900271
1704.749799	-2.989900	3.434300	-10.268000	25.995308	0.000230	20.880755
1705.747877	-3.014100	3.433200	-10.347000	25.991708	0.000228	20.889466
1706.746698	-3.009100	3.433900	-10.332000	25.944337	0.000227	20.894031
1707.745843	-3.004200	3.434100	-10.315000	25.922006	0.000228	20.882503
1708.748895	-3.017500	3.431800	-10.355000	25.942227	0.000226	20.871050
1709.746952	-2.996200	3.431700	-10.281000	25.964906	0.000225	20.877712
1710.747084	-2.996900	3.432600	-10.286000	26.009543	0.000226	20.876091
1711.750199	-3.005100	3.430900	-10.309000	26.034805	0.000226	20.890092
1712.747920	-2.997800	3.431400	-10.286000	25.985005	0.000228	20.881784
1713.749647	-2.984200	3.432400	-10.242000	25.958822	0.000226	20.874920
1714.748791	-2.991100	3.430800	-10.260000	25.941138	0.000227	20.871852
1715.749057	-2.987600	3.430700	-10.248000	25.920148	0.000224	20.866887
1716.749968	-2.984700	3.430100	-10.236000	25.905816	0.000225	20.874300
1717.751214	-2.989300	3.431700	-10.258000	25.925716	0.000225	20.862050
1718.751312	-2.988900	3.429500	-10.249000	25.901944	0.000224	20.867091
1719.748775	-2.996800	3.428800	-10.275000	25.936621	0.000224	20.872530
1720.751402	-2.995300	3.429700	-10.271000	25.918689	0.000225	20.860205
1721.748169	-2.963600	3.429000	-10.160000	25.919731	0.000224	20.857934
1722.748415	-2.981300	3.428700	-10.221000	25.964047	0.000222	20.860729
1723.749739	-2.990000	3.430200	-10.256000	25.967825	0.000224	20.854568
1724.752287	-3.002100	3.427600	-10.289000	26.041003	0.000223	20.848432
1725.749651	-3.003000	3.426400	-10.289000	26.080000	0.000224	20.865327
1726.749805	-2.976900	3.427900	-10.204000	26.086930	0.000221	20.867549
1727.750203	-2.996200	3.427100	-10.267000	26.079456	0.000224	20.854825
1728.750283	-3.005100	3.425200	-10.292000	26.082661	0.000223	20.849036
1729.750264	-2.995100	3.425700	-10.259000	26.055065	0.000221	20.848336
1730.749880	-3.042400	3.424400	-10.417000	26.035447	0.000222	20.863238
1731.748863	-2.991700	3.425900	-10.248000	26.018955	0.000223	20.841927
1732.750518	-2.995100	3.424600	-10.256000	26.015802	0.000220	20.836863
1733.749748	-3.008800	3.424200	-10.302000	25.992131	0.000221	20.850064
1734.749700	-3.019600	3.423500	-10.337000	25.975912	0.000222	20.859373
1735.751295	-3.023700	3.424400	-10.354000	26.018708	0.000222	20.846894
1736.750011	-3.011900	3.422700	-10.308000	26.057757	0.000221	20.846299
1737.754634	-2.997800	3.423100	-10.261000	26.008827	0.000219	20.830330
1738.751192	-3.000900	3.422500	-10.269000	25.996631	0.000220	20.855059
1739.754591	-3.012400	3.423100	-10.311000	25.965485	0.000218	20.852217
1740.756490	-2.976900	3.422700	-10.189000	25.998395	0.000217	20.856832
1741.753384	-2.972400	3.422900	-10.173000	25.998472	0.000219	20.839366
1742.756480	-3.017100	3.420300	-10.317000	26.002347	0.000217	20.837095
1743.754292	-2.973600	3.423800	-10.180000	25.943852	0.000217	20.853717
1744.754491	-2.979200	3.422600	-10.196000	25.952622	0.000216	20.843088
1745.756047	-2.974600	3.421300	-10.176000	25.977287	0.000218	20.838944
1746.757240	-3.003700	3.420500	-10.273000	26.036353	0.000216	20.843286
1747.753344	-2.986700	3.420900	-10.217000	26.059082	0.000217	20.838622
1748.754726	-3.008200	3.419600	-10.285000	26.032902	0.000216	20.828913
1749.754066	-3.011700	3.418800	-10.295000	26.062012	0.000213	20.815488
1750.754322	-3.029800	3.418100	-10.354000	26.056100	0.000215	20.836574
1751.757114	-2.996900	3.417800	-10.241000	26.079026	0.000214	20.843013
1752.756194	-3.003400	3.418300	-10.265000	26.020511	0.000215	20.817887
1753.756371	-3.005200	3.418000	-10.271000	26.013805	0.000214	20.838176
1754.755593	-3.026600	3.417900	-10.343000	26.018031	0.000213	20.849059
1755.757079	-2.981100	3.417700	-10.187000	26.019249	0.000214	20.812826
1756.755697	-2.999000	3.417200	-10.247000	26.019869	0.000211	20.824828
1757.755736	-3.008900	3.416100	-10.278000	26.072301	0.000213	20.821559
1758.756393	-3.006500	3.417400	-10.273000	26.071906	0.000212	20.823058
1759.757315	-2.972400	3.417400	-10.157000	26.051639	0.000214	20.842523
1760.756747	-2.999800	3.414600	-10.242000	26.035991	0.000212	20.841974
1761.757239	-3.006300	3.415100	-10.266000	26.043493	0.000209	20.845244
1762.758476	-2.983800	3.416100	-10.192000	26.004150	0.000210	20.819466
1763.760244	-2.990600	3.414400	-10.209000	25.993794	0.000210	20.827555
1764.758225	-2.996000	3.415500	-10.231000	26.010513	0.000209	20.818273
1765.761486	-2.989800	3.414600	-10.208000	26.028122	0.000210	20.812732
1766.758035	-2.999400	3.414100	-10.240000	26.020500	0.000208	20.818350
1767.757972	-3.012700	3.413000	-10.281000	26.011136	0.000208	20.835968
1768.759154	-2.999200	3.413200	-10.236000	26.013375	0.000210	20.809295
1769.759354	-3.005400	3.411900	-10.254000	26.037295	0.000208	20.829534
1770.760577	-3.009500	3.412400	-10.269000	26.055453	0.000209	20.818855
1771.761855	-3.013200	3.412600	-10.282000	26.067427	0.000208	20.819031
1772.761249	-2.996600	3.412600	-10.226000	26.088813	0.000206	20.816812
1773.762572	-2.988600	3.412900	-10.199000	26.055804	0.000206	20.823949
1774.762784	-2.992400	3.411100	-10.206000	26.032134	0.000205	20.813918
1775.763968	-2.986300	3.411500	-10.187000	26.008143	0.000203	20.824426
1776.763611	-2.996200	3.410700	-10.218000	26.051909	0.000207	20.833785
1777.763230	-2.986800	3.411400	-10.187000	26.101931	0.000207	20.833311
1778.764762	-2.994100	3.411600	-10.213000	26.112812	0.000205	20.805364
1779.767137	-3.000200	3.409700	-10.229000	26.055465	0.000205	20.819341
1780.767767	-3.013000	3.410000	-10.274000	26.069921	0.000203	20.822960
1781.771607	-2.974500	3.411300	-10.146000	26.086413	0.000205	20.820091
1782.767642	-2.971400	3.411300	-10.135000	26.079584	0.000204	20.814652
1783.771269	-2.997300	3.410000	-10.220000	26.060760	0.000204	20.796212
1784.768794	-3.010000	3.407300	-10.255000	26.057556	0.000203	20.827131
1785.767390	-2.989100	3.407000	-10.183000	26.047994	0.000205	20.808515
1786.767365	-2.990200	3.407800	-10.189000	26.074621	0.000203	20.812984
1787.767327	-2.988400	3.408600	-10.185000	26.156955	0.000204	20.809417
1788.768544	-3.013000	3.406000	-10.261000	26.090471	0.000200	20.809470
1789.768044	-3.010400	3.407800	-10.257000	26.069636	0.000202	20.808924
1790.770459	-2.992300	3.406700	-10.193000	26.000239	0.000200	20.817434
1791.770891	-3.024700	3.406300	-10.301000	25.983202	0.000199	20.832560
1792.769635	-3.017500	3.405500	-10.275000	26.009856	0.000202	20.795328
1793.769511	-2.998400	3.407600	-10.217000	26.026253	0.000199	20.787621
1794.772218	-2.982200	3.407300	-10.160000	26.003030	0.000200	20.797005
1795.770598	-2.989100	3.406000	-10.179000	26.084650	0.000201	20.794138
1796.772174	-2.998400	3.405400	-10.210000	26.095680	0.000200	20.791944
1797.772023	-2.996200	3.405600	-10.203000	26.011907	0.000200	20.787905
1798.771986	-2.989600	3.403400	-10.173000	26.016675	0.000199	20.800283
1799.771887	-3.017200	3.402800	-10.265000	25.986101	0.000198	20.793747
1800.771593	-3.005600	3.403600	-10.229000	25.997603	0.000197	20.791553
1801.778194	-3.027500	3.402700	-10.301000	26.022492	0.000198	20.802334
1802.775439	-2.992000	3.402200	-10.178000	26.024883	0.000197	20.809951
1803.777576	-2.979600	3.403300	-10.140000	26.070859	0.000198	20.790238
1804.777843	-3.011000	3.402900	-10.245000	26.118348	0.000199	20.784375
1805.775595	-2.964500	3.402300	-10.086000	26.069126	0.000197	20.793712
1806.780340	-3.005100	3.401100	-10.220000	26.054549	0.000196	20.797084
1807.776588	-2.997900	3.400800	-10.194000	26.096077	0.000196	20.792816
1808.775651	-2.991700	3.401900	-10.177000	26.094565	0.000195	20.785134
1809.776221	-3.017100	3.399500	-10.256000	26.097026	0.000197	20.797564
1810.776866	-2.999800	3.399900	-10.198000	26.104977	0.000196	20.819303
1811.774871	-2.993700	3.400800	-10.180000	26.106695	0.000195	20.784520
1812.776360	-3.001400	3.400400	-10.205000	26.159296	0.000194	20.776208
1813.779080	-3.015700	3.398800	-10.249000	26.152147	0.000193	20.792258
1814.777110	-3.003400	3.399300	-10.208000	26.190498	0.000193	20.795707
1815.779056	-2.993400	3.399000	-10.174000	26.198347	0.000194	20.777041
1816.780994	-2.999800	3.399500	-10.197000	26.147289	0.000195	20.798282
1817.779243	-2.990800	3.399100	-10.165000	26.146447	0.000193	20.789375
1818.779717	-3.000700	3.397600	-10.194000	26.095832	0.000193	20.795415
1819.780535	-3.003900	3.396800	-10.202000	26.124892	0.000195	20.799484
1820.779626	-3.004700	3.397200	-10.207000	26.145059	0.000193	20.788455
1821.780390	-3.004600	3.396500	-10.205000	26.167638	0.000192	20.794073
1822.782915	-3.000900	3.396100	-10.191000	26.103117	0.000193	20.786140
1823.781858	-3.014300	3.394800	-10.232000	26.068171	0.000191	20.790382
1824.781064	-3.008600	3.396300	-10.218000	26.095570	0.000190	20.784246
1825.779752	-2.998500	3.396700	-10.184000	26.096840	0.000191	20.790265
1826.781120	-3.000600	3.395500	-10.188000	26.150086	0.000191	20.783549
1827.781374	-2.998000	3.395000	-10.177000	26.190716	0.000191	20.774589
1828.780986	-2.999900	3.395300	-10.185000	26.152625	0.000187	20.788944
1829.783685	-3.000400	3.394300	-10.183000	26.096939	0.000189	20.787519
1830.780657	-3.035700	3.393000	-10.299000	26.131316	0.000189	20.781758
1831.784378	-3.006400	3.393600	-10.202000	26.149547	0.000189	20.778265
1832.780500	-3.022300	3.393400	-10.255000	26.173214	0.000189	20.779288
1833.785051	-3.018800	3.392700	-10.241000	26.199987	0.000190	20.772525
1834.780447	-3.003500	3.392800	-10.190000	26.124364	0.000187	20.783307
1835.784709	-3.007800	3.392900	-10.203000	26.094959	0.000188	20.778417
1836.784226	-3.015200	3.391200	-10.224000	26.018730	0.000187	20.766786
1837.781683	-3.011400	3.391500	-10.212000	25.999409	0.000188	20.788151
1838.782180	-3.003300	3.391000	-10.183000	26.028844	0.000185	20.758929
1839.785707	-2.984400	3.392600	-10.124000	26.016944	0.000186	20.772104
1840.782686	-2.991500	3.390500	-10.142000	26.062425	0.000185	20.777970
1841.786765	-3.009800	3.390600	-10.204000	26.154796	0.000186	20.778324
1842.786766	-3.007900	3.389700	-10.195000	26.192045	0.000187	20.758855
1843.783142	-3.023600	3.391400	-10.254000	26.183058	0.000184	20.783016
1844.783768	-3.004700	3.390000	-10.185000	26.173991	0.000185	20.796664
1845.784032	-3.009700	3.390300	-10.203000	26.165075	0.000185	20.784385
1846.783630	-2.993700	3.389700	-10.147000	26.190112	0.000186	20.778723
1847.785986	-3.013400	3.388900	-10.211000	26.206503	0.000184	20.773384
1848.786126	-3.003000	3.388500	-10.174000	26.189341	0.000185	20.774155
1849.788833	-3.012100	3.387200	-10.202000	26.132670	0.000184	20.782170
1850.786758	-2.999800	3.388400	-10.163000	26.097799	0.000182	20.748553
1851.785928	-2.987400	3.388300	-10.122000	26.044328	0.000185	20.766900
1852.786093	-3.001400	3.386800	-10.164000	26.057070	0.000183	20.773064
1853.786431	-2.973500	3.388600	-10.075000	26.021500	0.000184	20.760085
1854.785516	-2.990400	3.386100	-10.124000	26.044702	0.000183	20.758266
1855.789088	-3.006800	3.386900	-10.183000	26.072643	0.000184	20.762633
1856.787286	-3.009900	3.385500	-10.189000	26.094823	0.000182	20.769745
1857.793447	-3.005800	3.385900	-10.177000	26.059852	0.000182	20.767799
1858.790484	-2.998200	3.384900	-10.147000	26.117674	0.000183	20.754299
1859.787328	-2.997700	3.385700	-10.148000	26.158728	0.000185	20.784172
1860.787730	-3.028300	3.385100	-10.250000	26.165655	0.000184	20.756992
1861.787947	-3.002600	3.384800	-10.161000	26.195262	0.000183	20.772993
1862.789440	-3.020700	3.383000	-10.218000	26.218457	0.000182	20.764533
1863.789360	-3.007600	3.384000	-10.177000	26.247834	0.000183	20.751854
1864.789576	-3.016900	3.382700	-10.205000	26.259331	0.000183	20.769098
1865.792874	-2.993800	3.384100	-10.130000	26.254461	0.000183	20.752824
1866.789749	-2.973200	3.384100	-10.060000	26.166478	0.000181	20.762087
1867.793630	-3.004400	3.382600	-10.160000	26.142561	0.000180	20.757969
1868.791763	-3.004200	3.381900	-10.159000	26.102898	0.000179	20.756995
1869.790932	-3.002400	3.381600	-10.152000	26.067949	0.000180	20.774512
1870.789660	-2.997500	3.380900	-10.133000	26.064522	0.000181	20.759214
1871.790609	-2.975900	3.381800	-10.063000	26.091991	0.000179	20.751727
1872.790319	-2.984700	3.382200	-10.094000	26.109822	0.000179	20.750676
1873.790025	-3.012800	3.380400	-10.183000	26.133317	0.000177	20.742042
1874.791610	-2.983900	3.380700	-10.087000	26.180458	0.000178	20.752901
1875.792744	-2.981200	3.380200	-10.077000	26.199703	0.000176	20.752325
1876.791845	-2.986100	3.379500	-10.090000	26.165729	0.000179	20.742842
1877.796447	-2.995900	3.380200	-10.125000	26.197368	0.000177	20.752350
1878.794147	-2.998800	3.378200	-10.129000	26.247359	0.000176	20.755170
1879.792391	-3.007900	3.379100	-10.164000	26.257616	0.000178	20.757417
1880.791698	-2.986400	3.378900	-10.090000	26.230672	0.000176	20.765902
1881.795514	-2.983300	3.378700	-10.079000	26.209809	0.000175	20.744937
1882.791783	-3.009300	3.377300	-10.163000	26.208643	0.000175	20.747558
1883.794096	-3.003000	3.378000	-10.142000	26.199061	0.000174	20.744094
1884.802779	-2.987500	3.376800	-10.087000	26.214904	0.000176	20.745315
1885.795102	-2.990900	3.378000	-10.102000	26.224766	0.000175	20.758071
1886.795514	-2.994300	3.376900	-10.110000	26.239591	0.000173	20.740725
1887.795723	-2.991900	3.376600	-10.100000	26.258837	0.000174	20.747738
1888.795482	-3.007600	3.376100	-10.153000	26.218185	0.000174	20.754302
1889.793755	-3.017000	3.375200	-10.182000	26.172714	0.000174	20.747016
1890.796608	-3.002600	3.375000	-10.133000	26.125675	0.000173	20.759967
1891.798057	-3.000600	3.374600	-10.124000	26.135091	0.000172	20.741927
1892.796483	-3.008000	3.374400	-10.149000	26.138669	0.000172	20.753583
1893.797809	-3.005200	3.373900	-10.138000	26.159431	0.000172	20.745996
1894.798283	-2.996700	3.373400	-10.108000	26.215807	0.000172	20.752861
1895.797190	-3.005500	3.373500	-10.139000	26.249308	0.000171	20.732472
1896.799847	-3.019600	3.373200	-10.185000	26.270420	0.000171	20.731402
1897.798482	-2.981900	3.373500	-10.059000	26.272930	0.000171	20.729657
1898.797197	-3.026300	3.373100	-10.207000	26.246758	0.000170	20.734650
1899.797077	-2.983300	3.372800	-10.061000	26.204344	0.000170	20.743712
1900.799146	-2.999800	3.373000	-10.118000	26.209192	0.000167	20.730566
1901.797675	-2.976200	3.372500	-10.037000	26.248084	0.000171	20.735983
1902.797959	-3.002200	3.372900	-10.125000	26.257076	0.000169	20.739804
1903.800593	-3.006400	3.370600	-10.133000	26.290600	0.000170	20.735562
1904.797554	-3.027400	3.369300	-10.199000	26.274910	0.000167	20.747295
1905.798584	-3.017000	3.370900	-10.169000	26.221423	0.000168	20.755660
1906.798373	-3.002300	3.371600	-10.122000	26.218099	0.000167	20.735249
1907.797951	-2.990400	3.371500	-10.081000	26.230789	0.000166	20.711490
1908.798835	-3.012200	3.369300	-10.148000	26.282246	0.000168	20.737124
1909.799416	-2.995100	3.370500	-10.094000	26.298862	0.000167	20.723949
1910.802373	-3.002500	3.370100	-10.118000	26.301449	0.000167	20.750258
1911.799319	-3.012900	3.368000	-10.145000	26.254412	0.000170	20.725272
1912.801650	-2.990200	3.368600	-10.072000	26.209122	0.000168	20.741401
1913.803194	-3.018700	3.368500	-10.168000	26.224967	0.000168	20.753531
1914.799721	-3.007100	3.367900	-10.126000	26.249975	0.000166	20.737409
1915.800910	-3.022900	3.367200	-10.177000	26.250175	0.000169	20.751836
1916.802945	-3.014400	3.368300	-10.152000	26.259513	0.000164	20.732295
1917.804658	-3.013900	3.367200	-10.148000	26.288047	0.000167	20.730625
1918.801610	-3.006800	3.366700	-10.122000	26.310870	0.000165	20.721792
1919.802285	-3.013500	3.365700	-10.141000	26.289068	0.000166	20.731651
1920.804070	-3.011300	3.366100	-10.135000	26.307944	0.000165	20.721222
1921.801542	-2.994200	3.366500	-10.079000	26.309285	0.000164	20.727312
1922.800695	-3.004200	3.365900	-10.111000	26.337790	0.000163	20.737942
1923.806445	-3.021600	3.364000	-10.163000	26.360859	0.000164	20.752118
1924.800663	-3.009600	3.365400	-10.127000	26.394333	0.000165	20.736923
1925.802296	-2.993900	3.366600	-10.078000	26.352715	0.000163	20.725914
1926.801399	-3.002500	3.363400	-10.098000	26.337966	0.000160	20.735748
1927.804402	-2.993600	3.364000	-10.070000	26.329573	0.000161	20.742012
1928.801136	-3.002400	3.363200	-10.097000	26.317802	0.000160	20.738243
1929.803354	-3.014700	3.363300	-10.139000	26.284825	0.000159	20.756311
1930.804161	-3.014100	3.361900	-10.132000	26.271488	0.000158	20.743856
1931.801990	-3.010500	3.362300	-10.121000	26.361673	0.000158	20.745823
1932.801743	-2.994900	3.362700	-10.070000	26.352440	0.000158	20.738441
1933.803592	-2.992800	3.362800	-10.064000	26.369224	0.000161	20.757207
1934.802771	-3.045900	3.360900	-10.236000	26.312486	0.000159	20.745703
1935.802936	-3.007600	3.362500	-10.112000	26.295399	0.000159	20.756032
1936.804909	-3.018800	3.360100	-10.142000	26.303768	0.000157	20.743580
1937.802126	-3.020800	3.361100	-10.153000	26.298310	0.000157	20.724343
1938.802020	-3.017100	3.359300	-10.134000	26.289790	0.000157	20.760827
1939.806064	-2.989600	3.360000	-10.044000	26.295405	0.000156	20.745133
1940.808471	-2.994600	3.359000	-10.058000	26.339082	0.000156	20.736870
1941.804997	-3.008600	3.358900	-10.105000	26.317506	0.000155	20.728462
1942.805767	-3.004100	3.358600	-10.088000	26.310278	0.000156	20.749648
1943.807339	-3.020100	3.357900	-10.140000	26.337621	0.000155	20.762903
1944.805824	-3.010900	3.359100	-10.113000	26.293965	0.000155	20.728512
1945.807184	-3.012400	3.357800	-10.114000	26.318999	0.000155	20.780224
1946.806808	-3.026800	3.356900	-10.159000	26.320661	0.000154	20.743487
1947.806334	-3.015200	3.358300	-10.126000	26.276289	0.000153	20.741094
1948.806958	-2.980100	3.358600	-10.009000	26.284313	0.000151	20.749633
1949.806784	-3.006100	3.356600	-10.089000	26.309816	0.000154	20.729742
1950.810584	-2.987200	3.357200	-10.028000	26.313393	0.000155	20.762736
1951.811434	-2.995100	3.355600	-10.050000	26.331219	0.000153	20.769272
1952.810519	-3.004200	3.356500	-10.083000	26.369141	0.000155	20.753330
1953.812675	-3.007000	3.355000	-10.087000	26.392181	0.000155	20.749459
1954.810544	-3.011100	3.355600	-10.103000	26.427067	0.000153	20.740899
1955.810375	-2.989800	3.356300	-10.033000	26.374831	0.000153	20.760471
1956.816717	-3.011600	3.353800	-10.100000	26.316819	0.000154	20.772817
1957.812036	-2.995900	3.355000	-10.050000	26.322209	0.000151	20.751681
1958.810814	-3.015100	3.354300	-10.113000	26.274806	0.000153	20.760942
1959.813759	-3.001500	3.354600	-10.068000	26.219750	0.000152	20.750184
1960.814719	-2.990400	3.353500	-10.027000	26.223130	0.000150	20.757849
1961.812383	-2.994900	3.353000	-10.041000	26.260997	0.000153	20.751805
1962.816069	-2.989200	3.352600	-10.021000	26.269317	0.000150	20.764434
1963.815178	-2.994900	3.352600	-10.040000	26.365836	0.000151	20.768500
1964.813451	-3.022300	3.351400	-10.128000	26.327572	0.000150	20.771296
1965.813082	-3.002600	3.351900	-10.064000	26.339962	0.000152	20.779480
1966.816045	-3.016900	3.351600	-10.111000	26.354291	0.000151	20.766381
1967.817257	-2.993100	3.351000	-10.029000	26.368444	0.000149	20.773967
1968.816544	-3.007600	3.350700	-10.076000	26.349749	0.000149	20.752332
1969.814430	-3.011000	3.351000	-10.089000	26.324491	0.000150	20.756820
1970.816456	-3.011500	3.350100	-10.088000	26.316372	0.000150	20.779480
1971.814545	-2.993300	3.350100	-10.027000	26.270060	0.000148	20.769923
1972.816981	-2.982800	3.350500	-9.993400	26.257913	0.000149	20.771466
1973.815738	-2.989700	3.349600	-10.014000	26.216743	0.000148	20.764233
1974.815135	-2.988300	3.349000	-10.007000	26.192379	0.000148	20.757768
1975.813764	-2.998100	3.348400	-10.038000	26.240508	0.000147	20.763458
1976.820469	-3.012600	3.348400	-10.087000	26.284017	0.000148	20.773518
1977.821238	-2.981200	3.348400	-9.980600	26.304774	0.000147	20.764031
1978.823888	-2.968400	3.348900	-9.939100	26.346742	0.000149	20.760691
1979.816392	-2.981000	3.348700	-9.981500	26.406186	0.000147	20.765432
1980.817983	-2.984900	3.348700	-9.994700	26.435481	0.000147	20.785868
1981.815628	-2.979100	3.347600	-9.971900	26.417776	0.000145	20.771392
1982.816861	-2.973900	3.346900	-9.952100	26.377257	0.000145	20.781402
1983.817635	-3.003800	3.346200	-10.050000	26.322875	0.000146	20.768472
1984.816950	-2.992700	3.345700	-10.012000	26.321808	0.000143	20.770245
1985.815791	-3.001100	3.345600	-10.039000	26.305893	0.000142	20.785071
1986.818736	-2.985100	3.345600	-9.986200	26.323399	0.000142	20.764258
1987.815212	-3.009400	3.344200	-10.062000	26.374701	0.000142	20.771720
1988.816573	-3.010200	3.346200	-10.071000	26.421702	0.000142	20.775811
1989.816387	-2.987600	3.344500	-9.990900	26.432003	0.000141	20.784743
1990.816068	-2.999900	3.344200	-10.032000	26.384482	0.000144	20.771593
1991.817575	-2.992300	3.343800	-10.005000	26.355259	0.000142	20.778259
1992.816751	-3.014200	3.342800	-10.074000	26.343067	0.000141	20.770273
1993.818624	-2.976800	3.343700	-9.952700	26.335666	0.000138	20.768999
1994.817323	-2.989900	3.343100	-9.994900	26.365638	0.000139	20.778734
1995.817473	-2.989700	3.343400	-9.995200	26.373261	0.000140	20.786869
1996.818681	-3.007700	3.342200	-10.051000	26.424535	0.000139	20.786246
1997.817786	-2.995900	3.342100	-10.012000	26.445169	0.000139	20.776639
1998.819597	-2.996500	3.342700	-10.016000	26.475339	0.000137	20.760496
1999.820609	-3.001300	3.341800	-10.028000	26.514270	0.000136	20.795835
2000.819790	-3.002100	3.342200	-10.032000	26.505434	0.000138	20.776521
2001.821605	-2.974400	3.341400	-9.937700	26.520159	0.000137	20.781365
2002.821035	-2.965600	3.341500	-9.908900	26.481629	0.000135	20.790052
2003.819555	-2.986400	3.340500	-9.974700	26.473835	0.000137	20.785062
2004.824392	-3.003400	3.340800	-10.033000	26.479745	0.000136	20.774408
2005.825080	-3.003500	3.339600	-10.030000	26.449782	0.000137	20.793604
2006.818720	-2.976900	3.340100	-9.942100	26.468726	0.000136	20.783247
2007.820981	-2.980000	3.339600	-9.950000	26.497353	0.000136	20.785943
2008.822182	-3.008000	3.338000	-10.039000	26.455672	0.000135	20.782454
2009.821711	-3.000800	3.339200	-10.019000	26.426448	0.000136	20.787220
2010.823643	-3.015900	3.338900	-10.068000	26.448398	0.000137	20.785574
2011.825396	-2.992400	3.338800	-9.989800	26.414682	0.000134	20.771601
2012.824516	-3.036500	3.336200	-10.129000	26.429310	0.000136	20.801950
2013.823840	-3.013200	3.337500	-10.056000	26.412277	0.000134	20.795262
2014.824303	-3.008400	3.336200	-10.036000	26.454537	0.000135	20.781313
2015.825996	-2.987700	3.335800	-9.964800	26.480909	0.000133	20.795492
2016.824378	-3.014700	3.335100	-10.054000	26.550254	0.000133	20.777477
2017.824214	-3.008700	3.335300	-10.034000	26.550081	0.000132	20.797692
2018.823956	-2.987900	3.336300	-9.967400	26.480345	0.000132	20.790658
2019.824090	-3.011700	3.334900	-10.043000	26.452907	0.000130	20.782519
2020.825470	-3.005700	3.334400	-10.021000	26.496686	0.000131	20.808979
2021.827120	-2.987500	3.334300	-9.960700	26.504230	0.000132	20.778630
2022.824304	-2.986700	3.334200	-9.957800	26.532286	0.000132	20.789288
2023.827786	-3.000500	3.332200	-9.997800	26.554164	0.000130	20.779985
2024.829440	-2.989900	3.335100	-9.970900	26.601209	0.000131	20.781758
2025.826396	-2.991000	3.332400	-9.966400	26.575390	0.000128	20.794210
2026.826875	-3.023900	3.332200	-10.075000	26.566058	0.000129	20.805217
2027.827163	-3.003100	3.331900	-10.005000	26.601240	0.000131	20.805023
2028.827349	-3.017400	3.331900	-10.053000	26.555068	0.000129	20.798437
2029.826639	-2.995300	3.332600	-9.981100	26.526420	0.000131	20.787185
2030.827333	-3.009700	3.330800	-10.023000	26.557553	0.000129	20.788607
2031.830148	-3.015200	3.331700	-10.044000	26.538068	0.000129	20.796522
2032.827567	-3.006600	3.330200	-10.011000	26.473390	0.000128	20.802634
2033.827037	-2.996700	3.330100	-9.978700	26.532133	0.000128	20.796247
2034.832234	-2.985200	3.330300	-9.940700	26.578711	0.000129	20.798497
2035.829059	-3.009100	3.329200	-10.016000	26.588268	0.000126	20.792457
2036.829939	-3.003300	3.331000	-10.003000	26.612348	0.000129	20.798171
2037.832940	-2.987500	3.328600	-9.942200	26.646185	0.000125	20.815117
2038.831058	-3.011900	3.328900	-10.025000	26.609895	0.000128	20.789541
2039.833185	-2.993900	3.329600	-9.967000	26.638666	0.000128	20.796653
2040.836439	-2.981700	3.329600	-9.926800	26.614633	0.000126	20.810425
2041.829986	-2.988800	3.330000	-9.952100	26.567366	0.000126	20.808903
2042.830571	-2.976800	3.328400	-9.907500	26.551504	0.000125	20.792011
2043.830884	-2.996600	3.328100	-9.972000	26.535069	0.000128	20.801094
2044.834413	-3.039800	3.326100	-10.109000	26.525557	0.000126	20.796275
2045.832845	-3.005900	3.327600	-10.001000	26.478586	0.000124	20.791735
2046.830722	-2.985100	3.326800	-9.930100	26.454524	0.000124	20.819232
2047.832380	-3.018300	3.326600	-10.040000	26.473942	0.000125	20.807930
2048.837658	-3.034300	3.324900	-10.087000	26.513912	0.000126	20.805432
2049.833314	-3.015300	3.325700	-10.027000	26.544376	0.000125	20.807605
2050.835184	-3.001500	3.325800	-9.981300	26.561477	0.000123	20.809622
2051.833431	-3.010700	3.324100	-10.007000	26.591542	0.000122	20.818033
2052.832584	-2.994500	3.324600	-9.954800	26.563512	0.000124	20.824943
2053.832258	-2.989300	3.323500	-9.934100	26.570936	0.000121	20.827664
2054.833580	-2.989900	3.324100	-9.937000	26.583094	0.000120	20.831826
2055.833176	-3.005900	3.322500	-9.986500	26.551544	0.000122	20.822396
2056.836591	-2.988000	3.323900	-9.931700	26.563752	0.000119	20.828029
2057.834023	-2.996800	3.322200	-9.955400	26.623384	0.000119	20.810688
2058.835886	-3.000000	3.323300	-9.968000	26.636788	0.000120	20.833171
2059.835529	-3.007000	3.322600	-9.989600	26.653965	0.000118	20.810136
2060.834419	-2.987100	3.321400	-9.921100	26.691295	0.000119	20.838655
2061.837579	-2.991500	3.321400	-9.935100	26.716936	0.000118	20.831717
2062.834962	-2.984900	3.320900	-9.911900	26.697673	0.000118	20.829895
2063.836415	-2.987800	3.321600	-9.922800	26.705367	0.000118	20.824354
2064.836348	-2.987500	3.321000	-9.920300	26.656911	0.000118	20.834909
2065.837462	-3.018400	3.320000	-10.020000	26.630893	0.000116	20.818710
2066.838023	-2.994100	3.320900	-9.942400	26.661252	0.000114	20.842591
2067.838521	-2.978800	3.320500	-9.889600	26.670065	0.000118	20.839597
2068.835484	-2.995600	3.318900	-9.940900	26.635113	0.000114	20.856142
2069.838177	-2.997300	3.320300	-9.950600	26.632928	0.000115	20.850626
2070.834045	-2.974100	3.320200	-9.872900	26.697244	0.000114	20.833257
2071.835571	-2.990700	3.319800	-9.927900	26.714374	0.000114	20.840995
2072.833650	-3.002400	3.317600	-9.960200	26.740166	0.000114	20.847010
2073.833476	-3.003800	3.317800	-9.965400	26.737533	0.000113	20.847682
2074.834369	-2.979100	3.317900	-9.883600	26.729220	0.000114	20.835531
2075.834014	-2.971800	3.317500	-9.857600	26.701865	0.000111	20.837428
2076.838997	-2.997200	3.316800	-9.940200	26.705096	0.000112	20.855374
2077.835814	-2.992000	3.316400	-9.922300	26.714550	0.000112	20.831689
2078.835839	-2.987500	3.315000	-9.903200	26.763401	0.000109	20.857094
2079.840721	-2.992000	3.316000	-9.920300	26.776504	0.000112	20.851776
2080.835287	-2.995600	3.316000	-9.931900	26.770524	0.000109	20.844816
2081.841287	-2.994000	3.314200	-9.921900	26.759902	0.000111	20.855473
2082.838984	-2.984400	3.315800	-9.894400	26.762162	0.000110	20.854426
2083.837885	-2.971200	3.314400	-9.846800	26.756876	0.000110	20.864283
2084.837145	-3.002100	3.315200	-9.951400	26.758839	0.000110	20.853456
2085.840868	-2.992200	3.314400	-9.916500	26.762936	0.000107	20.851411
2086.837368	-3.001400	3.313600	-9.944500	26.744466	0.000109	20.863660
2087.839227	-2.990900	3.313200	-9.907800	26.774926	0.000109	20.849242
2088.840267	-3.004000	3.311800	-9.947900	26.822307	0.000108	20.847094
2089.840205	-2.998400	3.312000	-9.930200	26.793445	0.000106	20.850317
2090.842837	-2.992700	3.311200	-9.908000	26.841026	0.000105	20.857379
2091.841106	-3.005500	3.311600	-9.952300	26.803795	0.000106	20.849344
2092.840720	-3.011800	3.311400	-9.972300	26.742142	0.000107	20.852316
2093.843238	-3.010300	3.309900	-9.962900	26.707070	0.000105	20.871108
2094.845659	-3.004000	3.310400	-9.943500	26.698700	0.000106	20.864590
2095.841304	-3.000700	3.309300	-9.929100	26.717347	0.000105	20.865319
2096.846066	-3.001000	3.311100	-9.936100	26.727846	0.000105	20.867813
2097.843061	-2.993700	3.309200	-9.905200	26.732316	0.000105	20.858557
2098.841176	-3.026000	3.310000	-10.015000	26.747457	0.000105	20.840116
2099.844809	-2.980800	3.308800	-9.862100	26.808842	0.000103	20.863426
2100.844464	-3.010000	3.308400	-9.957800	26.804449	0.000104	20.858062
2101.844279	-3.003400	3.308400	-9.935400	26.827582	0.000104	20.856190
2102.845502	-3.000600	3.308400	-9.926600	26.865733	0.000102	20.867049
2103.844795	-2.998500	3.308000	-9.918200	26.873028	0.000102	20.863004
2104.843969	-2.982200	3.307800	-9.863800	26.837963	0.000104	20.861886
2105.844790	-2.980300	3.308000	-9.858000	26.811157	0.000104	20.871443
2106.844409	-2.963000	3.306800	-9.797400	26.852307	0.000104	20.885790
2107.846786	-3.002700	3.304900	-9.922800	26.872785	0.000103	20.865131
2108.843257	-2.982700	3.306400	-9.861300	26.884728	9.998083E-5	20.861019
2109.844930	-3.003900	3.306400	-9.931400	26.869582	0.000101	20.876135
2110.849525	-2.986200	3.305100	-9.868600	26.830150	0.000102	20.881056
2111.845519	-3.001100	3.305500	-9.919600	26.841394	0.000103	20.880982
2112.847935	-3.018400	3.304300	-9.973000	26.881701	9.905676E-5	20.865088
2113.849265	-2.989100	3.303500	-9.873000	26.900890	0.000101	20.869209
2114.846008	-3.007800	3.303700	-9.936400	26.859418	0.000102	20.870657
2115.845603	-2.995700	3.302800	-9.893200	26.874160	0.000101	20.866513
2116.851253	-2.994100	3.302700	-9.887600	26.805490	9.932078E-5	20.863375
2117.846716	-3.006100	3.303200	-9.929100	26.749866	9.955180E-5	20.874778
2118.845835	-2.995600	3.303200	-9.894400	26.795192	9.833071E-5	20.879572
2119.847077	-2.999300	3.302800	-9.905100	26.825447	9.958480E-5	20.883440
2120.847144	-2.993500	3.302500	-9.884800	26.835875	9.753865E-5	20.872588
2121.852134	-2.993600	3.301100	-9.880900	26.853175	9.730764E-5	20.871017
2122.849823	-2.989500	3.302200	-9.870700	26.901523	9.803369E-5	20.875061
2123.850328	-2.992900	3.300800	-9.877900	26.958656	9.984882E-5	20.872768
2124.849289	-3.015400	3.300700	-9.951600	26.921458	9.912277E-5	20.894156
2125.849375	-2.983500	3.300800	-9.847400	26.893091	9.615255E-5	20.878910
2126.849877	-2.980300	3.300500	-9.835400	26.884952	9.767066E-5	20.894432
2127.848153	-3.004600	3.299800	-9.913700	26.879198	9.651558E-5	20.891018
2128.852580	-3.004400	3.299100	-9.911600	26.838495	9.681260E-5	20.886128
2129.849179	-3.001200	3.299000	-9.899300	26.832692	9.460144E-5	20.867492
2130.850453	-2.998600	3.298600	-9.890600	26.844978	9.664759E-5	20.894541
2131.848863	-2.997900	3.298800	-9.888300	26.853466	9.489846E-5	20.876525
2132.849218	-2.995300	3.298100	-9.878700	26.955347	9.446943E-5	20.872760
2133.849256	-3.003300	3.298600	-9.905900	26.961132	9.394139E-5	20.890430
2134.852872	-3.014400	3.296100	-9.934800	26.933565	9.338035E-5	20.883098
2135.851117	-3.008800	3.295400	-9.914700	26.899614	9.588853E-5	20.884521
2136.853136	-3.007300	3.296400	-9.912500	26.866606	9.169723E-5	20.875038
2137.851917	-3.003000	3.295200	-9.894600	26.893241	9.219226E-5	20.884276
2138.852427	-2.998400	3.295200	-9.879600	26.956726	9.456844E-5	20.907809
2139.854800	-3.025200	3.294800	-9.965800	26.970994	9.483245E-5	20.886597
2140.853236	-3.005500	3.294900	-9.902100	27.001551	9.113618E-5	20.887453
2141.852889	-2.995500	3.295400	-9.869000	27.059663	9.235727E-5	20.909383
2142.853069	-3.030600	3.293200	-9.979400	27.066119	9.235727E-5	20.875101
2143.854999	-3.006300	3.294100	-9.902000	27.015006	9.130120E-5	20.892923
2144.855125	-3.000100	3.292100	-9.876500	27.011184	9.225827E-5	20.895244
2145.856958	-3.008700	3.293700	-9.908200	27.058906	9.067415E-5	20.896769
2146.856808	-3.003300	3.292500	-9.887300	27.055458	9.037713E-5	20.893776
2147.857494	-2.997200	3.292900	-9.868100	27.011786	9.173023E-5	20.869772
2148.856102	-3.038500	3.290700	-9.997900	27.044121	8.945306E-5	20.861514
2149.859962	-2.997700	3.291700	-9.866700	27.038369	8.948606E-5	20.889866
2150.858650	-3.015200	3.291300	-9.922600	27.001497	9.248928E-5	20.874598
2151.856357	-3.029900	3.290300	-9.967800	27.020230	8.984909E-5	20.891539
2152.859744	-3.014200	3.290600	-9.917600	27.047605	8.905703E-5	20.871654
2153.863585	-2.990500	3.290600	-9.839900	27.088549	8.720890E-5	20.854037
2154.857867	-2.995400	3.289300	-9.851400	27.090466	8.899103E-5	20.862129
2155.857460	-2.971400	3.290400	-9.775900	27.045155	8.575679E-5	20.878200
2156.859633	-2.976800	3.288900	-9.789500	27.049202	8.562478E-5	20.868045
2157.857377	-2.986200	3.290200	-9.823900	27.040145	8.829798E-5	20.877903
2158.855402	-2.996700	3.288200	-9.852800	27.026204	8.826497E-5	20.864832
2159.860608	-2.999000	3.288200	-9.859400	27.053427	8.701088E-5	20.871820
2160.858309	-2.990200	3.288500	-9.832600	27.069485	8.559178E-5	20.859047
2161.858015	-3.012200	3.288100	-9.902900	27.080382	8.595481E-5	20.862419
2162.858013	-3.010800	3.287500	-9.897600	27.108296	8.611982E-5	20.887647
2163.859540	-3.005700	3.286500	-9.876600	27.062540	8.724190E-5	20.889044
2164.858870	-3.011700	3.285800	-9.895000	27.064377	8.615282E-5	20.869082
2165.859369	-2.991600	3.286300	-9.830200	27.011704	8.704389E-5	20.855940
2166.859982	-2.984700	3.286800	-9.809000	27.010388	8.529476E-5	20.850350
2167.862463	-2.989700	3.285900	-9.823000	27.049743	8.618582E-5	20.855788
2168.860168	-3.007600	3.285100	-9.879500	27.051509	8.446970E-5	20.871788
2169.860786	-2.995700	3.287200	-9.846100	27.096401	8.443669E-5	20.865253
2170.860731	-2.978800	3.284500	-9.782600	27.137617	8.460171E-5	20.851231
2171.861256	-2.986800	3.284500	-9.808700	27.166100	8.410667E-5	20.843843
2172.862018	-3.017100	3.282400	-9.902500	27.157470	8.239055E-5	20.871671
2173.860034	-2.981300	3.284100	-9.790300	27.090251	8.298459E-5	20.850060
2174.861227	-2.990100	3.283200	-9.816400	27.070752	8.298459E-5	20.868855
2175.863178	-3.003100	3.282200	-9.856600	27.099757	8.318260E-5	20.866732
2176.861936	-2.996700	3.281400	-9.832200	27.103409	8.103745E-5	20.846224
2177.863092	-2.996200	3.280900	-9.829200	27.114182	8.041040E-5	20.851843
2178.862549	-3.006600	3.281100	-9.864100	27.088797	8.014638E-5	20.856658
2179.865582	-2.985400	3.281900	-9.795900	27.164380	8.107045E-5	20.835949
2180.863143	-3.005500	3.281700	-9.861900	27.165126	8.097144E-5	20.847130
2181.863903	-2.982600	3.282500	-9.789700	27.177639	8.083943E-5	20.859241
2182.866483	-3.018700	3.278500	-9.896100	27.200464	7.991536E-5	20.845215
2183.865386	-3.011200	3.278100	-9.869600	27.152355	8.087243E-5	20.855147
2184.865396	-3.011900	3.279400	-9.876600	27.201485	8.004737E-5	20.838181
2185.866976	-2.977100	3.279200	-9.762000	27.282392	7.912331E-5	20.847016
2186.864271	-3.021100	3.277600	-9.900600	27.226722	7.951934E-5	20.835117
2187.866570	-3.014700	3.277300	-9.878300	27.154722	7.882628E-5	20.829081
2188.863191	-3.004100	3.277400	-9.845000	27.162663	7.988236E-5	20.836118
2189.867507	-3.007200	3.277200	-9.854000	27.222659	7.562505E-5	20.854737
2190.866778	-3.005500	3.277100	-9.848000	27.186385	7.671413E-5	20.838167
2191.866848	-3.020900	3.275700	-9.894000	27.153217	7.664813E-5	20.828040
2192.867797	-3.000000	3.277200	-9.829600	27.146641	7.466798E-5	20.819056
2193.868186	-3.003600	3.275100	-9.836600	27.173815	7.347989E-5	20.839749
2194.868851	-3.020300	3.275900	-9.893300	27.147267	7.661512E-5	20.843867
2195.866999	-3.036700	3.274200	-9.941200	27.111987	7.555905E-5	20.824505
2196.867468	-2.996000	3.275200	-9.811000	27.174614	7.347989E-5	20.827276
2197.865867	-2.978100	3.275400	-9.753400	27.251284	7.427195E-5	20.824261
2198.868950	-3.004000	3.274100	-9.835200	27.286617	7.499800E-5	20.846050
2199.867883	-3.007900	3.274100	-9.847300	27.242335	7.440396E-5	20.844182
2200.867829	-2.995600	3.274100	-9.807400	27.141747	7.354590E-5	20.828833
2201.867967	-3.008200	3.272800	-9.844100	27.108356	7.318287E-5	20.851673
2202.870986	-2.996200	3.272300	-9.803800	27.165323	7.229181E-5	20.810345
2203.870226	-3.020300	3.272100	-9.882300	27.270228	7.390893E-5	20.808229
2204.872220	-2.998300	3.274000	-9.816300	27.234754	7.285285E-5	20.815695
2205.871472	-2.989500	3.270900	-9.777200	27.238479	7.437096E-5	20.809485
2206.868742	-3.003600	3.270600	-9.822800	27.166776	7.232481E-5	20.803272
2207.869204	-2.985900	3.271100	-9.766200	27.231018	7.140074E-5	20.837541
2208.872097	-3.007000	3.268700	-9.827900	27.192785	7.103771E-5	20.814259
2209.870693	-2.999600	3.270600	-9.810500	27.241663	7.156575E-5	20.834498
2210.872384	-3.000600	3.268900	-9.807900	27.201003	6.895856E-5	20.830585
2211.870060	-3.002300	3.268800	-9.813500	27.239366	6.998164E-5	20.813696
2212.874281	-2.993100	3.268600	-9.782600	27.283578	6.991563E-5	20.824977
2213.871338	-2.984300	3.267800	-9.751000	27.273183	6.836452E-5	20.805038
2214.871228	-2.997600	3.268000	-9.794700	27.236123	6.829851E-5	20.820865
2215.874929	-3.012700	3.268400	-9.845900	27.224120	6.810050E-5	20.828706
2216.871127	-2.993800	3.267200	-9.780600	27.229481	6.889256E-5	20.803279
2217.873652	-3.008200	3.267100	-9.827400	27.260667	6.770447E-5	20.802405
2218.872885	-2.993600	3.265200	-9.773700	27.279304	6.810050E-5	20.796971
2219.871473	-2.992500	3.265300	-9.771000	27.242012	6.994864E-5	20.828211
2220.880905	-2.982200	3.265300	-9.736600	27.228866	6.879355E-5	20.823997
2221.873126	-3.008100	3.263200	-9.815200	27.277050	6.918958E-5	20.815091
2222.873173	-3.015700	3.263400	-9.840900	27.335896	6.988263E-5	20.829241
2223.871184	-3.023500	3.263700	-9.867000	27.410892	6.839752E-5	20.797052
2224.871201	-3.007700	3.265400	-9.820400	27.430936	7.037767E-5	20.804890
2225.871582	-3.003200	3.263300	-9.799500	27.424486	7.024566E-5	20.800771
2226.872494	-3.003700	3.261900	-9.796900	27.350835	7.047667E-5	20.793535
2227.871607	-3.014700	3.262700	-9.834800	27.281968	6.717643E-5	20.815770
2228.870890	-2.988700	3.262600	-9.749500	27.323247	6.714343E-5	20.823629
2229.871025	-2.995900	3.262100	-9.772100	27.303753	6.800149E-5	20.808287
2230.871160	-2.981700	3.261400	-9.723600	27.334240	6.744045E-5	20.795807
2231.872942	-3.022100	3.260000	-9.850800	27.281025	6.760546E-5	20.808658
2232.871353	-2.998300	3.259300	-9.770300	27.216961	6.760546E-5	20.814868
2233.872194	-2.998700	3.260700	-9.776900	27.202946	6.711043E-5	20.800297
2234.876469	-2.997200	3.259700	-9.769000	27.245868	6.602135E-5	20.806960
2235.872863	-2.994000	3.259600	-9.758200	27.316894	6.724244E-5	20.812023
2236.873302	-2.994500	3.260300	-9.762600	27.304766	6.549331E-5	20.793185
2237.877258	-2.990000	3.260000	-9.745500	27.318977	6.697842E-5	20.811747
2238.874981	-3.006300	3.257700	-9.792300	27.314731	6.631837E-5	20.807476
2239.873483	-3.014300	3.258300	-9.820800	27.339417	6.654939E-5	20.805757
2240.876002	-2.993100	3.257100	-9.747300	27.387396	6.711043E-5	20.786691
2241.874778	-3.026500	3.256500	-9.854900	27.437425	6.618636E-5	20.806676
2242.875291	-2.976900	3.257700	-9.696600	27.441692	6.615336E-5	20.800537
2243.879344	-3.003600	3.255600	-9.777700	27.402298	6.522929E-5	20.802632
2244.878604	-3.015900	3.254700	-9.815200	27.306190	6.608735E-5	20.809316
2245.876680	-3.004100	3.254300	-9.775100	27.277063	6.734144E-5	20.798035
2246.876801	-3.001600	3.255500	-9.769700	27.292791	6.598835E-5	20.822390
2247.878842	-3.011200	3.253300	-9.795600	27.307523	6.592234E-5	20.811605
2248.876639	-2.999800	3.254500	-9.761200	27.325558	6.925558E-5	20.809832
2249.878653	-2.998000	3.253400	-9.752600	27.380828	6.760546E-5	20.808060
2250.877621	-3.018400	3.252300	-9.815800	27.397472	6.803450E-5	20.807260
2251.880784	-3.008800	3.252400	-9.784100	27.365594	6.595534E-5	20.792260
2252.877681	-3.015500	3.251100	-9.802500	27.334679	6.357917E-5	20.800041
2253.880572	-2.994000	3.252300	-9.736400	27.373603	6.793549E-5	20.794628
2254.883069	-2.983400	3.252800	-9.703400	27.359431	6.470125E-5	20.812613
2255.879282	-2.993600	3.251000	-9.730600	27.341991	6.519629E-5	20.805501
2256.881926	-2.997600	3.249300	-9.739300	27.383118	6.549331E-5	20.817001
2257.882186	-3.004800	3.249700	-9.763000	27.442701	6.648338E-5	20.774999
2258.880153	-2.996900	3.249400	-9.736900	27.440319	6.430522E-5	20.800579
2259.882087	-3.001200	3.249200	-9.750600	27.413701	6.410721E-5	20.797982
2260.884150	-3.002300	3.250000	-9.756900	27.424513	6.219307E-5	20.824980
2261.879875	-3.008000	3.249100	-9.772100	27.461074	6.453624E-5	20.806286
2262.880920	-2.992800	3.248300	-9.721000	27.484713	6.275411E-5	20.794507
2263.879915	-3.043600	3.246500	-9.879600	27.434428	6.351316E-5	20.811721
2264.880444	-2.974700	3.247700	-9.660200	27.420493	6.126900E-5	20.796280
2265.879930	-3.001900	3.247700	-9.748700	27.443108	6.232508E-5	20.804333
2266.879376	-3.013600	3.246400	-9.782700	27.480415	6.301813E-5	20.808675
2267.882539	-3.000400	3.246600	-9.740100	27.529920	6.268810E-5	20.798265
2268.880661	-2.994000	3.245600	-9.716100	27.491349	6.282011E-5	20.787433
2269.880437	-2.984300	3.246400	-9.687500	27.471601	6.308413E-5	20.806445
2270.881034	-2.999100	3.244700	-9.730800	27.478596	6.140101E-5	20.792621
2271.879093	-3.003500	3.243700	-9.741300	27.476064	6.212706E-5	20.800979
2272.879654	-3.005100	3.245100	-9.751200	27.454926	5.846379E-5	20.779712
2273.884205	-3.010700	3.243000	-9.762900	27.489408	6.285312E-5	20.784532
2274.880066	-3.016400	3.241300	-9.776200	27.457381	6.014692E-5	20.803519
2275.882283	-3.003300	3.242500	-9.736600	27.479082	6.130200E-5	20.794531
2276.882153	-3.013100	3.242200	-9.768300	27.446537	5.724270E-5	20.794981
2277.885222	-3.016900	3.241500	-9.778800	27.421956	5.869481E-5	20.788743
2278.888496	-3.027000	3.240000	-9.806300	27.422325	5.585660E-5	20.797175
2279.896852	-2.995100	3.240800	-9.705600	27.520304	5.707769E-5	20.790487
2280.889069	-2.991100	3.241000	-9.693400	27.540913	5.925585E-5	20.814541
2281.884316	-2.987100	3.240400	-9.678000	27.527567	5.862881E-5	20.797794
2282.885170	-3.018200	3.239800	-9.777700	27.512957	5.552658E-5	20.787837
2283.885841	-3.044000	3.238500	-9.856300	27.542004	5.569159E-5	20.789560
2284.886006	-3.009100	3.239600	-9.747100	27.531931	5.658266E-5	20.793650
2285.884849	-3.021000	3.236700	-9.776800	27.502582	5.476752E-5	20.803477
2286.888975	-3.006800	3.237600	-9.734000	27.510299	5.493254E-5	20.788006
2287.887702	-2.986100	3.238900	-9.671100	27.565538	5.506455E-5	20.792377
2288.887619	-3.033900	3.236200	-9.817700	27.620571	5.569159E-5	20.790377
2289.890742	-3.015200	3.235100	-9.753800	27.572034	5.110425E-5	20.809818
2290.887694	-3.015900	3.237100	-9.761700	27.493308	5.681367E-5	20.784188
2291.886910	-2.988300	3.237600	-9.674300	27.519105	5.324941E-5	20.795919
2292.887351	-2.990800	3.237500	-9.682500	27.518310	5.265537E-5	20.795119
2293.890595	-3.006200	3.235400	-9.725600	27.547676	5.027919E-5	20.795742
2294.887136	-3.026600	3.233500	-9.786100	27.513397	5.252336E-5	20.797288
2295.887323	-3.005600	3.235800	-9.724300	27.424470	5.242435E-5	20.782264
2296.891000	-2.992200	3.233700	-9.675300	27.411548	5.301840E-5	20.788704
2297.888951	-2.974700	3.235800	-9.624600	27.420257	5.216033E-5	20.788930
2298.887779	-2.993100	3.232300	-9.674300	27.429778	5.173130E-5	20.790448
2299.889997	-2.998800	3.232500	-9.692700	27.471055	4.899210E-5	20.781241
2300.887557	-3.001000	3.231300	-9.696000	27.457810	5.011418E-5	20.793045
2301.889271	-3.018700	3.232100	-9.755700	27.455130	5.064222E-5	20.781814
2302.891554	-3.004100	3.230500	-9.704200	27.483583	5.001517E-5	20.787681
2303.890862	-3.006700	3.230000	-9.709900	27.473637	5.140128E-5	20.785261
2304.893237	-3.025200	3.229800	-9.770200	27.426630	5.027919E-5	20.764996
2305.890939	-2.975300	3.230700	-9.611400	27.432810	5.143428E-5	20.796343
2306.891281	-3.013800	3.230200	-9.734800	27.522949	5.120326E-5	20.788881
2307.895710	-2.992000	3.229000	-9.660500	27.597906	4.985016E-5	20.786064
2308.892960	-3.019900	3.227700	-9.746600	27.567518	4.922312E-5	20.791050
2309.894204	-3.013800	3.227900	-9.727600	27.524757	5.268837E-5	20.768888
2310.891171	-3.006000	3.229000	-9.705200	27.595596	4.813404E-5	20.781842
2311.892678	-2.992000	3.226400	-9.652700	27.637932	4.975116E-5	20.779871
2312.894382	-3.005100	3.226200	-9.694300	27.589916	5.011418E-5	20.763325
2313.893445	-2.971000	3.226600	-9.584700	27.592396	5.100525E-5	20.799011
2314.893188	-2.999800	3.226900	-9.679300	27.596929	5.011418E-5	20.778916
2315.894502	-3.005600	3.224400	-9.690900	27.576025	4.975116E-5	20.783014
2316.892829	-3.004800	3.225300	-9.690900	27.564986	4.988317E-5	20.779019
2317.893198	-2.981000	3.224800	-9.612100	27.615782	4.704496E-5	20.773704
2318.892728	-3.021600	3.224100	-9.741000	27.634384	4.800203E-5	20.771560
2319.893359	-3.006400	3.225600	-9.696700	27.652361	4.945413E-5	20.761199
2320.892071	-2.994700	3.224000	-9.654800	27.627583	4.787002E-5	20.783208
2321.896454	-2.980900	3.222400	-9.605300	27.614167	4.869508E-5	20.764019
2322.898843	-3.014600	3.222300	-9.712800	27.694593	4.767200E-5	20.792791
2323.894755	-2.983100	3.221000	-9.607700	27.711138	4.839806E-5	20.796163
2324.895817	-2.998200	3.221800	-9.658400	27.706471	4.843106E-5	20.793838
2325.900107	-2.987200	3.220600	-9.618700	27.684550	4.853007E-5	20.776046
2326.896767	-2.990300	3.221700	-9.633200	27.738958	4.671493E-5	20.783382
2327.896410	-2.979800	3.220000	-9.594300	27.785849	4.661593E-5	20.787423
2328.897068	-2.969400	3.221000	-9.563700	27.742700	4.783702E-5	20.783828
2329.897828	-2.999200	3.218100	-9.650600	27.661085	4.707796E-5	20.760969
2330.896981	-2.985800	3.218000	-9.607500	27.651165	4.542784E-5	20.776117
2331.897825	-3.022600	3.216900	-9.722300	27.657611	4.410774E-5	20.784026
2332.902099	-2.982500	3.219500	-9.601900	27.612771	4.704496E-5	20.778262
2333.899230	-3.004800	3.217100	-9.665500	27.585563	4.390973E-5	20.772221
2334.900331	-2.982500	3.217400	-9.594600	27.547515	4.555985E-5	20.788467
2335.904240	-2.997400	3.216600	-9.640700	27.629507	4.414074E-5	20.773764
2336.900903	-2.981800	3.215500	-9.587400	27.667527	4.605488E-5	20.770770
2337.901099	-2.993300	3.214600	-9.621800	27.714840	4.414074E-5	20.770017
2338.906123	-2.979000	3.214100	-9.573700	27.667770	4.397573E-5	20.781446
2339.901162	-2.995000	3.214700	-9.626600	27.581536	4.173157E-5	20.770066
2340.903247	-2.997400	3.213800	-9.631800	27.539939	4.249062E-5	20.755240
2341.903901	-2.994000	3.213900	-9.621100	27.547254	4.374472E-5	20.757384
2342.903233	-2.968700	3.213700	-9.539900	27.508938	4.447077E-5	20.759610
2343.904215	-2.981600	3.214200	-9.582300	27.538473	4.037847E-5	20.756609
2344.904010	-2.981900	3.211800	-9.575900	27.564244	4.285365E-5	20.770686
2345.904314	-2.991500	3.211100	-9.604900	27.623916	4.301866E-5	20.770983
2346.903931	-3.003500	3.210700	-9.642600	27.575526	4.321668E-5	20.786779
2347.907617	-2.992600	3.211200	-9.609800	27.651222	4.199559E-5	20.797985
2348.905879	-3.004200	3.210600	-9.644000	27.662527	4.384372E-5	20.762420
2349.905603	-3.002900	3.210900	-9.642000	27.692311	4.381072E-5	20.756355
2350.906970	-3.014700	3.208900	-9.673000	27.716166	4.516382E-5	20.762342
2351.904393	-2.995000	3.210400	-9.614000	27.697959	4.427275E-5	20.763460
2352.904977	-3.005200	3.210000	-9.645900	27.700269	4.513082E-5	20.748715
2353.905715	-2.994600	3.208800	-9.608400	27.708423	4.298566E-5	20.763085
2354.907585	-3.031900	3.207100	-9.722800	27.719257	4.252363E-5	20.780626
2355.906567	-3.003800	3.206300	-9.630300	27.755537	4.183057E-5	20.749331
2356.905485	-3.002000	3.206800	-9.626200	27.739743	4.107152E-5	20.781800
2357.906917	-3.008500	3.206000	-9.643800	27.741821	4.364571E-5	20.769193
2358.907550	-2.999800	3.206600	-9.618100	27.741993	4.387672E-5	20.766995
2359.909204	-2.971900	3.207500	-9.531400	27.777081	4.364571E-5	20.752045
2360.909179	-2.993300	3.206300	-9.594800	27.799172	4.252363E-5	20.755311
2361.907526	-3.024600	3.203500	-9.689000	27.764648	4.295266E-5	20.768931
2362.906669	-3.007200	3.203200	-9.631700	27.825134	4.156656E-5	20.740187
2363.907207	-2.984900	3.204200	-9.563600	27.826840	4.008145E-5	20.761344
2364.907904	-2.992100	3.203000	-9.581700	27.854981	4.024646E-5	20.774020
2365.906585	-2.982200	3.204300	-9.554500	27.878586	3.965241E-5	20.763163
2366.909242	-3.008100	3.201000	-9.628100	27.882130	3.820031E-5	20.761040
2367.913602	-3.007400	3.201000	-9.626100	27.806226	4.024646E-5	20.754349
2368.909422	-3.013300	3.200700	-9.644000	27.844187	4.037847E-5	20.768372
2369.909482	-2.988400	3.200700	-9.564100	27.837514	4.064249E-5	20.761656
2370.917059	-2.986600	3.200500	-9.558300	27.879542	4.156656E-5	20.770290
2371.909106	-2.994400	3.198600	-9.576900	27.901807	4.077450E-5	20.763776
2372.910386	-2.996800	3.197200	-9.580300	27.895332	4.100551E-5	20.771009
2373.912294	-2.984500	3.198600	-9.545500	27.913160	4.018045E-5	20.769038
2374.913476	-2.986800	3.197900	-9.551400	27.883157	4.041147E-5	20.782937
2375.912088	-2.977700	3.197300	-9.520000	27.860438	4.077450E-5	20.775719
2376.911288	-2.993800	3.196300	-9.568500	27.867283	3.935539E-5	20.778815
2377.914930	-2.994900	3.196600	-9.572200	27.866636	3.994944E-5	20.772948
2378.911631	-2.986400	3.195900	-9.543000	27.876326	3.919038E-5	20.767527
2379.912744	-3.006200	3.194200	-9.601900	27.950383	3.793629E-5	20.781848
2380.915375	-2.981300	3.196200	-9.528400	27.972056	4.004844E-5	20.770471
2381.914484	-2.994700	3.193100	-9.561700	28.041966	4.021346E-5	20.749329
2382.913007	-2.994000	3.194100	-9.562400	27.973512	3.747425E-5	20.781894
2383.917808	-2.994000	3.192300	-9.556900	27.952732	3.767227E-5	20.788479
2384.914246	-2.982800	3.191900	-9.519400	27.904730	3.523009E-5	20.764347
2385.917470	-2.989800	3.191100	-9.539900	27.810260	3.635217E-5	20.764099
2386.919955	-3.029200	3.190000	-9.662100	27.821982	3.592314E-5	20.776371
2387.915591	-3.005000	3.189300	-9.583400	27.847968	3.513108E-5	20.758427
2388.918197	-3.021700	3.188600	-9.634400	27.905641	3.763927E-5	20.783281
2389.918769	-3.010100	3.189900	-9.600600	27.918955	3.615416E-5	20.768232
2390.921070	-2.989400	3.187700	-9.528300	27.992119	3.480106E-5	20.778338
2391.917729	-2.995500	3.188100	-9.549500	28.031093	3.615416E-5	20.773947
2392.917690	-2.995700	3.187500	-9.548500	28.024914	3.529610E-5	20.762985
2393.920904	-2.995800	3.186400	-9.545200	27.964224	3.694622E-5	20.769701
2394.917781	-2.993500	3.186900	-9.538900	27.937099	3.453704E-5	20.769899
2395.918113	-3.023000	3.186300	-9.631400	27.889715	3.486706E-5	20.781951
2396.918731	-3.011700	3.185200	-9.592100	27.859237	3.351396E-5	20.783993
2397.917786	-3.016200	3.185300	-9.606900	27.855967	3.354697E-5	20.784970
2398.917848	-3.005400	3.183300	-9.566300	27.850708	3.737525E-5	20.783944
2399.919072	-3.002200	3.182600	-9.554000	27.835259	3.328295E-5	20.784517
2400.920300	-3.025000	3.182100	-9.625000	27.874165	3.496607E-5	20.774361
2401.919721	-3.002900	3.183100	-9.557000	27.908356	3.473505E-5	20.766099
2402.922542	-3.004500	3.183600	-9.564100	27.911706	3.430602E-5	20.783696
2403.921171	-3.014300	3.180600	-9.585900	27.967417	3.490007E-5	20.766276
2404.922598	-3.005500	3.180700	-9.558600	27.969990	3.480106E-5	20.772660
2405.922318	-2.993000	3.180300	-9.517600	27.928760	3.394300E-5	20.770989
2406.924805	-3.012100	3.179000	-9.574400	27.920080	3.404200E-5	20.792599
2407.921820	-3.028400	3.177600	-9.621500	27.877460	3.433902E-5	20.770565
2408.923897	-2.982000	3.179300	-9.480300	27.911826	2.932266E-5	20.788558
2409.927064	-3.002000	3.178800	-9.542200	27.984667	3.202886E-5	20.767992
2410.922225	-2.992800	3.177600	-9.509200	28.043102	3.324994E-5	20.767543
2411.924319	-2.999000	3.176800	-9.526500	28.061525	3.252389E-5	20.791304
2412.923216	-3.017700	3.176100	-9.582800	28.015040	3.338195E-5	20.785763
2413.926317	-3.005700	3.176000	-9.545300	27.960569	3.024672E-5	20.766021
2414.923753	-3.013300	3.174600	-9.565600	27.937335	2.862961E-5	20.774878
2415.925391	-3.010000	3.174100	-9.553100	27.911551	2.859660E-5	20.771687
2416.926689	-2.987800	3.173300	-9.479500	27.909221	3.044474E-5	20.771237
2417.922871	-3.015400	3.172400	-9.565400	27.887079	2.717750E-5	20.790678
2418.923125	-2.987800	3.170600	-9.472200	27.946486	2.892663E-5	20.804478
2419.923231	-2.991000	3.173400	-9.490800	28.002965	3.021372E-5	20.769815
2420.924547	-3.004600	3.171600	-9.527400	28.001798	2.800256E-5	20.778123
2421.923730	-2.976000	3.171200	-9.436700	27.972352	3.097278E-5	20.779305
2422.926575	-2.984900	3.169500	-9.459700	27.948177	2.945467E-5	20.775359
2423.925492	-3.039700	3.167500	-9.627400	27.957025	2.859660E-5	20.777628
2424.925584	-3.017700	3.167500	-9.557800	27.961813	2.793655E-5	20.817534
2425.927565	-3.003600	3.166500	-9.509400	27.979394	3.024672E-5	20.784021
2426.926714	-3.011300	3.165600	-9.531900	28.003516	2.694648E-5	20.784121
2427.925547	-2.994300	3.165800	-9.478500	28.034064	2.938866E-5	20.806809
2428.923730	-2.996900	3.164700	-9.483100	28.045440	2.948767E-5	20.793604
2429.925817	-2.992600	3.165200	-9.470200	28.076875	2.849760E-5	20.764556
2430.924064	-2.997500	3.164800	-9.486100	28.108437	2.905864E-5	20.796802
2431.924291	-2.999700	3.162400	-9.485400	28.149540	3.103878E-5	20.792188
2432.924475	-3.005400	3.162800	-9.504300	28.104693	2.839859E-5	20.781180
2433.925060	-2.979800	3.162100	-9.420900	28.098099	2.688048E-5	20.788766
2434.924140	-2.971400	3.161300	-9.392800	28.085877	2.849760E-5	20.798274
2435.925170	-2.981400	3.160800	-9.422000	28.067754	2.820057E-5	20.783823
2436.924899	-2.983500	3.160800	-9.429200	28.047524	2.635244E-5	20.779581
2437.924121	-3.040100	3.156800	-9.595700	28.002057	2.585740E-5	20.785497
2438.924438	-3.003100	3.158700	-9.485200	28.014034	2.747452E-5	20.787121
2439.925241	-2.986000	3.157600	-9.427800	28.051939	2.796956E-5	20.794930
2440.925000	-3.011400	3.157300	-9.507100	28.089347	2.592341E-5	20.789913
2441.925771	-2.997800	3.157300	-9.464600	28.096584	2.631944E-5	20.802889
2442.931991	-3.011400	3.155400	-9.501500	28.094180	2.724350E-5	20.778183
2443.926846	-2.998300	3.155300	-9.458100	28.120729	2.856360E-5	20.802538
2444.932311	-2.987700	3.153900	-9.421300	28.135087	2.658346E-5	20.796604
2445.931215	-3.028800	3.152300	-9.546600	28.068523	2.605542E-5	20.796926
2446.928839	-3.001500	3.153200	-9.463300	28.119562	2.473532E-5	20.778604
2447.928264	-2.998700	3.152300	-9.452000	28.174197	2.542837E-5	20.789510
2448.930540	-2.996000	3.150900	-9.439100	28.164233	2.268917E-5	20.813617
2449.930717	-3.009600	3.149500	-9.477600	28.194871	2.559338E-5	20.800840
2450.930581	-3.008100	3.149400	-9.472000	28.148363	2.486733E-5	20.797167
2451.929868	-3.004200	3.148800	-9.458400	28.156022	2.292019E-5	20.820524
2452.930913	-2.992200	3.147500	-9.417300	28.158725	2.437229E-5	20.808547
2453.931284	-3.004000	3.146500	-9.451500	28.137703	2.176510E-5	20.801608
2454.933127	-3.014000	3.145600	-9.480600	28.052600	2.216113E-5	20.808872
2455.933595	-3.005900	3.146000	-9.455800	28.051409	2.222714E-5	20.803405
2456.933651	-2.991400	3.145100	-9.406600	28.083906	2.262316E-5	20.808144
2457.934094	-3.006700	3.143500	-9.450600	28.118364	2.024699E-5	20.797787
2458.934884	-3.002400	3.144200	-9.439600	28.109292	2.107205E-5	20.795292
2459.934096	-2.989400	3.142500	-9.393100	28.125429	2.090704E-5	20.805373
2460.936203	-2.973800	3.141300	-9.340800	28.198551	2.094004E-5	20.812606
2461.933315	-2.984700	3.140900	-9.373800	28.137924	2.143508E-5	20.807521
2462.934429	-2.975600	3.140600	-9.344400	28.066875	1.899290E-5	20.791474
2463.933660	-3.001100	3.138600	-9.418200	27.997832	2.037900E-5	20.802581
2464.933301	-2.986500	3.139000	-9.373300	28.078676	2.186411E-5	20.804301
2465.934208	-2.989500	3.136100	-9.374800	28.151337	2.232614E-5	20.800635
2466.933710	-3.001000	3.136700	-9.412000	28.187279	2.169910E-5	20.822120
2467.934251	-3.006600	3.135500	-9.426300	28.268902	2.001597E-5	20.808993
2468.936016	-3.006600	3.135500	-9.425500	28.296294	2.130307E-5	20.794846
2469.940015	-2.995600	3.133700	-9.386600	28.300729	2.295319E-5	20.826812
2470.936327	-3.005200	3.133300	-9.414800	28.231599	2.136907E-5	20.820273
2471.940075	-2.968100	3.133900	-9.301400	28.237549	2.044500E-5	20.804927
2472.939671	-3.011400	3.131300	-9.428000	28.290790	2.259016E-5	20.821073
2473.936629	-3.005900	3.130000	-9.407200	28.327771	2.097304E-5	20.832703
2474.942253	-2.998900	3.130200	-9.386400	28.328759	2.179810E-5	20.829905
2475.940817	-3.005100	3.128600	-9.400000	28.377483	2.196312E-5	20.828231
2476.937445	-3.008000	3.127900	-9.407900	28.287466	2.189711E-5	20.797337
2477.944342	-3.002300	3.126500	-9.385200	28.258886	2.051101E-5	20.837314
2478.942927	-3.005300	3.126700	-9.395100	28.244512	2.219413E-5	20.813359
2479.940074	-2.991200	3.126800	-9.352000	28.237195	1.981796E-5	20.823062
2480.940417	-2.988300	3.124900	-9.337000	28.126814	1.783781E-5	20.814354
2481.942386	-3.001300	3.123700	-9.374700	28.126343	1.902590E-5	20.840906
2482.940862	-2.993400	3.123100	-9.347600	28.159432	2.054401E-5	20.813052
2483.942048	-3.033000	3.120500	-9.463000	28.139327	2.074203E-5	20.826477
2484.943266	-3.002000	3.121300	-9.369700	28.162852	2.110505E-5	20.820288
2485.941979	-3.020400	3.119100	-9.419300	28.151795	1.971895E-5	20.836182
2486.942465	-3.009700	3.118000	-9.383800	28.198840	2.229314E-5	20.806733
2487.943715	-2.996100	3.117300	-9.339100	28.209447	1.971895E-5	20.817886
2488.943069	-2.984700	3.118100	-9.305700	28.251809	2.044500E-5	20.827818
2489.942978	-2.975700	3.117800	-9.276300	28.338256	1.836585E-5	20.802483
2490.945555	-2.983400	3.116000	-9.294700	28.315030	2.097304E-5	20.812763
2491.947277	-3.010300	3.115400	-9.376800	28.331164	2.064302E-5	20.827111
2492.946572	-3.015700	3.113700	-9.389400	28.323162	2.242515E-5	20.822373
2493.944179	-3.011800	3.111800	-9.370800	28.328286	1.998297E-5	20.833696
2494.947317	-3.009100	3.111500	-9.360400	28.352130	2.100605E-5	20.835893
2495.946271	-2.989700	3.112200	-9.303300	28.410049	1.856387E-5	20.840160
2496.946325	-2.993200	3.111800	-9.313200	28.408858	2.143508E-5	20.828056
2497.946860	-2.991200	3.110000	-9.301400	28.337301	1.942193E-5	20.844195
2498.946610	-3.014300	3.107800	-9.367200	28.337051	1.998297E-5	20.835883
2499.954765	-3.001500	3.107500	-9.326200	28.403324	1.961994E-5	20.836708
2500.946850	-3.002900	3.106300	-9.326600	28.379703	2.037900E-5	20.840423
2501.947468	-2.999600	3.106100	-9.315300	28.401237	1.770580E-5	20.837925
2502.947374	-3.006900	3.104200	-9.333200	28.414274	1.770580E-5	20.843466
2503.947399	-3.009800	3.103500	-9.340200	28.390031	1.971895E-5	20.835650
2504.951358	-2.991800	3.102800	-9.281800	28.341181	1.912491E-5	20.835300
2505.945968	-3.019700	3.100100	-9.361000	28.362541	1.952094E-5	20.820772
2506.946590	-2.998800	3.099700	-9.294900	28.338226	1.919091E-5	20.841333
2507.950464	-3.003900	3.097800	-9.304700	28.346530	1.803583E-5	20.848746
2508.946730	-2.978800	3.098500	-9.229200	28.341642	1.688074E-5	20.846669
2509.947185	-3.003900	3.097400	-9.302900	28.359438	1.965295E-5	20.820967
2510.949866	-2.985600	3.096300	-9.243900	28.384540	2.004897E-5	20.844819
2511.947643	-2.998800	3.095400	-9.281500	28.353605	1.655072E-5	20.839749
2512.950691	-2.998000	3.094200	-9.275800	28.351124	1.714476E-5	20.837725
2513.952894	-2.991000	3.094000	-9.252600	28.424108	1.829985E-5	20.849101
2514.949114	-2.992200	3.091700	-9.249900	28.437834	1.572566E-5	20.853440
2515.951143	-3.015700	3.091300	-9.322300	28.456398	1.697975E-5	20.850322
2516.951718	-2.989000	3.089700	-9.234200	28.455973	1.701275E-5	20.851317
2517.948461	-2.991900	3.088400	-9.239700	28.399736	1.549464E-5	20.862491
2518.952339	-3.002500	3.087200	-9.268600	28.349825	1.463658E-5	20.866287
2519.954896	-2.993800	3.088200	-9.244500	28.407716	1.622069E-5	20.849191
2520.948215	-2.995800	3.085300	-9.242200	28.450534	1.602268E-5	20.866228
2521.952307	-2.989700	3.084900	-9.222000	28.482401	1.714476E-5	20.864180
2522.953977	-2.996800	3.083600	-9.239200	28.561844	1.757379E-5	20.848880
2523.950439	-2.974100	3.083800	-9.170000	28.586769	1.820084E-5	20.846482
2524.951664	-2.994900	3.080900	-9.224800	28.504475	1.490060E-5	20.848951
2525.951386	-3.006200	3.080500	-9.258900	28.499489	1.612169E-5	20.860051
2526.952175	-2.993700	3.079200	-9.218000	28.500973	1.503261E-5	20.843528
2527.952784	-2.977500	3.077200	-9.161400	28.524092	1.744178E-5	20.857327
2528.952498	-3.005900	3.076300	-9.246100	28.504662	1.783781E-5	20.871898
2529.953149	-2.992800	3.076400	-9.206600	28.495411	1.760680E-5	20.873488
2530.954800	-2.992000	3.076300	-9.203800	28.488647	1.513161E-5	20.854823
2531.955005	-2.998700	3.073900	-9.216600	28.522790	1.737578E-5	20.845585
2532.956210	-2.997900	3.073400	-9.212900	28.526603	1.556064E-5	20.864597
2533.954355	-3.012300	3.072500	-9.254400	28.459125	1.404253E-5	20.879146
2534.955832	-2.994700	3.070300	-9.193600	28.451093	1.754079E-5	20.875325
2535.954243	-2.995800	3.069900	-9.195700	28.462741	1.575866E-5	20.876623
2536.955208	-2.991400	3.068500	-9.177600	28.456540	1.721077E-5	20.861371
2537.954918	-3.000800	3.067200	-9.203400	28.461741	1.655072E-5	20.867556
2538.958404	-3.009800	3.064900	-9.223000	28.546119	1.688074E-5	20.861491
2539.958586	-2.974000	3.065200	-9.115200	28.501043	1.433956E-5	20.875365
2540.963112	-2.987800	3.063300	-9.151000	28.508028	1.684774E-5	20.866279
2541.959914	-3.003500	3.063400	-9.200600	28.425602	1.483459E-5	20.876682
2542.957546	-2.995400	3.061500	-9.169200	28.503489	1.810183E-5	20.887785
2543.957444	-3.006500	3.059100	-9.196900	28.524750	1.628670E-5	20.890704
2544.959399	-3.016600	3.058400	-9.225100	28.474244	1.453757E-5	20.876827
2545.961676	-3.011600	3.057700	-9.207900	28.488293	1.608868E-5	20.870586
2546.958034	-2.984000	3.056100	-9.118300	28.463064	1.328348E-5	20.886431
2547.959037	-2.992100	3.055000	-9.139900	28.530763	1.466958E-5	20.902448
2548.960916	-2.989100	3.054500	-9.129600	28.562655	1.417454E-5	20.887153
2549.957809	-2.986900	3.052500	-9.115900	28.580669	1.334948E-5	20.904819
2550.958509	-2.981600	3.052300	-9.099600	28.588223	1.443856E-5	20.886824
2551.959762	-2.999800	3.050900	-9.150800	28.592214	1.351449E-5	20.898903
2552.958832	-3.009000	3.048800	-9.171900	28.554821	1.084130E-5	20.868358
2553.960331	-3.010700	3.048500	-9.177200	28.567258	1.057728E-5	20.907908
2554.958411	-3.005300	3.045900	-9.152900	28.509151	1.328348E-5	20.930467
2555.959269	-3.016800	3.045000	-9.184600	28.484741	1.387752E-5	20.894509
2556.960443	-3.019600	3.044100	-9.190600	28.534203	1.275544E-5	20.889793
2557.959386	-3.040100	3.041700	-9.246600	28.574296	1.127033E-5	20.898875
2558.960861	-2.989200	3.042000	-9.092100	28.594417	1.186437E-5	20.904915
2559.959838	-2.995600	3.041100	-9.108600	28.589140	1.084130E-5	20.892489
2560.959856	-2.986300	3.040500	-9.079100	28.566489	1.424055E-5	20.887695
2561.962383	-2.989000	3.039200	-9.083400	28.584635	1.206239E-5	20.888900
2562.963176	-2.994800	3.036400	-9.092800	28.677150	1.219440E-5	20.891516
2563.960865	-3.000800	3.036200	-9.109500	28.705297	1.080830E-5	20.889520
2564.963430	-2.973700	3.035300	-9.025400	28.669052	1.292045E-5	20.894738
2565.960684	-2.989500	3.033000	-9.065300	28.584407	1.325048E-5	20.882507
2566.959984	-2.987600	3.032200	-9.057700	28.564514	9.950232E-6	20.899455
2567.963371	-2.992500	3.030400	-9.067500	28.596777	1.031326E-5	20.889275
2568.959464	-2.998500	3.029800	-9.084100	28.613627	1.265643E-5	20.899133
2569.961283	-2.997600	3.028100	-9.075900	28.591546	1.018125E-5	20.897283
2570.961067	-3.004200	3.026700	-9.092100	28.625520	1.150135E-5	20.906368
2571.961938	-2.985400	3.025800	-9.031700	28.729880	1.047827E-5	20.903375
2572.965168	-3.005700	3.024200	-9.089100	28.764067	1.133633E-5	20.921214
2573.965751	-2.982000	3.023300	-9.014600	28.777792	1.136934E-5	20.910384
2574.964808	-3.011200	3.020600	-9.094800	28.758868	1.037926E-5	20.900806
2575.963333	-2.998300	3.020500	-9.055900	28.721358	1.004924E-5	20.902851
2576.962306	-3.000200	3.020000	-9.060200	28.678846	1.057728E-5	20.906024
2577.965088	-3.014100	3.017700	-9.094400	28.658280	1.047827E-5	20.910914
2578.963710	-3.009900	3.016100	-9.077800	28.642896	8.927157E-6	20.901110
2579.964481	-2.991000	3.015300	-9.017800	28.641902	1.051127E-5	20.912910
2580.972435	-2.982900	3.012400	-8.984400	28.583404	9.257181E-6	20.888135
2581.963748	-3.019700	3.012100	-9.095000	28.570022	9.785220E-6	20.907372
2582.966242	-3.003700	3.010600	-9.041400	28.604990	1.008224E-5	20.922200
2583.967068	-3.013400	3.008200	-9.064100	28.732784	9.653210E-6	20.917679
2584.967593	-2.998700	3.008500	-9.020600	28.779066	1.041227E-5	20.921149
2585.970902	-2.997500	3.007000	-9.012800	28.799355	8.135099E-6	20.931155
2586.967028	-3.007800	3.006200	-9.040700	28.849178	9.785220E-6	20.918283
2587.969038	-2.977600	3.003300	-8.941100	28.846554	1.077529E-5	20.893357
2588.971210	-2.982500	3.003500	-8.956700	28.838254	1.179837E-5	20.909176
2589.970130	-3.001600	3.000800	-9.006600	28.873484	7.970087E-6	20.911001
2590.966153	-2.975900	3.000500	-8.928300	28.936183	8.333113E-6	20.916319
2591.967543	-2.998400	2.997300	-8.986800	28.954488	1.064328E-5	20.899675
2592.969641	-3.004000	2.997600	-9.004100	28.950425	8.828150E-6	20.925450
2593.967139	-3.031100	2.994200	-9.074900	28.948075	6.451975E-6	20.917394
2594.967814	-2.997500	2.994600	-8.975800	28.894646	7.739070E-6	20.936110
2595.967920	-3.015800	2.992700	-9.024900	28.846563	9.125172E-6	20.916123
2596.970562	-3.004500	2.991300	-8.986600	28.876142	8.795147E-6	20.926005
2597.969445	-3.004900	2.991200	-8.987200	28.877136	1.008224E-5	20.943600
2598.968019	-3.006300	2.989100	-8.985400	28.913773	8.762145E-6	20.904649
2599.971541	-2.996200	2.987500	-8.950200	28.925666	1.018125E-5	20.923266
2600.969136	-3.011700	2.986800	-8.994600	28.891606	7.937084E-6	20.907921
2601.968653	-3.006200	2.985500	-8.974500	28.873918	9.092169E-6	20.935143
2602.971698	-2.996000	2.982900	-8.935600	28.876644	9.818223E-6	20.934570
2603.969925	-3.008300	2.982200	-8.970500	28.881378	9.389191E-6	20.936495
2604.968741	-2.994500	2.980500	-8.924400	28.903081	1.047827E-5	20.911420
2605.969210	-2.977700	2.979900	-8.872300	28.919729	8.993162E-6	20.922501
2606.970207	-3.006200	2.976500	-8.946300	28.986534	1.004924E-5	20.941440
2607.970955	-3.024800	2.974900	-8.997600	29.004246	1.107231E-5	20.920880
2608.973505	-3.011000	2.973800	-8.952300	28.960278	1.051127E-5	20.949125
2609.972047	-3.006100	2.972000	-8.933800	28.954707	9.554203E-6	20.914119
2610.972939	-2.987500	2.973400	-8.882000	28.855227	1.153435E-5	20.944288
2611.972555	-2.990500	2.969300	-8.878900	28.886537	9.257181E-6	20.935528
2612.972485	-2.999800	2.968500	-8.904400	28.919462	1.037926E-5	20.910379
2613.972627	-3.000300	2.967200	-8.901800	28.910642	1.169936E-5	20.934682
2614.977100	-2.995900	2.966800	-8.887400	28.969546	1.004924E-5	20.930964
2615.973833	-2.997100	2.965400	-8.886800	28.997488	1.196338E-5	20.933511
2616.975393	-3.009500	2.962000	-8.913300	28.970241	1.051127E-5	20.918389
2617.974254	-3.010300	2.961100	-8.912500	29.012421	1.176537E-5	20.929591
2618.974560	-3.000300	2.959000	-8.876600	29.031667	9.587206E-6	20.935231
2619.975048	-3.010000	2.958600	-8.903800	29.096109	1.120432E-5	20.909127
2620.976162	-2.968300	2.957600	-8.778600	29.123577	1.070929E-5	20.922105
2621.978733	-2.979600	2.955100	-8.804400	29.048334	1.143534E-5	20.940170
2622.977879	-2.988400	2.953900	-8.826700	29.056184	1.196338E-5	20.929588
2623.978091	-3.017000	2.952400	-8.906100	29.088011	1.196338E-5	20.907131
2624.980258	-2.980100	2.950400	-8.791500	29.062673	1.179837E-5	20.937074
2625.977083	-2.980000	2.948400	-8.786000	29.088703	1.183137E-5	20.895502
2626.977942	-2.996500	2.948100	-8.833400	29.104976	1.315147E-5	20.905260
2627.978700	-3.023800	2.944700	-8.903400	29.105545	8.927157E-6	20.930486
2628.978415	-3.013000	2.943600	-8.868300	28.980761	9.554203E-6	20.899592
2629.986013	-3.005900	2.942400	-8.844200	28.994159	9.818223E-6	20.905979
2630.978774	-2.984200	2.940700	-8.774800	28.962185	9.554203E-6	20.904110
2631.978666	-3.000100	2.940300	-8.819900	28.909147	7.310038E-6	20.921323
2632.977180	-2.991100	2.937600	-8.785900	28.926933	1.117132E-5	20.907001
2633.977289	-3.007300	2.935500	-8.827200	28.908079	1.054428E-5	20.906499
2634.978326	-2.982700	2.934100	-8.750600	28.925863	7.277036E-6	20.902130
2635.977823	-3.004300	2.932300	-8.808300	28.878849	1.173236E-5	20.905027
2636.977614	-2.998700	2.931100	-8.788700	28.870645	7.244033E-6	20.903400
2637.977688	-2.991800	2.929800	-8.763300	28.907040	1.021425E-5	20.910193
2638.978840	-3.006500	2.927900	-8.801900	28.886205	8.927157E-6	20.925711
2639.977493	-2.999000	2.925800	-8.774000	28.830766	7.475050E-6	20.884566
2640.981525	-2.980900	2.925600	-8.719100	28.818332	7.376043E-6	20.911392
2641.978379	-2.989100	2.923500	-8.737800	28.838968	7.904082E-6	20.907525
2642.982009	-2.981200	2.921000	-8.707000	28.854574	8.498126E-6	20.911392
2643.978498	-3.034000	2.918400	-8.853700	28.903622	8.135099E-6	20.888260
2644.979353	-3.017800	2.917500	-8.803600	28.854427	9.752218E-6	20.887064
2645.984585	-2.969300	2.915900	-8.656900	28.869513	9.323186E-6	20.917906
2646.980315	-3.000500	2.914100	-8.742900	28.841174	7.442048E-6	20.896472
2647.978469	-3.009100	2.913500	-8.766600	28.914327	9.323186E-6	20.894302
2648.981141	-3.005500	2.911000	-8.748100	28.905754	7.508053E-6	20.885666
2649.982533	-3.020500	2.908500	-8.783800	28.910734	9.785220E-6	20.903010
2650.980797	-2.975200	2.908500	-8.652200	28.994609	9.092169E-6	20.907853
2651.981650	-2.999400	2.905900	-8.715300	29.004990	1.097331E-5	20.887020
2652.982746	-3.036500	2.902800	-8.814000	29.023716	1.110532E-5	20.888818
2653.988042	-3.018300	2.901700	-8.757400	29.067976	6.517980E-6	20.891687
2654.982915	-3.019500	2.899800	-8.755100	29.057399	1.094031E-5	20.899995
2655.986355	-2.957300	2.899800	-8.574000	29.143885	8.432121E-6	20.880457
2656.985148	-2.984900	2.897200	-8.646500	29.055175	8.399118E-6	20.887798
2657.984216	-2.988800	2.896700	-8.656800	29.042912	9.059167E-6	20.886348
2658.984052	-3.000800	2.892800	-8.679800	29.104266	8.795147E-6	20.897907
2659.983354	-2.980700	2.891100	-8.616700	29.102008	1.047827E-5	20.887098
2660.986108	-2.999700	2.889700	-8.667800	29.096884	9.125172E-6	20.868660
2661.984519	-2.998800	2.888100	-8.659900	29.084600	9.257181E-6	20.879515
2662.983168	-3.025800	2.884400	-8.726800	29.073774	8.333113E-6	20.885202
2663.984494	-2.995200	2.883300	-8.635800	29.041085	9.389191E-6	20.891619
2664.984259	-2.991000	2.883200	-8.622800	29.075684	9.554203E-6	20.859153
2665.985096	-2.983100	2.881300	-8.593800	29.052450	9.851225E-6	20.876519
2666.989310	-2.994600	2.879300	-8.620900	29.129451	9.884227E-6	20.860699
2667.986296	-2.995200	2.877000	-8.616200	29.177349	7.244033E-6	20.887625
2668.985366	-2.971000	2.875200	-8.541100	29.251244	1.028026E-5	20.880538
2669.989209	-3.000800	2.872700	-8.619700	29.227126	1.067629E-5	20.877569
2670.987119	-2.981800	2.872900	-8.565500	29.168504	9.059167E-6	20.870652
2671.987963	-3.012500	2.869600	-8.644100	29.193466	9.884227E-6	20.888694
2672.992098	-2.986100	2.867900	-8.563200	29.226234	9.488198E-6	20.891842
2673.988287	-3.007900	2.865400	-8.617500	29.104189	8.135099E-6	20.869856
2674.987026	-2.992800	2.863000	-8.567400	29.081008	8.960159E-6	20.857405
2675.992656	-2.978900	2.861200	-8.522700	29.185892	1.103931E-5	20.866838
2676.987672	-2.973700	2.859600	-8.501900	29.208726	8.465123E-6	20.875149
2677.988956	-3.012100	2.857500	-8.606800	29.217838	1.057728E-5	20.884805
2678.992554	-3.002000	2.856300	-8.573400	29.220686	9.422193E-6	20.874873
2679.991983	-2.996900	2.852900	-8.549300	29.241662	8.894155E-6	20.862822
2680.990746	-2.996900	2.851900	-8.546000	29.205387	9.521201E-6	20.851396
2681.995467	-2.980500	2.850000	-8.493400	29.267318	1.219440E-5	20.865444
2682.991020	-3.011900	2.847300	-8.575300	29.294456	1.169936E-5	20.866240
2683.992397	-2.998200	2.845200	-8.530100	29.304213	9.983235E-6	20.866590
2684.993006	-3.001900	2.843600	-8.535400	29.253228	1.107231E-5	20.877796
2685.991698	-2.982900	2.841700	-8.475900	29.292374	1.064328E-5	20.875995
2686.991288	-3.008000	2.839300	-8.539800	29.242034	9.917230E-6	20.859878
2687.993145	-2.989900	2.837500	-8.482900	29.284080	1.136934E-5	20.875698
2688.994215	-3.015300	2.833800	-8.543300	29.349599	1.024725E-5	20.848322
2689.994306	-2.998300	2.832500	-8.491700	29.388990	1.140234E-5	20.868108
2690.995296	-2.987600	2.830900	-8.457100	29.430216	9.389191E-6	20.852289
2691.993877	-2.991500	2.828700	-8.461100	29.479012	9.785220E-6	20.874920
2692.999229	-3.033800	2.825400	-8.570300	29.536996	1.146834E-5	20.843754
2693.993668	-2.979900	2.823200	-8.411600	29.557191	9.389191E-6	20.852732
2694.995511	-3.018400	2.821200	-8.514700	29.472027	9.917230E-6	20.874517
2695.994849	-2.998800	2.819200	-8.453300	29.360413	1.011524E-5	20.839781
2696.995006	-2.993200	2.815700	-8.427400	29.332554	1.143534E-5	20.861963
2697.997757	-2.975700	2.813600	-8.371900	29.294864	8.894155E-6	20.857643
2698.994172	-3.016100	2.811100	-8.477800	29.301377	1.268943E-5	20.844293
2699.994430	-2.994000	2.809300	-8.410100	29.260343	9.686213E-6	20.851777
2700.998339	-3.030900	2.805200	-8.500300	29.256207	1.041227E-5	20.858988
2702.000646	-2.999300	2.803900	-8.409400	29.278419	1.245842E-5	20.862880
2702.996130	-2.998100	2.799500	-8.392400	29.191424	1.193038E-5	20.840171
2703.996777	-2.992300	2.798400	-8.372300	29.148131	9.422193E-6	20.851547
2704.999684	-2.984500	2.796300	-8.344700	29.130792	1.166636E-5	20.862524
2705.996318	-2.995700	2.793400	-8.367800	29.235548	1.100631E-5	20.858557
2706.996883	-2.978300	2.790900	-8.310300	29.317733	1.186437E-5	20.856509
2707.996320	-2.989500	2.788700	-8.334900	29.358783	1.196338E-5	20.852362
2709.000399	-2.970400	2.785300	-8.273000	29.441677	1.193038E-5	20.872375
2709.998458	-2.978400	2.782200	-8.285600	29.444672	1.001624E-5	20.864014
2710.996722	-3.000800	2.779600	-8.340800	29.487725	1.087430E-5	20.856676
2712.001075	-2.984200	2.776000	-8.283100	29.521962	1.202939E-5	20.842824
2712.997490	-2.982300	2.774200	-8.272600	29.544386	1.080830E-5	20.870168
2713.997415	-3.024000	2.769500	-8.373900	29.517869	1.193038E-5	20.862880
2715.000731	-3.031300	2.765900	-8.382700	29.436736	1.136934E-5	20.855541
2715.998775	-3.014700	2.764800	-8.334500	29.445053	1.077529E-5	20.863450
2716.997342	-2.976300	2.761900	-8.218400	29.440665	1.070929E-5	20.841959
2718.003498	-3.015400	2.758800	-8.317800	29.415856	9.653210E-6	20.855358
2718.996816	-2.981400	2.755200	-8.213700	29.485972	1.156735E-5	20.859650
2720.000515	-3.000100	2.751300	-8.253000	29.503296	9.224179E-6	20.853406
2721.000551	-2.998100	2.750200	-8.245000	29.485720	1.001624E-5	20.865086
2721.998371	-2.999400	2.745400	-8.233400	29.507822	1.153435E-5	20.843744
2723.001484	-3.004200	2.742300	-8.236800	29.495171	1.127033E-5	20.854698
2724.001148	-2.990800	2.739900	-8.193800	29.513168	9.719215E-6	20.852926
2724.999557	-2.987600	2.737000	-8.175900	29.518466	1.087430E-5	20.851627
2726.003612	-3.019400	2.732100	-8.247500	29.436711	9.719215E-6	20.852671
2727.002970	-3.011000	2.729600	-8.218200	29.496945	1.292045E-5	20.836098
2728.000189	-2.997500	2.725400	-8.168700	29.561881	1.113832E-5	20.859356
2728.999907	-3.041100	2.720500	-8.271400	29.573686	1.117132E-5	20.854661
2730.000544	-2.992300	2.719800	-8.138000	29.627551	1.384452E-5	20.849219
2731.002134	-2.992900	2.715500	-8.126900	29.675300	1.232641E-5	20.867484
2732.002559	-3.003200	2.711000	-8.140700	29.680741	1.268943E-5	20.859219
2733.002750	-2.991500	2.708100	-8.100000	29.684008	1.278844E-5	20.851134
2734.003509	-3.012300	2.703500	-8.142100	29.723314	1.404253E-5	20.847140
2735.001578	-3.007200	2.698900	-8.115600	29.677021	1.226040E-5	20.854522
2736.005328	-2.956300	2.697000	-7.972200	29.717095	1.202939E-5	20.839448
2737.002392	-2.984200	2.692200	-8.033500	29.743431	1.305246E-5	20.866948
2738.004345	-2.981900	2.686800	-8.010300	29.783125	1.239241E-5	20.842960
2739.006592	-2.964800	2.684400	-7.958100	29.810842	1.262343E-5	20.852414
2740.007187	-2.975300	2.680400	-7.974200	29.767824	1.381152E-5	20.857404
2741.004507	-2.988700	2.675100	-7.994200	29.696113	1.410854E-5	20.842002
2742.009090	-3.023000	2.671100	-8.073800	29.662697	1.364650E-5	20.856675
2743.005949	-2.996200	2.666800	-7.989700	29.582064	1.216140E-5	20.850778
2744.004657	-3.002900	2.661300	-7.990800	29.594191	1.216140E-5	20.863478
2745.004903	-2.974500	2.658800	-7.908100	29.554310	1.361350E-5	20.846034
2746.003305	-3.018600	2.652900	-8.007200	29.612507	1.173236E-5	20.834528
2747.004122	-2.994900	2.648200	-7.930300	29.694263	1.196338E-5	20.861473
2748.004941	-3.006600	2.644400	-7.950100	29.775623	1.219440E-5	20.838240
2749.005333	-3.005900	2.638100	-7.928900	29.857787	1.189738E-5	20.833843
2750.004447	-3.019200	2.632700	-7.947400	29.893991	1.252442E-5	20.849012
2751.005795	-3.004100	2.629400	-7.897600	29.766208	1.199638E-5	20.845343
2752.006693	-3.005300	2.624100	-7.885200	29.794200	1.206239E-5	20.838005
2753.006486	-3.046400	2.617400	-7.972800	29.775383	1.011524E-5	20.818559
2754.005210	-3.009500	2.613100	-7.862600	29.704564	1.021425E-5	20.842462
2755.005338	-3.006700	2.608700	-7.842500	29.796760	1.057728E-5	20.849121
2756.004822	-2.996500	2.602500	-7.797900	29.845764	1.094031E-5	20.840212
2757.005669	-3.000900	2.597400	-7.793900	29.870585	1.087430E-5	20.851489
2758.009678	-3.009900	2.592300	-7.801800	29.902437	9.653210E-6	20.834296
2759.007243	-3.009600	2.587500	-7.785300	29.883401	1.031326E-5	20.851610
2760.012887	-3.033000	2.580900	-7.827100	29.806034	1.051127E-5	20.841876
2761.007794	-3.005100	2.576000	-7.740300	29.797394	1.094031E-5	20.838381
2762.009773	-3.001700	2.570400	-7.714300	29.801768	1.143534E-5	20.835205
2763.012493	-3.007200	2.564400	-7.710200	29.824045	1.173236E-5	20.840597
2764.007721	-3.009900	2.557500	-7.697300	29.911406	1.011524E-5	20.819158
2765.009146	-2.987500	2.552800	-7.625800	29.984482	1.166636E-5	20.845434
2766.010304	-3.029000	2.546200	-7.711400	30.052827	1.143534E-5	20.832332
2767.007241	-3.013200	2.539300	-7.650300	30.010212	9.290184E-6	20.840089
2768.014762	-3.015500	2.533400	-7.638600	30.015239	1.222740E-5	20.848952
2769.012694	-3.005800	2.528000	-7.598300	30.042207	9.818223E-6	20.842485
2770.009168	-2.987700	2.522200	-7.535300	29.993928	1.169936E-5	20.838840
2771.009073	-2.984200	2.516100	-7.507500	29.980244	9.356189E-6	20.830730
2772.009086	-2.946200	2.510300	-7.394700	30.012784	1.077529E-5	20.851691
2773.011168	-2.979300	2.502400	-7.455000	30.080928	1.179837E-5	20.845974
2774.010268	-2.984400	2.496800	-7.449900	30.051905	9.884227E-6	20.830929
