LabVIEW Measurement	
Writer_Version	2
Reader_Version	2
Separator	Tab
Decimal_Separator	.
Multi_Headings	No
X_Columns	One
Time_Pref	Absolute
Operator	admin
Description	Clolumns are: time, Current, Voltage, Power, Battery Temp, and Chamber Temp
Date	2024/08/16
Time	13:07:17.8513970375061035156
***End_of_Header***	
	
Channels	6						
Samples	1	1	1	1	1	1	
Date	2024/08/28	2024/08/28	2024/08/28	2024/08/28	2024/08/28	2024/08/28	
Time	05:43:38.6069726943969726562	05:43:38.6169810295104980469	05:43:38.6219778060913085937	05:43:38.5887265205383300781	05:43:38.5887265205383300781	05:43:38.5887265205383300781	
X_Dimension	Time	Time	Time	Time	Time	Time	
X0	0.0000000000000000E+0	0.0000000000000000E+0	0.0000000000000000E+0	0.0000000000000000E+0	0.0000000000000000E+0	0.0000000000000000E+0	
Delta_X	1.000000	1.000000	1.000000	1.000000	1.000000	1.000000	
***End_of_Header***							
X_Value	Untitled	Untitled 1	Untitled 2	Untitled 3	Untitled 4	Untitled 5	Comment
0.000000	0.011915	4.086300	0.048713	20.913323	0.000460	20.834145
1.003744	-2.992700	3.928000	-11.753000	20.905853	0.000459	20.833312
2.000299	-2.989700	3.922900	-11.727000	20.908275	0.000457	20.838579
3.000021	-2.981100	3.919600	-11.684000	20.922012	0.000459	20.847101
4.009460	-3.011600	3.915200	-11.790000	20.920346	0.000457	20.843064
4.996938	-2.981700	3.913300	-11.668000	20.939938	0.000459	20.840374
6.005451	-3.009800	3.908000	-11.760000	20.928137	0.000457	20.832365
7.002497	-2.993800	3.909000	-11.702000	20.932545	0.000456	20.832980
8.005933	-3.010700	3.906400	-11.760000	20.933814	0.000456	20.848473
9.001295	-2.992000	3.904000	-11.680000	20.959940	0.000456	20.871757
9.999824	-2.999200	3.902700	-11.704000	20.963579	0.000453	20.859276
11.016580	-3.010400	3.901800	-11.746000	20.975842	0.000454	20.861583
12.002985	-3.015300	3.897900	-11.752000	20.949434	0.000455	20.858879
13.015275	-3.021800	3.896600	-11.773000	20.982056	0.000454	20.852626
14.012645	-2.997200	3.896400	-11.677000	20.966976	0.000453	20.847026
15.001267	-3.011200	3.896200	-11.730000	20.994216	0.000452	20.834443
16.003228	-2.994800	3.895900	-11.666000	20.999879	0.000452	20.852908
17.003345	-3.016100	3.894000	-11.744000	21.002724	0.000450	20.860494
18.000242	-3.029000	3.893700	-11.793000	21.017497	0.000451	20.844925
19.000193	-2.995100	3.891900	-11.656000	21.021161	0.000453	20.844323
20.003190	-2.996600	3.890700	-11.658000	21.022571	0.000450	20.861853
21.002837	-3.008100	3.889700	-11.700000	21.023557	0.000451	20.824434
22.004194	-2.992200	3.889900	-11.639000	21.027555	0.000447	20.854511
23.004157	-3.026600	3.888900	-11.769000	21.053115	0.000448	20.845463
24.015115	-3.016900	3.888300	-11.729000	21.046274	0.000449	20.853319
25.004053	-3.011300	3.887800	-11.706000	21.067594	0.000450	20.859944
26.011196	-3.003300	3.887500	-11.674000	21.067543	0.000447	20.840928
27.004751	-3.001400	3.886900	-11.665000	21.073603	0.000447	20.856946
28.007953	-2.996300	3.886800	-11.645000	21.066454	0.000446	20.874451
29.011959	-3.023500	3.885800	-11.748000	21.092103	0.000444	20.856011
30.011309	-3.007100	3.885300	-11.683000	21.110232	0.000446	20.868928
31.014551	-3.014400	3.884000	-11.707000	21.107850	0.000448	20.840468
32.011834	-3.025500	3.884100	-11.750000	21.118406	0.000446	20.854346
33.009926	-2.974600	3.884500	-11.554000	21.133179	0.000446	20.879078
34.010892	-3.002700	3.883300	-11.660000	21.138239	0.000446	20.885088
35.020146	-2.993800	3.883400	-11.625000	21.147181	0.000445	20.845671
36.013502	-2.993500	3.881900	-11.620000	21.161607	0.000445	20.847773
37.010215	-2.995000	3.883400	-11.630000	21.163798	0.000445	20.883628
38.025086	-3.002800	3.882800	-11.659000	21.161838	0.000444	20.845160
39.013144	-3.008700	3.881600	-11.678000	21.173765	0.000445	20.853771
40.005478	-2.966800	3.882800	-11.519000	21.191354	0.000445	20.874684
41.009085	-2.985600	3.881300	-11.587000	21.168244	0.000445	20.861998
42.023847	-3.007000	3.879300	-11.663000	21.178505	0.000443	20.861357
43.015534	-3.000800	3.879500	-11.641000	21.190073	0.000445	20.878144
44.013754	-3.015400	3.880100	-11.699000	21.203064	0.000443	20.870751
45.009133	-2.992700	3.879500	-11.610000	21.227032	0.000447	20.875761
46.024058	-3.029300	3.878600	-11.749000	21.246516	0.000442	20.860166
47.031632	-3.009900	3.879200	-11.675000	21.269907	0.000444	20.869816
48.015162	-3.008400	3.879100	-11.669000	21.242596	0.000443	20.864780
49.009127	-2.987700	3.878600	-11.587000	21.265923	0.000443	20.874839
50.022507	-2.991500	3.879100	-11.603000	21.279681	0.000443	20.899980
51.028762	-2.994800	3.877800	-11.611000	21.268985	0.000445	20.870790
52.022335	-3.002100	3.877800	-11.641000	21.278887	0.000444	20.876428
53.014571	-2.992300	3.876700	-11.599000	21.295361	0.000443	20.868727
54.019393	-2.971900	3.877300	-11.522000	21.296846	0.000445	20.877325
55.021652	-2.990000	3.877900	-11.594000	21.310950	0.000443	20.880055
56.023125	-2.996700	3.876800	-11.617000	21.326500	0.000442	20.876646
57.021348	-2.990800	3.876500	-11.592000	21.336478	0.000442	20.875249
58.016631	-2.996900	3.877000	-11.618000	21.336120	0.000442	20.888166
59.019203	-2.982200	3.877500	-11.561000	21.342139	0.000444	20.889447
60.017792	-3.003000	3.876900	-11.641000	21.351042	0.000441	20.882707
61.021055	-3.017900	3.874200	-11.691000	21.341333	0.000443	20.869201
62.019538	-3.032000	3.875300	-11.748000	21.339911	0.000443	20.894804
63.023658	-2.990300	3.874500	-11.585000	21.380002	0.000443	20.873276
64.024120	-3.010700	3.875300	-11.666000	21.396538	0.000442	20.886974
65.017614	-2.995400	3.874900	-11.605000	21.383268	0.000443	20.881759
66.023623	-2.999800	3.874100	-11.620000	21.402392	0.000441	20.882874
67.017579	-2.993400	3.874500	-11.597000	21.436231	0.000442	20.897290
68.018835	-3.006600	3.873700	-11.646000	21.433630	0.000444	20.900377
69.018313	-3.009000	3.874400	-11.657000	21.413893	0.000442	20.908604
70.033282	-3.001700	3.874700	-11.630000	21.436833	0.000444	20.892677
71.019999	-3.013500	3.873800	-11.673000	21.439971	0.000443	20.890127
72.021747	-3.018900	3.873600	-11.694000	21.446643	0.000440	20.883527
73.036538	-2.968400	3.874000	-11.499000	21.457658	0.000443	20.899289
74.026522	-2.999500	3.873700	-11.618000	21.492494	0.000444	20.879619
75.022211	-2.997300	3.873300	-11.608000	21.482377	0.000443	20.908848
76.025074	-3.009200	3.872600	-11.652000	21.503213	0.000442	20.902197
77.023884	-2.995100	3.872400	-11.597000	21.500588	0.000444	20.901467
78.019789	-3.019800	3.872200	-11.691000	21.509002	0.000443	20.900403
79.019857	-3.003000	3.871800	-11.627000	21.508439	0.000444	20.894625
80.028449	-3.004300	3.872200	-11.632000	21.514945	0.000446	20.915357
81.020953	-2.965200	3.872400	-11.481000	21.546463	0.000444	20.887629
82.019080	-3.003300	3.872100	-11.628000	21.553724	0.000444	20.901057
83.018009	-3.004600	3.869300	-11.624000	21.550382	0.000444	20.898187
84.023787	-3.002100	3.871000	-11.620000	21.549627	0.000442	20.914025
85.029502	-3.002600	3.870900	-11.622000	21.569502	0.000442	20.894087
86.024088	-2.998700	3.872100	-11.610000	21.569093	0.000445	20.927339
87.019394	-3.000800	3.869700	-11.611000	21.575599	0.000443	20.899713
88.027308	-2.976800	3.871700	-11.525000	21.585537	0.000444	20.894959
89.025992	-2.982200	3.871000	-11.543000	21.604580	0.000443	20.902161
90.028542	-3.010800	3.869800	-11.650000	21.581273	0.000444	20.909657
91.027449	-3.004500	3.869900	-11.626000	21.596692	0.000445	20.921292
92.020723	-3.013300	3.869400	-11.659000	21.613046	0.000446	20.903046
93.035430	-3.010800	3.868800	-11.647000	21.629949	0.000445	20.903841
94.026121	-3.014000	3.868800	-11.659000	21.635802	0.000444	20.930083
95.025726	-3.006600	3.870400	-11.635000	21.647161	0.000446	20.917744
96.035696	-2.999800	3.867500	-11.600000	21.659429	0.000444	20.917693
97.026439	-3.007500	3.869200	-11.635000	21.655972	0.000447	20.912338
98.027721	-3.003500	3.868400	-11.618000	21.687960	0.000445	20.915900
99.029888	-2.981100	3.869400	-11.534000	21.673759	0.000446	20.919232
100.032718	-2.988500	3.869500	-11.563000	21.690086	0.000448	20.924192
101.045705	-3.015200	3.868700	-11.664000	21.698705	0.000446	20.920963
102.039044	-3.019000	3.868100	-11.676000	21.710178	0.000446	20.909213
103.028206	-3.007300	3.868400	-11.632000	21.703110	0.000446	20.922527
104.030634	-2.988100	3.869000	-11.560000	21.699640	0.000448	20.925218
105.028681	-2.993000	3.868100	-11.575000	21.715711	0.000445	20.918543
106.033966	-2.990900	3.867500	-11.567000	21.704391	0.000447	20.936610
107.031452	-3.004100	3.866900	-11.615000	21.735277	0.000447	20.935277
108.031703	-3.022600	3.866400	-11.686000	21.757237	0.000447	20.906050
109.033190	-3.002300	3.866100	-11.605000	21.767417	0.000446	20.921927
110.022578	-3.025500	3.867200	-11.699000	21.779593	0.000449	20.920363
111.025335	-3.011100	3.865400	-11.637000	21.771757	0.000449	20.924848
112.038031	-2.994900	3.867400	-11.581000	21.775944	0.000449	20.924772
113.028889	-3.004500	3.866800	-11.617000	21.798403	0.000449	20.899362
114.022404	-3.014000	3.866000	-11.651000	21.782091	0.000447	20.928078
115.032992	-2.985900	3.867000	-11.546000	21.826290	0.000449	20.927745
116.054060	-2.990200	3.866400	-11.560000	21.806855	0.000451	20.917777
117.036437	-2.996600	3.865300	-11.582000	21.807444	0.000449	20.933064
118.030535	-2.993400	3.865700	-11.570000	21.846149	0.000450	20.922493
119.027799	-2.970800	3.866200	-11.485000	21.817214	0.000448	20.928144
120.032605	-2.988000	3.865600	-11.550000	21.847135	0.000449	20.945288
121.032233	-2.990300	3.866200	-11.559000	21.853255	0.000451	20.932449
122.030288	-2.995900	3.864700	-11.577000	21.865060	0.000451	20.931937
123.031484	-2.997400	3.866100	-11.587000	21.864061	0.000451	20.926671
124.029120	-2.989600	3.865700	-11.555000	21.885046	0.000450	20.926338
125.034139	-3.007400	3.864500	-11.621000	21.900588	0.000451	20.932885
126.044191	-3.000100	3.864300	-11.593000	21.893982	0.000450	20.938600
127.036023	-3.004500	3.863100	-11.606000	21.943246	0.000453	20.936703
128.041162	-3.017100	3.862900	-11.654000	21.929497	0.000452	20.948544
129.026711	-2.995100	3.863700	-11.570000	21.931993	0.000451	20.929234
130.029906	-3.007700	3.864700	-11.623000	21.946575	0.000453	20.954258
131.030052	-2.989100	3.863600	-11.548000	21.937229	0.000452	20.951542
132.032813	-3.002400	3.863100	-11.598000	21.958763	0.000455	20.949389
133.028286	-2.980100	3.864000	-11.514000	21.982971	0.000451	20.946122
134.042224	-3.019900	3.863100	-11.665000	21.967967	0.000453	20.929208
135.035398	-3.006000	3.862000	-11.609000	21.988386	0.000455	20.952016
136.029455	-3.023700	3.863700	-11.682000	21.993891	0.000453	20.951837
137.033871	-3.002300	3.864100	-11.600000	21.981051	0.000455	20.940407
138.028865	-2.994600	3.862700	-11.566000	21.995121	0.000455	20.940267
139.032037	-3.003400	3.862300	-11.599000	22.009969	0.000454	20.945174
140.044223	-2.986500	3.863700	-11.538000	22.016614	0.000455	20.950876
141.034003	-2.999600	3.861700	-11.583000	22.016998	0.000454	20.939408
142.032998	-3.000300	3.862600	-11.588000	22.025472	0.000455	20.956898
143.031627	-3.023500	3.860800	-11.672000	22.024051	0.000456	20.948839
144.035971	-2.997600	3.862400	-11.576000	22.020467	0.000456	20.967533
145.032444	-2.982400	3.862000	-11.518000	22.039848	0.000457	20.948057
146.032168	-3.001900	3.861200	-11.590000	22.058499	0.000455	20.974311
147.049373	-2.993900	3.861100	-11.559000	22.060240	0.000456	20.946187
148.040551	-2.993000	3.861100	-11.555000	22.067755	0.000459	20.970302
149.037690	-2.982200	3.860600	-11.511000	22.076216	0.000457	20.960755
150.034926	-2.999600	3.861400	-11.582000	22.078827	0.000456	20.951517
151.037719	-2.999600	3.860300	-11.578000	22.070277	0.000458	20.966663
152.036979	-3.001600	3.859100	-11.582000	22.107757	0.000459	20.970520
153.044954	-2.994900	3.860500	-11.561000	22.113478	0.000458	20.947327
154.041515	-2.991800	3.861100	-11.551000	22.124359	0.000459	20.975760
155.035731	-3.000900	3.861000	-11.585000	22.141012	0.000458	20.983422
156.047973	-2.980800	3.860500	-11.506000	22.152058	0.000458	20.982628
157.046822	-3.006900	3.859000	-11.603000	22.135252	0.000460	20.971494
158.043625	-3.031400	3.857000	-11.691000	22.138823	0.000459	20.963690
159.049572	-3.015100	3.858700	-11.633000	22.149627	0.000461	20.996787
160.047170	-3.015600	3.859100	-11.636000	22.142957	0.000460	20.981577
161.041586	-3.027100	3.858200	-11.678000	22.140513	0.000461	20.994775
162.039020	-3.014800	3.859200	-11.634000	22.156910	0.000459	20.982269
163.038116	-3.023200	3.857300	-11.660000	22.161889	0.000461	20.980617
164.047547	-3.005000	3.857100	-11.589000	22.190419	0.000462	20.989265
165.044523	-3.009400	3.859000	-11.612000	22.205586	0.000461	20.958937
166.043777	-2.999700	3.858300	-11.573000	22.218949	0.000462	20.994121
167.044545	-3.026400	3.858000	-11.675000	22.218846	0.000461	20.963678
168.038700	-2.994200	3.857500	-11.550000	22.213727	0.000464	20.998376
169.047794	-3.007300	3.856600	-11.596000	22.248451	0.000462	21.007537
170.043540	-2.996600	3.856900	-11.557000	22.233374	0.000462	20.983910
171.045220	-3.011500	3.857100	-11.615000	22.270580	0.000464	20.988446
172.043540	-3.001300	3.856700	-11.574000	22.252329	0.000464	20.993405
173.044289	-2.983900	3.857400	-11.508000	22.276429	0.000464	21.005205
174.047556	-2.986700	3.856500	-11.517000	22.283328	0.000463	20.995045
175.044711	-2.983700	3.857000	-11.508000	22.269775	0.000466	20.990011
176.046595	-3.010400	3.856500	-11.609000	22.288294	0.000463	21.010447
177.046534	-2.999400	3.857000	-11.568000	22.289369	0.000465	20.989242
178.045026	-3.022100	3.854700	-11.648000	22.298240	0.000467	20.997174
179.045011	-3.008200	3.854700	-11.595000	22.328520	0.000464	21.006156
180.047482	-3.007800	3.855000	-11.594000	22.321559	0.000465	20.993024
181.042900	-3.016300	3.854100	-11.625000	22.319280	0.000466	20.974624
182.046151	-2.990200	3.856500	-11.530000	22.323081	0.000466	20.972741
183.055304	-2.984800	3.855800	-11.508000	22.318474	0.000466	20.988513
184.047821	-3.001800	3.854000	-11.568000	22.319243	0.000465	20.998291
185.050844	-2.970600	3.856800	-11.457000	22.338760	0.000468	20.994127
186.042957	-2.996500	3.854100	-11.547000	22.350700	0.000468	20.981429
187.048947	-2.985700	3.855200	-11.510000	22.335663	0.000468	20.990552
188.053505	-2.981500	3.854900	-11.493000	22.370589	0.000468	20.996601
189.048739	-2.999100	3.854600	-11.559000	22.385434	0.000469	20.969745
190.062041	-3.009500	3.854000	-11.598000	22.396466	0.000469	21.015872
191.052524	-3.006100	3.853900	-11.584000	22.414753	0.000469	20.970182
192.053092	-3.009200	3.853700	-11.594000	22.431965	0.000471	20.962763
193.047897	-3.014100	3.852500	-11.610000	22.401355	0.000470	20.954397
194.051071	-2.988500	3.854600	-11.519000	22.421076	0.000471	20.965609
195.050607	-3.002100	3.851900	-11.563000	22.404556	0.000467	20.963764
196.053967	-3.003200	3.853200	-11.571000	22.427795	0.000472	20.969966
197.047118	-3.002600	3.853100	-11.568000	22.413591	0.000473	20.962381
198.054698	-2.968800	3.852600	-11.437000	22.455603	0.000472	20.961779
199.066863	-3.012200	3.851600	-11.600000	22.470345	0.000472	20.964688
200.052578	-2.999200	3.851400	-11.550000	22.452457	0.000473	20.973326
201.051811	-3.006500	3.850700	-11.575000	22.472393	0.000472	20.952043
202.068014	-3.000300	3.850900	-11.553000	22.451651	0.000477	20.935066
203.046700	-3.018800	3.850600	-11.623000	22.472253	0.000474	20.928198
204.049038	-2.998800	3.851600	-11.550000	22.467941	0.000475	20.949955
205.045863	-3.001500	3.850900	-11.558000	22.492562	0.000475	20.965128
206.060747	-2.993300	3.851300	-11.527000	22.520406	0.000476	20.941807
207.049942	-3.002000	3.849800	-11.556000	22.509337	0.000475	20.943998
208.054380	-3.001500	3.850400	-11.557000	22.512243	0.000474	20.950700
209.052939	-3.016800	3.849500	-11.612000	22.506997	0.000475	20.971523
210.054608	-3.005500	3.850400	-11.571000	22.512704	0.000477	20.954007
211.053184	-3.009000	3.848800	-11.580000	22.505373	0.000479	20.962784
212.055128	-2.995600	3.848100	-11.527000	22.522365	0.000477	20.949933
213.058766	-3.005100	3.848900	-11.565000	22.519308	0.000478	20.945449
214.052602	-2.990700	3.849100	-11.510000	22.539308	0.000476	20.964529
215.049950	-3.003400	3.848600	-11.558000	22.562072	0.000479	20.947975
216.057845	-3.004100	3.848400	-11.560000	22.563748	0.000479	20.946808
217.060382	-3.011000	3.849400	-11.590000	22.567370	0.000479	20.937161
218.063789	-2.999000	3.849000	-11.543000	22.569289	0.000478	20.940979
219.054842	-3.003800	3.847400	-11.556000	22.588880	0.000479	20.937367
220.068573	-2.991500	3.848100	-11.510000	22.597299	0.000480	20.931102
221.055840	-3.024600	3.847400	-11.635000	22.596161	0.000481	20.940866
222.056086	-3.004400	3.847700	-11.559000	22.648351	0.000482	20.937664
223.060122	-3.015700	3.847300	-11.601000	22.631552	0.000480	20.938856
224.054502	-3.006800	3.846800	-11.566000	22.625781	0.000484	20.935921
225.063820	-3.022700	3.845200	-11.622000	22.624592	0.000481	20.938997
226.069260	-2.997100	3.846300	-11.528000	22.639843	0.000482	20.928195
227.056900	-3.021300	3.847400	-11.623000	22.653866	0.000484	20.954566
228.059755	-2.987000	3.846300	-11.488000	22.631349	0.000483	20.912103
229.055381	-3.030000	3.846900	-11.656000	22.649939	0.000485	20.933566
230.067569	-2.998200	3.846600	-11.532000	22.665164	0.000483	20.932220
231.058527	-2.987700	3.844800	-11.486000	22.665435	0.000484	20.934862
232.054807	-3.007000	3.845500	-11.563000	22.663989	0.000483	20.924406
233.054802	-3.004700	3.844900	-11.551000	22.697919	0.000484	20.903392
234.052552	-3.000500	3.845000	-11.536000	22.682618	0.000484	20.919358
235.079580	-2.992600	3.845100	-11.506000	22.715946	0.000484	20.928084
236.057331	-2.998200	3.843800	-11.523000	22.739947	0.000486	20.916566
237.057407	-3.024700	3.843300	-11.624000	22.751001	0.000484	20.896821
238.065763	-3.027700	3.844000	-11.638000	22.746792	0.000486	20.909199
239.066599	-3.003000	3.845700	-11.548000	22.731057	0.000486	20.898180
240.057162	-2.992100	3.843400	-11.498000	22.751488	0.000484	20.912954
241.055728	-2.995400	3.843400	-11.512000	22.745387	0.000487	20.926282
242.083723	-3.020100	3.843500	-11.607000	22.745976	0.000487	20.915019
243.059466	-3.004700	3.843200	-11.547000	22.739504	0.000485	20.934613
244.063341	-3.012900	3.842400	-11.576000	22.748753	0.000486	20.931076
245.057160	-2.997700	3.842300	-11.518000	22.772997	0.000486	20.929283
246.060196	-3.012700	3.841500	-11.573000	22.745263	0.000485	20.926631
247.061055	-2.990900	3.842900	-11.493000	22.763635	0.000487	20.914690
248.061874	-2.999800	3.842100	-11.525000	22.788376	0.000488	20.930463
249.062855	-2.995000	3.842900	-11.508000	22.804380	0.000488	20.902403
250.059321	-2.997200	3.841600	-11.514000	22.807579	0.000488	20.891858
251.063932	-3.021600	3.840100	-11.602000	22.778477	0.000488	20.912014
252.059526	-3.013600	3.839800	-11.571000	22.774370	0.000488	20.906004
253.055386	-2.993800	3.841900	-11.501000	22.791257	0.000488	20.905377
254.082385	-3.001300	3.841500	-11.528000	22.800430	0.000490	20.904135
255.065385	-2.999400	3.839800	-11.516000	22.848798	0.000489	20.919871
256.072450	-3.008700	3.840400	-11.553000	22.824736	0.000491	20.916629
257.069456	-2.968300	3.841100	-11.401000	22.817829	0.000490	20.923934
258.055256	-2.992200	3.840100	-11.488000	22.861860	0.000491	20.919206
259.062519	-2.980300	3.840800	-11.446000	22.864189	0.000493	20.902101
260.060958	-2.978100	3.839500	-11.433000	22.854531	0.000492	20.895745
261.066962	-3.024500	3.839400	-11.611000	22.833988	0.000493	20.919733
262.064403	-3.016100	3.839500	-11.579000	22.828411	0.000491	20.915095
263.061723	-2.970200	3.840900	-11.407000	22.855607	0.000493	20.904883
264.067973	-3.001000	3.840000	-11.523000	22.872850	0.000494	20.911725
265.070200	-3.002200	3.838600	-11.523000	22.877928	0.000494	20.917286
266.067030	-3.017200	3.838900	-11.582000	22.899393	0.000494	20.913661
267.076299	-2.974100	3.839000	-11.417000	22.913067	0.000495	20.911713
268.059712	-2.993500	3.838400	-11.489000	22.914385	0.000495	20.913507
269.065818	-3.010800	3.837800	-11.555000	22.942948	0.000494	20.895658
270.069057	-2.984300	3.838400	-11.453000	22.931961	0.000497	20.897926
271.068641	-3.003700	3.837400	-11.526000	22.962479	0.000496	20.873977
272.074779	-2.969500	3.837500	-11.394000	22.961240	0.000497	20.907346
273.067428	-2.995800	3.836200	-11.491000	22.947680	0.000496	20.904666
274.076335	-3.018200	3.835900	-11.576000	22.965550	0.000497	20.889380
275.078403	-3.003800	3.836300	-11.523000	22.953130	0.000497	20.923400
276.064855	-2.991000	3.836900	-11.476000	22.970526	0.000499	20.904322
277.071764	-3.007400	3.836200	-11.536000	22.966740	0.000497	20.894840
278.075759	-3.020400	3.834500	-11.580000	22.987526	0.000498	20.899543
279.065467	-3.008200	3.834200	-11.533000	22.970399	0.000497	20.898505
280.065071	-2.995400	3.836000	-11.490000	23.001607	0.000498	20.896583
281.072472	-3.001200	3.834900	-11.508000	23.012325	0.000500	20.913957
282.062152	-2.993000	3.834300	-11.476000	23.015382	0.000501	20.908487
283.075508	-2.992900	3.833700	-11.473000	23.010932	0.000498	20.903555
284.069161	-2.975200	3.833600	-11.405000	23.034401	0.000499	20.893405
285.070000	-3.008200	3.833400	-11.531000	23.043534	0.000501	20.900659
286.069515	-3.009900	3.834200	-11.540000	23.053868	0.000501	20.896789
287.063601	-2.997500	3.834000	-11.492000	23.052066	0.000501	20.904939
288.072463	-2.999100	3.834200	-11.499000	23.054483	0.000500	20.890293
289.066219	-3.007700	3.833500	-11.528000	23.070713	0.000501	20.877159
290.069194	-3.006000	3.832000	-11.518000	23.077696	0.000502	20.893638
291.072471	-3.005400	3.832300	-11.515000	23.069690	0.000500	20.898892
292.067019	-2.983100	3.833400	-11.434000	23.088760	0.000503	20.917998
293.062180	-2.993100	3.832600	-11.471000	23.104517	0.000503	20.891115
294.069300	-2.989900	3.831400	-11.455000	23.112855	0.000502	20.908953
295.065066	-3.012700	3.830800	-11.540000	23.083160	0.000503	20.902905
296.070210	-2.998600	3.831800	-11.489000	23.068938	0.000503	20.892449
297.074253	-2.997000	3.831500	-11.482000	23.070230	0.000504	20.898485
298.076112	-3.001200	3.830200	-11.494000	23.074067	0.000504	20.899958
299.071761	-2.995800	3.831500	-11.477000	23.074681	0.000503	20.910530
300.072459	-2.985700	3.832400	-11.441000	23.087676	0.000506	20.899844
301.075802	-3.014800	3.830500	-11.548000	23.096091	0.000503	20.890260
302.072249	-3.009200	3.829500	-11.523000	23.120468	0.000505	20.890504
303.072740	-2.995800	3.829800	-11.472000	23.094762	0.000506	20.891298
304.069502	-2.998000	3.829300	-11.480000	23.116403	0.000507	20.906344
305.079486	-3.000900	3.830400	-11.494000	23.132631	0.000505	20.905061
306.073692	-3.008300	3.829500	-11.519000	23.117389	0.000505	20.894057
307.073169	-2.986300	3.830000	-11.437000	23.123937	0.000508	20.902988
308.068010	-2.999400	3.829500	-11.485000	23.134080	0.000506	20.896083
309.087027	-3.007500	3.829100	-11.515000	23.134298	0.000507	20.894405
310.072363	-3.029000	3.828600	-11.596000	23.162471	0.000507	20.905091
311.073184	-3.012400	3.826900	-11.527000	23.165938	0.000506	20.883911
312.077983	-3.000500	3.829100	-11.488000	23.164314	0.000508	20.891767
313.076423	-3.020200	3.826700	-11.556000	23.155043	0.000511	20.891011
314.080328	-3.009300	3.826800	-11.515000	23.144046	0.000508	20.887104
315.085010	-3.007200	3.827500	-11.509000	23.149251	0.000510	20.886156
316.075563	-2.995900	3.827600	-11.466000	23.162117	0.000509	20.876764
317.083070	-3.017300	3.826900	-11.546000	23.170699	0.000508	20.877777
318.080111	-2.986100	3.827100	-11.428000	23.125915	0.000510	20.898806
319.081091	-2.997600	3.826300	-11.468000	23.182197	0.000509	20.886453
320.081690	-3.002700	3.827600	-11.492000	23.186265	0.000510	20.881995
321.082718	-2.994300	3.825200	-11.453000	23.210690	0.000511	20.872808
322.093257	-2.989700	3.825700	-11.437000	23.201842	0.000508	20.881010
323.081462	-2.983200	3.826700	-11.415000	23.214642	0.000512	20.892888
324.077547	-3.007000	3.825000	-11.501000	23.215498	0.000511	20.871937
325.080829	-2.992800	3.825500	-11.448000	23.218339	0.000510	20.892326
326.083117	-2.988600	3.825500	-11.432000	23.215922	0.000513	20.887059
327.081535	-3.038200	3.824100	-11.617000	23.230910	0.000512	20.876950
328.083429	-2.993100	3.824000	-11.445000	23.239018	0.000512	20.871325
329.080426	-3.010400	3.824100	-11.511000	23.258850	0.000513	20.894992
330.078895	-3.002800	3.823300	-11.479000	23.279412	0.000514	20.876245
331.079630	-2.994600	3.824300	-11.451000	23.284528	0.000513	20.883269
332.087010	-3.006100	3.823400	-11.492000	23.290359	0.000516	20.850233
333.090823	-2.993400	3.824600	-11.448000	23.265731	0.000512	20.892879
334.082757	-3.003300	3.822300	-11.479000	23.288033	0.000514	20.873979
335.078749	-3.011300	3.822600	-11.509000	23.315997	0.000513	20.880194
336.084776	-2.998800	3.823800	-11.465000	23.294594	0.000515	20.868701
337.082111	-2.996500	3.821700	-11.451000	23.326521	0.000514	20.871776
338.085203	-3.005000	3.822000	-11.484000	23.335383	0.000515	20.896776
339.091776	-3.002800	3.821900	-11.476000	23.320909	0.000514	20.877530
340.094399	-3.013100	3.821700	-11.514000	23.316626	0.000515	20.886987
341.091045	-2.987000	3.822100	-11.416000	23.302803	0.000515	20.896367
342.088938	-3.007500	3.822000	-11.494000	23.340677	0.000516	20.880273
343.092246	-3.018900	3.821400	-11.535000	23.309070	0.000514	20.875148
344.086913	-3.007100	3.820800	-11.489000	23.303253	0.000517	20.875957
345.091688	-3.005000	3.821100	-11.482000	23.345869	0.000517	20.893062
346.093328	-3.001500	3.820000	-11.464000	23.355498	0.000516	20.866679
347.094352	-3.011600	3.820600	-11.505000	23.330169	0.000518	20.866423
348.085229	-2.982900	3.820000	-11.395000	23.325886	0.000519	20.865923
349.083765	-2.989800	3.819700	-11.419000	23.343072	0.000517	20.870820
350.095058	-2.977400	3.821000	-11.376000	23.334506	0.000516	20.867924
351.086443	-3.008200	3.819400	-11.488000	23.348634	0.000517	20.873075
352.091031	-2.984000	3.820200	-11.398000	23.345616	0.000518	20.876689
353.085173	-2.983500	3.819400	-11.394000	23.337627	0.000519	20.872949
354.093159	-3.005100	3.817500	-11.471000	23.335327	0.000518	20.861635
355.098500	-3.014900	3.817500	-11.508000	23.382610	0.000518	20.861609
356.089271	-2.992900	3.817600	-11.425000	23.394003	0.000517	20.850270
357.093106	-2.990100	3.817900	-11.415000	23.402863	0.000519	20.867211
358.089347	-2.989800	3.817300	-11.412000	23.415687	0.000520	20.884330
359.088171	-2.998600	3.816300	-11.443000	23.424269	0.000521	20.859743
360.096697	-2.992100	3.817300	-11.420000	23.410959	0.000519	20.865842
361.087296	-3.008700	3.815800	-11.479000	23.446848	0.000522	20.864356
362.086955	-3.017400	3.816900	-11.516000	23.482111	0.000523	20.860821
363.099844	-3.000400	3.816100	-11.449000	23.486507	0.000521	20.863331
364.085263	-3.025000	3.816800	-11.545000	23.492339	0.000521	20.855427
365.087528	-2.977800	3.816000	-11.363000	23.489886	0.000522	20.879045
366.086615	-2.986700	3.815500	-11.395000	23.495907	0.000519	20.847151
367.092524	-2.970300	3.815500	-11.333000	23.455317	0.000522	20.851508
368.097942	-2.998900	3.815400	-11.441000	23.469125	0.000523	20.857763
369.094473	-3.019900	3.813700	-11.515000	23.498312	0.000523	20.848138
370.097414	-3.002200	3.814400	-11.450000	23.473779	0.000522	20.873332
371.099589	-2.996000	3.814900	-11.429000	23.446255	0.000524	20.866132
372.089842	-3.021800	3.813200	-11.522000	23.460293	0.000525	20.852229
373.088483	-2.973300	3.814500	-11.341000	23.477220	0.000524	20.877729
374.092329	-3.001100	3.813800	-11.445000	23.482041	0.000523	20.851269
375.112586	-3.002000	3.813300	-11.446000	23.494493	0.000526	20.840991
376.098302	-3.007900	3.812100	-11.465000	23.509069	0.000523	20.837110
377.092750	-2.984100	3.813500	-11.378000	23.505604	0.000525	20.843595
378.098786	-2.999600	3.813600	-11.438000	23.516203	0.000524	20.849951
379.114237	-2.997800	3.813000	-11.430000	23.517455	0.000525	20.856422
380.108788	-3.024700	3.811200	-11.527000	23.531725	0.000525	20.845596
381.109617	-3.031000	3.812300	-11.555000	23.525066	0.000525	20.826119
382.099393	-2.994900	3.811100	-11.412000	23.517395	0.000526	20.842137
383.097248	-3.005800	3.810800	-11.454000	23.518712	0.000526	20.828285
384.098782	-2.988800	3.811300	-11.391000	23.551721	0.000527	20.837192
385.103661	-2.997700	3.810200	-11.421000	23.567304	0.000525	20.840959
386.089391	-3.009100	3.809400	-11.462000	23.566834	0.000528	20.853763
387.097134	-3.008600	3.810300	-11.462000	23.586419	0.000530	20.845896
388.105790	-2.988300	3.810200	-11.385000	23.611116	0.000528	20.827507
389.102397	-2.990200	3.809400	-11.389000	23.620372	0.000528	20.853380
390.101542	-3.005300	3.809800	-11.449000	23.619018	0.000526	20.840643
391.100610	-2.992100	3.809300	-11.397000	23.616052	0.000527	20.849050
392.103588	-2.993500	3.808500	-11.400000	23.615695	0.000531	20.849640
393.101583	-3.026000	3.809300	-11.526000	23.631776	0.000527	20.855804
394.101940	-2.975800	3.808800	-11.333000	23.650517	0.000526	20.843297
395.096187	-3.005400	3.808100	-11.444000	23.627749	0.000529	20.833750
396.099959	-2.969900	3.808800	-11.311000	23.678166	0.000529	20.832611
397.100589	-3.007500	3.808000	-11.452000	23.659287	0.000527	20.840711
398.108818	-3.004900	3.807700	-11.441000	23.657089	0.000528	20.838507
399.102429	-2.990300	3.808100	-11.387000	23.625593	0.000527	20.840597
400.103220	-2.984700	3.807000	-11.362000	23.639233	0.000528	20.809227
401.099492	-2.980700	3.808400	-11.350000	23.627907	0.000527	20.845761
402.096918	-3.001700	3.806000	-11.424000	23.605218	0.000530	20.831551
403.099238	-2.972700	3.805200	-11.311000	23.628638	0.000528	20.833218
404.097643	-3.022000	3.803800	-11.494000	23.639977	0.000528	20.821353
405.101100	-3.006100	3.805700	-11.440000	23.657936	0.000529	20.833192
406.106172	-3.010400	3.804500	-11.452000	23.667907	0.000528	20.809525
407.096341	-3.001900	3.806200	-11.425000	23.701399	0.000531	20.808014
408.109752	-3.010200	3.804400	-11.451000	23.708300	0.000532	20.828683
409.103740	-2.977200	3.804400	-11.325000	23.714949	0.000532	20.832030
410.112677	-3.005700	3.803700	-11.431000	23.737675	0.000531	20.812142
411.101604	-2.997000	3.804300	-11.400000	23.742291	0.000530	20.844744
412.099298	-2.990500	3.803000	-11.372000	23.728027	0.000529	20.826176
413.099703	-2.979700	3.804900	-11.337000	23.739901	0.000531	20.836184
414.106579	-3.023300	3.801700	-11.493000	23.763816	0.000533	20.817014
415.098040	-3.010100	3.803400	-11.447000	23.734047	0.000533	20.805660
416.112100	-2.981800	3.804000	-11.342000	23.716294	0.000532	20.820103
417.119489	-3.000100	3.803300	-11.410000	23.690489	0.000530	20.822206
418.108551	-2.981200	3.803000	-11.335000	23.688252	0.000532	20.805265
419.116298	-3.017900	3.802900	-11.475000	23.697852	0.000531	20.835752
420.107187	-2.998800	3.802200	-11.402000	23.730677	0.000531	20.826936
421.108660	-3.032000	3.801300	-11.524000	23.744967	0.000532	20.808073
422.113231	-3.007600	3.801000	-11.429000	23.749480	0.000532	20.831564
423.106710	-3.010400	3.800400	-11.441000	23.737963	0.000533	20.821439
424.106659	-2.990400	3.800100	-11.363000	23.765738	0.000533	20.826053
425.111383	-2.987800	3.801400	-11.357000	23.758160	0.000534	20.818455
426.107081	-2.992800	3.799600	-11.370000	23.775556	0.000533	20.813137
427.112035	-3.006400	3.800000	-11.423000	23.788044	0.000534	20.810011
428.110716	-3.005100	3.799400	-11.417000	23.818680	0.000534	20.834091
429.108266	-2.989100	3.799000	-11.354000	23.820560	0.000532	20.828864
430.119889	-2.989500	3.800300	-11.360000	23.813798	0.000533	20.812127
431.111483	-3.008600	3.798400	-11.426000	23.819181	0.000533	20.832222
432.108027	-2.996000	3.798000	-11.378000	23.816740	0.000533	20.824085
433.124495	-2.998000	3.797700	-11.385000	23.812317	0.000534	20.826762
434.109672	-2.999000	3.799200	-11.393000	23.794234	0.000534	20.822382
435.117836	-3.001900	3.798400	-11.400000	23.826212	0.000534	20.799918
436.112871	-3.003600	3.796500	-11.403000	23.806517	0.000537	20.831379
437.111149	-3.022700	3.795000	-11.470000	23.836527	0.000535	20.839658
438.109005	-3.016800	3.795300	-11.449000	23.795513	0.000534	20.830777
439.107670	-3.016600	3.796000	-11.450000	23.838317	0.000534	20.814426
440.114978	-3.023000	3.796000	-11.474000	23.855751	0.000535	20.824320
441.114637	-3.012500	3.797200	-11.438000	23.840913	0.000532	20.829357
442.112591	-2.978200	3.796400	-11.305000	23.862448	0.000536	20.818707
443.116018	-3.016500	3.796800	-11.453000	23.836632	0.000534	20.803253
444.112624	-3.004200	3.795800	-11.402000	23.840775	0.000535	20.823054
445.114759	-2.992400	3.795900	-11.358000	23.851611	0.000536	20.831549
446.121675	-3.006900	3.794300	-11.408000	23.866296	0.000534	20.811660
447.120617	-3.000700	3.794300	-11.384000	23.849683	0.000534	20.842891
448.119446	-2.989800	3.794400	-11.344000	23.857274	0.000535	20.825848
449.119703	-3.005200	3.794100	-11.401000	23.873148	0.000535	20.827540
450.117862	-2.993300	3.794900	-11.358000	23.867640	0.000536	20.829604
451.120997	-3.017600	3.792900	-11.444000	23.886031	0.000536	20.811061
452.115710	-3.024900	3.793500	-11.473000	23.903043	0.000537	20.802041
453.121561	-2.988600	3.793500	-11.337000	23.897790	0.000535	20.822852
454.117313	-3.003600	3.792700	-11.391000	23.913714	0.000536	20.835501
455.117534	-2.984100	3.792300	-11.316000	23.910520	0.000538	20.823763
456.117247	-3.010500	3.792800	-11.417000	23.932206	0.000537	20.824647
457.118382	-3.003100	3.791900	-11.386000	23.937178	0.000538	20.828684
458.121283	-2.993000	3.791800	-11.348000	23.906367	0.000537	20.840461
459.125607	-3.002700	3.790600	-11.381000	23.912644	0.000537	20.810246
460.119472	-3.001200	3.791200	-11.377000	23.929961	0.000538	20.838990
461.119622	-2.998700	3.790300	-11.365000	23.964809	0.000537	20.817512
462.119256	-3.013800	3.790000	-11.422000	23.906882	0.000538	20.816322
463.120700	-2.976200	3.791400	-11.282000	23.913731	0.000537	20.824612
464.120333	-3.007100	3.790100	-11.397000	23.928672	0.000534	20.855715
465.119794	-3.002600	3.790500	-11.380000	23.953951	0.000538	20.835072
466.120399	-2.992100	3.788700	-11.335000	23.954078	0.000535	20.846579
467.122557	-3.001300	3.788700	-11.370000	23.982026	0.000536	20.824819
468.127197	-3.009700	3.788000	-11.400000	23.967586	0.000539	20.843055
469.117290	-2.987600	3.788500	-11.318000	23.985786	0.000538	20.818633
470.124654	-3.012100	3.789400	-11.413000	23.988982	0.000537	20.836537
471.117274	-2.983800	3.788000	-11.302000	24.018449	0.000538	20.835742
472.119399	-3.024600	3.786200	-11.451000	23.992713	0.000539	20.841701
473.130342	-3.042500	3.786400	-11.519000	23.949137	0.000540	20.851581
474.122355	-3.005900	3.786500	-11.381000	23.906887	0.000537	20.848095
475.118616	-3.003100	3.788300	-11.376000	23.948948	0.000537	20.855658
476.121317	-2.981400	3.785900	-11.286000	23.949868	0.000540	20.841883
477.121552	-2.994300	3.787000	-11.339000	23.980474	0.000540	20.871151
478.126330	-3.002800	3.785900	-11.367000	23.961114	0.000539	20.832298
479.123480	-2.983000	3.785600	-11.292000	23.936257	0.000543	20.817330
480.123805	-3.005100	3.785100	-11.374000	23.967926	0.000540	20.840077
481.118567	-3.011600	3.785800	-11.400000	23.953908	0.000540	20.845460
482.117745	-3.000300	3.784000	-11.353000	23.957524	0.000540	20.841973
483.128606	-2.997200	3.784400	-11.342000	23.945819	0.000539	20.858684
484.132075	-2.987100	3.784600	-11.304000	23.948169	0.000540	20.846817
485.126270	-3.009100	3.785500	-11.389000	23.983888	0.000539	20.847075
486.129106	-2.986200	3.784000	-11.299000	23.983441	0.000539	20.835722
487.126558	-3.018600	3.783100	-11.419000	24.021535	0.000541	20.852586
488.137751	-2.997100	3.783500	-11.339000	24.028154	0.000539	20.837888
489.124703	-3.007900	3.783400	-11.379000	24.028474	0.000542	20.844847
490.122751	-3.013000	3.783200	-11.398000	24.013639	0.000539	20.853676
491.129731	-2.983900	3.782700	-11.287000	23.993820	0.000543	20.853716
492.138062	-2.984300	3.783800	-11.291000	24.014751	0.000542	20.846258
493.127106	-3.011400	3.781100	-11.386000	23.997283	0.000541	20.846283
494.128531	-3.001900	3.781300	-11.350000	24.015403	0.000539	20.850230
495.130408	-2.999000	3.782000	-11.341000	24.021894	0.000541	20.836352
496.142095	-3.003500	3.781400	-11.356000	24.046916	0.000540	20.846272
497.132822	-2.983100	3.782300	-11.282000	24.082389	0.000541	20.851027
498.130770	-3.017100	3.780300	-11.404000	24.070453	0.000540	20.862290
499.123757	-3.006100	3.780600	-11.363000	24.080996	0.000544	20.852949
500.130878	-3.002100	3.780400	-11.348000	24.070096	0.000540	20.868096
501.141517	-2.991100	3.779800	-11.305000	24.114690	0.000541	20.836483
502.130537	-2.999500	3.780900	-11.339000	24.082199	0.000541	20.867432
503.127087	-2.990700	3.779500	-11.302000	24.068169	0.000544	20.871378
504.131967	-3.003300	3.779500	-11.350000	24.079988	0.000542	20.857628
505.128654	-3.005100	3.778900	-11.355000	24.083363	0.000543	20.845840
506.127983	-3.022400	3.778700	-11.420000	24.098811	0.000543	20.839997
507.128365	-3.004900	3.778500	-11.354000	24.119344	0.000540	20.868176
508.126040	-2.984200	3.779700	-11.278000	24.139214	0.000543	20.872457
509.129689	-3.012300	3.777200	-11.377000	24.099284	0.000544	20.851377
510.133022	-2.994700	3.777900	-11.313000	24.092348	0.000543	20.871446
511.133998	-3.028500	3.777000	-11.438000	24.105764	0.000541	20.862143
512.135336	-2.981900	3.777700	-11.264000	24.131907	0.000544	20.848535
513.134043	-3.014600	3.776100	-11.383000	24.119386	0.000543	20.845934
514.137262	-3.013600	3.775800	-11.377000	24.149566	0.000541	20.866719
515.140721	-2.998800	3.776500	-11.324000	24.142384	0.000543	20.861413
516.136824	-2.989000	3.776800	-11.288000	24.161144	0.000543	20.868848
517.136065	-3.017900	3.774700	-11.390000	24.125572	0.000545	20.854034
518.140244	-2.996700	3.774900	-11.311000	24.144137	0.000543	20.882135
519.139548	-2.992600	3.775700	-11.298000	24.155151	0.000542	20.880381
520.142179	-2.986000	3.775500	-11.273000	24.183745	0.000545	20.866387
521.140725	-2.964600	3.775600	-11.193000	24.168145	0.000543	20.868758
522.144861	-3.002700	3.774500	-11.333000	24.191428	0.000543	20.856076
523.143590	-2.974200	3.775600	-11.229000	24.198235	0.000542	20.885187
524.138768	-3.024200	3.774000	-11.413000	24.199795	0.000544	20.872054
525.141675	-3.001800	3.773900	-11.327000	24.149569	0.000544	20.876205
526.159586	-2.991100	3.773700	-11.286000	24.142914	0.000545	20.872849
527.137947	-2.999500	3.773800	-11.319000	24.140281	0.000543	20.873053
528.150084	-3.005100	3.773300	-11.339000	24.121232	0.000543	20.887138
529.135122	-2.967100	3.772600	-11.192000	24.128094	0.000543	20.882167
530.144510	-3.015600	3.771600	-11.373000	24.147491	0.000545	20.864164
531.152606	-3.011000	3.772500	-11.357000	24.169034	0.000542	20.884821
532.143509	-3.013400	3.770800	-11.362000	24.214928	0.000543	20.871112
533.138497	-3.006900	3.771600	-11.340000	24.189630	0.000543	20.874186
534.145165	-3.001300	3.771600	-11.319000	24.226455	0.000542	20.883146
535.160656	-3.020400	3.770800	-11.388000	24.208364	0.000543	20.885389
536.137770	-2.994500	3.771200	-11.291000	24.211571	0.000541	20.886709
537.145970	-3.001800	3.769100	-11.313000	24.162563	0.000542	20.880228
538.139874	-2.986000	3.770800	-11.260000	24.182930	0.000543	20.891173
539.143870	-2.994700	3.769700	-11.288000	24.190610	0.000544	20.885600
540.146708	-3.005000	3.771200	-11.332000	24.187904	0.000544	20.877196
541.150818	-3.003900	3.771000	-11.327000	24.208206	0.000543	20.890446
542.145303	-2.982300	3.770000	-11.243000	24.256295	0.000541	20.893163
543.154357	-3.009600	3.769600	-11.344000	24.295747	0.000543	20.901916
544.152467	-2.986800	3.768300	-11.254000	24.303145	0.000544	20.882787
545.154518	-2.990100	3.767400	-11.263000	24.349878	0.000543	20.882724
546.149574	-2.995400	3.769100	-11.289000	24.283409	0.000542	20.898549
547.153937	-3.008800	3.767200	-11.333000	24.283706	0.000544	20.889365
548.149757	-3.000400	3.766200	-11.299000	24.284768	0.000543	20.873361
549.145906	-2.989100	3.766700	-11.258000	24.266591	0.000544	20.896378
550.154591	-3.024800	3.766800	-11.393000	24.259718	0.000542	20.886166
551.142770	-2.990100	3.767100	-11.263000	24.267168	0.000545	20.887001
552.149669	-3.011300	3.766500	-11.341000	24.278258	0.000543	20.890538
553.153439	-2.992400	3.765500	-11.267000	24.272167	0.000543	20.889170
554.158028	-3.003300	3.765900	-11.309000	24.277774	0.000544	20.911388
555.143235	-2.980900	3.766500	-11.227000	24.328827	0.000542	20.898116
556.147328	-3.005800	3.764700	-11.315000	24.349242	0.000545	20.891095
557.150579	-3.015300	3.765300	-11.352000	24.375176	0.000545	20.881551
558.156259	-2.992700	3.765300	-11.268000	24.391286	0.000543	20.899607
559.159494	-2.995600	3.764300	-11.275000	24.383840	0.000544	20.911102
560.149899	-3.010200	3.763400	-11.328000	24.357080	0.000543	20.891845
561.166355	-3.003300	3.765300	-11.308000	24.335120	0.000542	20.888308
562.150597	-2.981800	3.764200	-11.222000	24.321670	0.000542	20.899945
563.161511	-2.989700	3.763600	-11.252000	24.363599	0.000542	20.912607
564.164720	-2.998300	3.764300	-11.286000	24.370089	0.000542	20.904420
565.151019	-3.012700	3.763200	-11.336000	24.354647	0.000544	20.905050
566.161254	-3.004700	3.763400	-11.307000	24.327796	0.000542	20.905616
567.153223	-3.001200	3.762100	-11.290000	24.343918	0.000544	20.903296
568.159775	-3.012700	3.762900	-11.336000	24.397967	0.000544	20.909153
569.152308	-3.019400	3.761800	-11.358000	24.384314	0.000545	20.913000
570.154005	-3.000000	3.760800	-11.282000	24.382028	0.000544	20.900750
571.167179	-3.003600	3.762000	-11.298000	24.384700	0.000541	20.904379
572.155379	-2.990900	3.761500	-11.250000	24.381046	0.000542	20.899291
573.154794	-3.000600	3.761200	-11.285000	24.327534	0.000544	20.905352
574.157137	-3.010200	3.760500	-11.319000	24.314135	0.000542	20.910403
575.153145	-2.979600	3.760300	-11.202000	24.339212	0.000542	20.902369
576.150501	-3.006000	3.759500	-11.300000	24.363805	0.000542	20.919451
577.152056	-3.010800	3.758700	-11.316000	24.364226	0.000542	20.906599
578.160390	-3.023800	3.759800	-11.367000	24.357074	0.000544	20.926924
579.154805	-2.984000	3.759000	-11.216000	24.380234	0.000543	20.911278
580.155341	-3.012200	3.759400	-11.323000	24.389625	0.000543	20.893200
581.157843	-3.012500	3.757400	-11.318000	24.397406	0.000542	20.905271
582.161621	-3.009700	3.758200	-11.311000	24.406553	0.000543	20.917292
583.156927	-2.988700	3.757800	-11.230000	24.365524	0.000544	20.914538
584.154663	-3.010500	3.758400	-11.313000	24.362815	0.000540	20.896176
585.158600	-2.997400	3.757400	-11.262000	24.384186	0.000543	20.919983
586.154230	-2.987600	3.757300	-11.224000	24.383920	0.000543	20.909760
587.167515	-2.998800	3.757800	-11.269000	24.395238	0.000542	20.919691
588.151549	-2.999300	3.756900	-11.267000	24.418627	0.000540	20.936989
589.160451	-2.982100	3.755700	-11.199000	24.465649	0.000542	20.919206
590.157712	-2.990100	3.758000	-11.236000	24.428581	0.000541	20.917105
591.157875	-3.017000	3.755200	-11.328000	24.430856	0.000542	20.917018
592.161887	-2.981300	3.756900	-11.200000	24.417881	0.000543	20.899260
593.158761	-3.014300	3.756400	-11.322000	24.419451	0.000541	20.913163
594.154508	-2.997900	3.756600	-11.261000	24.439200	0.000539	20.908319
595.164817	-3.006200	3.754900	-11.286000	24.435343	0.000541	20.951386
596.159205	-3.001700	3.755100	-11.271000	24.452960	0.000540	20.926390
597.157181	-2.987200	3.754900	-11.215000	24.429420	0.000539	20.916525
598.155924	-3.016100	3.753700	-11.321000	24.436255	0.000540	20.931915
599.159576	-2.986600	3.754500	-11.212000	24.443602	0.000539	20.944500
600.161059	-3.015400	3.754400	-11.320000	24.469738	0.000541	20.926627
601.159079	-3.015300	3.753400	-11.317000	24.450655	0.000540	20.923129
602.156899	-3.029700	3.752900	-11.369000	24.485159	0.000539	20.933089
603.159042	-2.973400	3.754500	-11.163000	24.477521	0.000541	20.923530
604.165054	-3.011300	3.753100	-11.301000	24.446012	0.000539	20.918946
605.162922	-3.031700	3.751700	-11.373000	24.456039	0.000541	20.914307
606.163442	-3.016500	3.752100	-11.317000	24.451800	0.000540	20.932811
607.159183	-2.995200	3.752800	-11.239000	24.447012	0.000539	20.925164
608.164988	-2.995600	3.752700	-11.241000	24.466851	0.000541	20.935109
609.168571	-2.999700	3.750600	-11.250000	24.455813	0.000542	20.933993
610.162464	-2.997100	3.750900	-11.241000	24.487380	0.000540	20.935317
611.166568	-2.969700	3.752500	-11.143000	24.497970	0.000539	20.948785
612.190211	-2.997000	3.751500	-11.243000	24.503066	0.000539	20.946312
613.163043	-3.007100	3.749800	-11.274000	24.475019	0.000539	20.947570
614.168214	-2.981400	3.751300	-11.183000	24.491408	0.000540	20.941728
615.163251	-2.970900	3.751600	-11.144000	24.495701	0.000539	20.956465
616.164916	-2.991600	3.749800	-11.217000	24.525896	0.000539	20.966370
617.168542	-2.998600	3.748600	-11.239000	24.511184	0.000539	20.941181
618.157277	-3.017100	3.748600	-11.309000	24.467181	0.000538	20.954878
619.161770	-2.994000	3.748800	-11.223000	24.512911	0.000539	20.929164
620.160114	-2.996400	3.750100	-11.236000	24.542058	0.000541	20.926166
621.159144	-3.008600	3.748500	-11.277000	24.549903	0.000540	20.920288
622.160317	-2.981600	3.748800	-11.177000	24.571412	0.000539	20.951822
623.157619	-2.988200	3.749300	-11.203000	24.568079	0.000542	20.925247
624.165411	-3.003600	3.747200	-11.254000	24.580482	0.000538	20.931053
625.166298	-3.010800	3.748300	-11.285000	24.550597	0.000539	20.941370
626.168085	-2.986200	3.749100	-11.194000	24.560892	0.000540	20.951698
627.170224	-2.991000	3.746400	-11.205000	24.560358	0.000540	20.929354
628.173086	-3.010800	3.746400	-11.279000	24.586821	0.000537	20.944999
629.166375	-3.004500	3.745600	-11.252000	24.547217	0.000538	20.948883
630.172055	-2.983800	3.747600	-11.181000	24.564026	0.000539	20.966694
631.167279	-3.019900	3.745700	-11.310000	24.582917	0.000536	20.942505
632.165929	-3.016200	3.744700	-11.294000	24.581271	0.000538	20.961713
633.164850	-2.996100	3.746300	-11.224000	24.553008	0.000540	20.949003
634.168118	-2.995500	3.745100	-11.218000	24.506415	0.000537	20.943982
635.167494	-2.990300	3.744700	-11.196000	24.520719	0.000539	20.954065
636.166925	-2.979900	3.745800	-11.161000	24.555309	0.000538	20.952260
637.160182	-3.003600	3.743700	-11.244000	24.531069	0.000537	20.964448
638.167279	-2.989700	3.745000	-11.195000	24.544341	0.000537	20.965436
639.167545	-2.983300	3.744600	-11.170000	24.538950	0.000537	20.967613
640.177562	-3.006200	3.743200	-11.253000	24.534890	0.000534	20.973022
641.164090	-2.988000	3.743600	-11.185000	24.560282	0.000535	20.975738
642.172355	-3.009700	3.743900	-11.267000	24.561434	0.000536	20.956509
643.172253	-3.004400	3.743100	-11.244000	24.542262	0.000538	20.956239
644.173494	-2.982300	3.744100	-11.165000	24.520705	0.000538	20.968274
645.167227	-3.026300	3.742500	-11.324000	24.558115	0.000536	20.968350
646.170657	-3.025500	3.742500	-11.321000	24.566662	0.000537	20.994465
647.168612	-3.006000	3.742600	-11.250000	24.572616	0.000536	20.958719
648.181069	-2.986800	3.741800	-11.174000	24.589105	0.000536	20.961987
649.172806	-3.015400	3.741800	-11.282000	24.581173	0.000535	20.978682
650.174035	-3.015400	3.741600	-11.282000	24.598981	0.000536	20.959569
651.171738	-3.009400	3.740700	-11.256000	24.594779	0.000534	20.972894
652.174438	-3.009600	3.741700	-11.260000	24.571435	0.000536	20.954690
653.174426	-3.010200	3.740500	-11.259000	24.529823	0.000535	20.979317
654.176229	-2.986200	3.740600	-11.169000	24.532226	0.000537	20.954704
655.174055	-2.978000	3.740600	-11.138000	24.551144	0.000533	20.955193
656.173528	-3.009000	3.739900	-11.252000	24.548745	0.000535	20.976491
657.173791	-2.991700	3.739600	-11.187000	24.569923	0.000534	20.944165
658.163797	-3.009200	3.738300	-11.248000	24.589989	0.000538	20.974726
659.167199	-3.000400	3.739200	-11.218000	24.567153	0.000536	20.958454
660.182843	-2.969100	3.739300	-11.101000	24.577513	0.000536	20.962210
661.168681	-2.993500	3.738300	-11.189000	24.578957	0.000535	20.952754
662.174435	-2.994000	3.739300	-11.194000	24.597121	0.000535	20.943954
663.170518	-2.987300	3.737600	-11.165000	24.593468	0.000532	20.965890
664.176610	-2.985000	3.737900	-11.157000	24.645924	0.000535	20.963997
665.167284	-3.021100	3.738100	-11.292000	24.669220	0.000532	20.946599
666.175372	-3.013900	3.736600	-11.261000	24.639018	0.000532	20.953276
667.166951	-2.979700	3.737900	-11.137000	24.694689	0.000536	20.926639
668.163909	-3.014900	3.736000	-11.264000	24.697513	0.000534	20.932318
669.173117	-3.002700	3.736400	-11.219000	24.706647	0.000533	20.942431
670.171590	-3.011600	3.737100	-11.254000	24.711271	0.000532	20.949440
671.179795	-3.000300	3.735600	-11.206000	24.698030	0.000532	20.933784
672.177445	-2.990800	3.735500	-11.170000	24.721528	0.000531	20.930812
673.175090	-2.985500	3.734900	-11.149000	24.744975	0.000533	20.927315
674.183470	-2.970700	3.736500	-11.099000	24.685378	0.000531	20.934365
675.176419	-3.000700	3.733900	-11.203000	24.665419	0.000536	20.933304
676.174710	-2.989700	3.734500	-11.164000	24.659291	0.000535	20.933318
677.175947	-2.989100	3.734700	-11.163000	24.661643	0.000532	20.932833
678.174979	-2.979000	3.733900	-11.122000	24.652258	0.000532	20.930529
679.170543	-2.995500	3.735800	-11.189000	24.645439	0.000533	20.914205
680.190866	-3.008600	3.733300	-11.231000	24.635378	0.000534	20.919756
681.187055	-3.003000	3.734000	-11.212000	24.636003	0.000533	20.915168
682.179592	-2.970400	3.735100	-11.094000	24.624485	0.000531	20.916886
683.175851	-2.999000	3.732500	-11.193000	24.626491	0.000530	20.910365
684.185095	-2.987500	3.731700	-11.148000	24.657257	0.000531	20.924165
685.183086	-3.016300	3.732500	-11.257000	24.647323	0.000530	20.921784
686.181079	-3.012500	3.732300	-11.242000	24.670019	0.000530	20.916110
687.182187	-2.990500	3.733000	-11.163000	24.667733	0.000533	20.924246
688.179426	-3.001100	3.731300	-11.197000	24.678895	0.000531	20.907474
689.174850	-3.011900	3.731400	-11.237000	24.689458	0.000531	20.908590
690.176588	-2.987700	3.731100	-11.146000	24.714795	0.000532	20.908885
691.182637	-2.993000	3.731300	-11.167000	24.729265	0.000532	20.904914
692.182597	-2.988600	3.731600	-11.151000	24.715333	0.000530	20.915589
693.184273	-2.996800	3.730600	-11.179000	24.719281	0.000532	20.917653
694.179601	-3.002000	3.730700	-11.199000	24.730483	0.000530	20.877689
695.178454	-3.017500	3.729500	-11.253000	24.768856	0.000529	20.917143
696.185579	-2.986400	3.729700	-11.137000	24.792647	0.000530	20.929163
697.174131	-3.009800	3.730100	-11.226000	24.766087	0.000530	20.909623
698.179398	-2.991400	3.728700	-11.152000	24.732555	0.000529	20.897785
699.186979	-2.985100	3.728900	-11.130000	24.724842	0.000528	20.909959
700.175173	-2.999600	3.728800	-11.184000	24.684319	0.000527	20.905805
701.187422	-3.013900	3.729100	-11.238000	24.686519	0.000530	20.906589
702.189437	-2.998400	3.727900	-11.176000	24.702330	0.000528	20.905386
703.201267	-2.994000	3.728700	-11.163000	24.709621	0.000528	20.907486
704.186114	-2.988700	3.728000	-11.141000	24.663293	0.000530	20.892293
705.183846	-3.011100	3.727100	-11.222000	24.664939	0.000528	20.909591
706.187286	-2.998300	3.727100	-11.174000	24.688311	0.000529	20.906491
707.189075	-2.999200	3.727900	-11.180000	24.666590	0.000529	20.881378
708.185555	-2.993500	3.726400	-11.154000	24.661585	0.000527	20.882046
709.192267	-3.024000	3.726200	-11.267000	24.723281	0.000529	20.890376
710.180474	-2.972900	3.727200	-11.080000	24.730764	0.000527	20.889351
711.187242	-3.005900	3.726100	-11.200000	24.777977	0.000526	20.889315
712.190538	-2.994300	3.726800	-11.158000	24.757417	0.000525	20.886700
713.187189	-2.990300	3.725900	-11.141000	24.774095	0.000526	20.916237
714.199562	-3.009200	3.725600	-11.210000	24.791079	0.000525	20.892980
715.194582	-3.003100	3.725200	-11.186000	24.774009	0.000525	20.883436
716.192565	-2.985300	3.725600	-11.121000	24.733974	0.000526	20.891149
717.213793	-2.986900	3.724400	-11.123000	24.779322	0.000525	20.901569
718.191838	-2.987100	3.724700	-11.125000	24.732866	0.000526	20.895253
719.191646	-2.966600	3.726300	-11.053000	24.711746	0.000525	20.907722
720.197627	-2.955900	3.725000	-11.010000	24.761627	0.000525	20.892820
721.195082	-2.978300	3.724100	-11.091000	24.777422	0.000524	20.896817
722.191858	-2.998800	3.723600	-11.166000	24.794852	0.000523	20.890129
723.197083	-3.004800	3.724000	-11.189000	24.842804	0.000525	20.871872
724.188394	-3.013400	3.723300	-11.219000	24.824429	0.000523	20.891362
725.190020	-2.984200	3.723800	-11.112000	24.797026	0.000524	20.891836
726.192492	-2.978700	3.723700	-11.091000	24.791229	0.000525	20.916836
727.196342	-3.008200	3.723200	-11.200000	24.746344	0.000523	20.862313
728.196837	-2.988500	3.722300	-11.123000	24.758222	0.000524	20.881818
729.192260	-3.009000	3.722700	-11.200000	24.759349	0.000524	20.876786
730.190446	-2.999400	3.721800	-11.162000	24.767163	0.000522	20.885575
731.208816	-2.996000	3.720700	-11.147000	24.763449	0.000522	20.863831
732.190966	-2.990000	3.721800	-11.127000	24.796649	0.000523	20.894776
733.192603	-2.992100	3.721100	-11.134000	24.842543	0.000523	20.873981
734.202726	-2.977000	3.721800	-11.078000	24.838865	0.000521	20.894944
735.192990	-2.990200	3.721600	-11.128000	24.817747	0.000520	20.867588
736.201506	-2.997600	3.719700	-11.149000	24.802897	0.000521	20.862643
737.198713	-3.010100	3.719700	-11.196000	24.837081	0.000520	20.879879
738.202565	-2.996600	3.720300	-11.148000	24.849710	0.000522	20.881174
739.189571	-3.013000	3.720500	-11.209000	24.866032	0.000522	20.881907
740.193933	-2.997700	3.720100	-11.151000	24.865570	0.000521	20.871487
741.196798	-3.001500	3.719000	-11.162000	24.863106	0.000520	20.882764
742.202556	-3.006500	3.718800	-11.179000	24.896100	0.000521	20.872257
743.202415	-3.003000	3.717900	-11.165000	24.878453	0.000520	20.888683
744.206626	-3.013300	3.718200	-11.203000	24.876197	0.000518	20.859868
745.199208	-3.005200	3.718700	-11.174000	24.846977	0.000521	20.860415
746.191047	-3.005300	3.717300	-11.171000	24.799238	0.000519	20.853756
747.205606	-3.010000	3.718100	-11.191000	24.799685	0.000523	20.876014
748.191199	-3.004500	3.716100	-11.165000	24.820550	0.000520	20.873720
749.196559	-3.003800	3.718800	-11.169000	24.822490	0.000522	20.872823
750.205336	-3.015500	3.716400	-11.205000	24.785791	0.000520	20.883880
751.197949	-2.988000	3.717500	-11.107000	24.793594	0.000521	20.877487
752.198864	-3.009000	3.716000	-11.181000	24.789891	0.000520	20.870926
753.196560	-3.008800	3.717200	-11.184000	24.777591	0.000519	20.872334
754.228619	-2.988200	3.718100	-11.109000	24.786147	0.000519	20.866221
755.192626	-2.989100	3.715000	-11.104000	24.841200	0.000518	20.864099
756.198648	-2.989900	3.716500	-11.111000	24.827281	0.000519	20.891853
757.194973	-2.972700	3.715900	-11.044000	24.805151	0.000518	20.862060
758.196842	-2.988700	3.714700	-11.101000	24.784454	0.000515	20.857885
759.198059	-2.990800	3.715200	-11.111000	24.805882	0.000518	20.851889
760.208960	-2.978400	3.716700	-11.068000	24.778058	0.000516	20.870431
761.206667	-2.982400	3.715100	-11.079000	24.761943	0.000515	20.860897
762.202958	-3.003600	3.714500	-11.156000	24.752533	0.000517	20.875636
763.192238	-3.010400	3.713500	-11.178000	24.765468	0.000517	20.859694
764.194311	-2.998800	3.713000	-11.134000	24.817465	0.000517	20.853556
765.204710	-2.988500	3.714800	-11.101000	24.798709	0.000517	20.875982
766.196833	-3.006200	3.713200	-11.162000	24.786643	0.000517	20.863400
767.200946	-2.998000	3.712600	-11.129000	24.801849	0.000515	20.872021
768.198126	-2.996600	3.712200	-11.123000	24.815067	0.000515	20.863476
769.201355	-3.014000	3.712000	-11.186000	24.817851	0.000516	20.864848
770.202284	-3.021600	3.712500	-11.217000	24.823866	0.000515	20.877996
771.208447	-2.988400	3.712300	-11.093000	24.815056	0.000515	20.862043
772.201724	-2.965600	3.713800	-11.012000	24.857806	0.000516	20.879816
773.200450	-2.998200	3.711800	-11.128000	24.858893	0.000514	20.864786
774.202718	-3.001400	3.711500	-11.139000	24.827544	0.000515	20.881212
775.214582	-3.019100	3.712000	-11.206000	24.784834	0.000516	20.858265
776.201950	-3.000200	3.710000	-11.130000	24.771375	0.000515	20.873208
777.198035	-3.026100	3.710100	-11.226000	24.816438	0.000516	20.881446
778.202986	-3.021600	3.708900	-11.206000	24.844647	0.000514	20.869929
779.202025	-2.983500	3.711300	-11.072000	24.875636	0.000515	20.876848
780.202661	-3.004700	3.710000	-11.147000	24.885622	0.000515	20.860793
781.200952	-2.995500	3.709300	-11.109000	24.871064	0.000514	20.863251
782.200479	-3.006700	3.709900	-11.153000	24.840359	0.000514	20.869893
783.202604	-2.987700	3.709300	-11.081000	24.857164	0.000513	20.866845
784.208634	-3.006700	3.709500	-11.152000	24.859922	0.000512	20.853018
785.201639	-3.001300	3.708400	-11.128000	24.848421	0.000510	20.881302
786.200975	-3.011000	3.708000	-11.164000	24.871748	0.000512	20.864412
787.201963	-3.000100	3.709300	-11.127000	24.846495	0.000511	20.866094
788.214594	-3.020300	3.706400	-11.194000	24.850361	0.000509	20.873293
789.206015	-2.988700	3.707900	-11.081000	24.887150	0.000511	20.871809
790.206775	-3.018100	3.707900	-11.190000	24.880846	0.000511	20.875439
791.217762	-2.993800	3.707500	-11.098000	24.901851	0.000511	20.861434
792.202685	-2.998800	3.707600	-11.118000	24.901099	0.000509	20.858783
793.213517	-3.009400	3.706600	-11.153000	24.915373	0.000510	20.836601
794.218308	-2.987000	3.707500	-11.073000	24.905660	0.000508	20.859093
795.205494	-2.982100	3.706900	-11.054000	24.887159	0.000510	20.857120
796.201851	-3.009700	3.706600	-11.155000	24.902866	0.000508	20.854867
797.216730	-3.001300	3.705100	-11.120000	24.907819	0.000510	20.866949
798.211494	-3.009100	3.706000	-11.151000	24.935274	0.000509	20.839031
799.214942	-2.979100	3.705900	-11.040000	24.899527	0.000510	20.843456
800.207895	-3.010700	3.703400	-11.149000	24.916611	0.000508	20.853489
801.207804	-3.000800	3.705300	-11.118000	24.896936	0.000508	20.845597
802.209506	-2.999300	3.704400	-11.109000	24.907472	0.000508	20.840998
803.212285	-3.000600	3.704300	-11.114000	24.914086	0.000506	20.840998
804.217563	-3.026700	3.704200	-11.210000	24.920166	0.000505	20.849945
805.214935	-3.017600	3.703600	-11.175000	24.928837	0.000508	20.855329
806.211711	-2.991100	3.704500	-11.080000	24.944426	0.000508	20.834941
807.228960	-2.998400	3.704100	-11.106000	24.915558	0.000505	20.853856
808.206832	-3.002400	3.704300	-11.121000	24.938797	0.000505	20.844464
809.213244	-2.990100	3.703600	-11.074000	24.969940	0.000505	20.845851
810.227627	-2.999000	3.703400	-11.105000	24.936948	0.000506	20.824591
811.214203	-3.002100	3.702700	-11.116000	24.895594	0.000504	20.832396
812.223382	-2.983700	3.702900	-11.047000	24.871566	0.000504	20.853324
813.226276	-3.011300	3.701700	-11.146000	24.865185	0.000505	20.836964
814.214455	-3.011500	3.702200	-11.148000	24.873831	0.000504	20.837107
815.232189	-2.988600	3.702600	-11.065000	24.877941	0.000504	20.839335
816.222575	-3.018400	3.700900	-11.170000	24.899113	0.000503	20.840196
817.211722	-2.983000	3.701500	-11.040000	24.872160	0.000503	20.827369
818.229961	-2.987100	3.701900	-11.056000	24.910492	0.000504	20.840236
819.214019	-2.994000	3.702500	-11.084000	24.894292	0.000504	20.829668
820.219922	-2.989700	3.700900	-11.063000	24.907749	0.000501	20.822785
821.219058	-2.981400	3.700000	-11.029000	24.906433	0.000503	20.839008
822.218379	-2.998800	3.698700	-11.090000	24.925141	0.000500	20.828862
823.218741	-3.006800	3.700000	-11.124000	24.903923	0.000501	20.824635
824.217105	-3.013900	3.699600	-11.149000	24.931211	0.000504	20.830212
825.227813	-2.993800	3.699100	-11.073000	24.941015	0.000502	20.825354
826.227848	-3.000400	3.699200	-11.098000	24.950758	0.000501	20.812373
827.214300	-3.006900	3.698600	-11.120000	24.919299	0.000502	20.827266
828.216448	-3.003100	3.699500	-11.109000	24.901464	0.000500	20.854882
829.214550	-3.013200	3.698400	-11.143000	24.930296	0.000503	20.838303
830.231036	-3.007600	3.697600	-11.120000	24.955512	0.000501	20.844645
831.217021	-3.007300	3.698000	-11.120000	25.004731	0.000502	20.830039
832.221340	-2.994100	3.698200	-11.071000	24.993714	0.000501	20.826567
833.219415	-3.005300	3.697800	-11.112000	25.029665	0.000504	20.834678
834.221574	-2.988100	3.696900	-11.045000	25.048651	0.000501	20.812011
835.225247	-3.015100	3.697900	-11.149000	25.056361	0.000502	20.827810
836.222862	-2.974800	3.697800	-10.999000	25.013594	0.000500	20.818073
837.223054	-3.007000	3.697200	-11.117000	25.007210	0.000500	20.820199
838.231734	-2.992600	3.697500	-11.064000	25.003867	0.000500	20.820637
839.219784	-2.991200	3.696200	-11.055000	24.982686	0.000500	20.811231
840.229110	-3.009700	3.696600	-11.125000	24.979176	0.000501	20.823354
841.215288	-2.973600	3.696900	-10.992000	25.018526	0.000500	20.824445
842.223419	-2.979300	3.696200	-11.011000	25.026008	0.000500	20.820101
843.221956	-3.010400	3.694100	-11.120000	25.008657	0.000499	20.794151
844.223272	-2.987400	3.695700	-11.039000	24.975631	0.000499	20.817425
845.229033	-3.023400	3.695500	-11.173000	24.973624	0.000496	20.803083
846.230042	-2.980100	3.696000	-11.013000	24.982589	0.000499	20.813030
847.238581	-3.006200	3.695700	-11.109000	25.000733	0.000500	20.828396
848.226687	-3.030100	3.692900	-11.189000	25.024631	0.000497	20.814452
849.226969	-2.960400	3.696300	-10.941000	25.017545	0.000497	20.812082
850.222398	-2.992000	3.692900	-11.049000	25.004598	0.000498	20.828483
851.225417	-2.991500	3.692700	-11.045000	24.984200	0.000498	20.822706
852.235054	-2.992800	3.692400	-11.050000	25.012248	0.000497	20.820040
853.230061	-2.981200	3.694500	-11.013000	24.997680	0.000497	20.832444
854.226283	-3.003900	3.693600	-11.095000	24.995613	0.000494	20.824205
855.227153	-2.976400	3.693300	-10.992000	24.974341	0.000497	20.808069
856.238161	-3.029800	3.691500	-11.183000	24.922544	0.000494	20.792590
857.217000	-2.997700	3.691800	-11.066000	24.914284	0.000495	20.828396
858.239327	-3.011300	3.692400	-11.118000	24.909560	0.000495	20.837879
859.230545	-2.986500	3.692800	-11.028000	24.935517	0.000494	20.826000
860.231861	-2.992100	3.691000	-11.043000	24.919532	0.000493	20.819438
861.231185	-2.991600	3.690100	-11.038000	24.920182	0.000494	20.822936
862.226062	-2.989100	3.691600	-11.033000	24.941405	0.000492	20.811520
863.230676	-3.022600	3.690500	-11.154000	24.983498	0.000494	20.804933
864.229814	-3.000800	3.691200	-11.076000	24.985398	0.000491	20.800676
865.231844	-2.999800	3.690000	-11.069000	24.971409	0.000494	20.811765
866.230574	-2.997200	3.689900	-11.058000	24.949689	0.000492	20.843069
867.233649	-3.014000	3.690400	-11.122000	24.951234	0.000493	20.797678
868.232413	-3.004300	3.689000	-11.082000	24.942349	0.000491	20.812469
869.227194	-3.002100	3.689200	-11.073000	24.941953	0.000492	20.807330
870.225022	-2.997100	3.689900	-11.058000	24.960544	0.000491	20.829308
871.230896	-2.998500	3.688000	-11.058000	24.931270	0.000493	20.805616
872.231756	-2.985900	3.690500	-11.019000	24.936518	0.000491	20.809461
873.240282	-3.009100	3.688600	-11.099000	24.983605	0.000491	20.792712
874.235031	-2.987700	3.687300	-11.016000	24.996323	0.000489	20.817806
875.234020	-2.994800	3.686700	-11.041000	25.009179	0.000488	20.824546
876.235557	-3.010300	3.686900	-11.096000	24.987846	0.000490	20.814987
877.249149	-2.994000	3.688100	-11.042000	24.997842	0.000490	20.807477
878.234225	-2.994300	3.688900	-11.044000	25.001189	0.000487	20.806569
879.226967	-2.998100	3.688000	-11.056000	24.993464	0.000490	20.812565
880.237998	-3.005300	3.688200	-11.084000	25.027449	0.000487	20.812540
881.236900	-3.015900	3.686200	-11.116000	25.051529	0.000489	20.794037
882.236642	-3.022300	3.685900	-11.140000	25.027962	0.000490	20.789821
883.232091	-2.972900	3.686000	-10.957000	25.016930	0.000488	20.796291
884.237963	-2.965900	3.686300	-10.932000	25.054480	0.000486	20.810276
885.236590	-3.004800	3.685900	-11.075000	25.039096	0.000489	20.822333
886.255716	-3.022200	3.683600	-11.131000	25.081993	0.000488	20.819402
887.241575	-2.982200	3.685600	-10.991000	25.083639	0.000488	20.813467
888.239035	-2.998700	3.684500	-11.047000	25.071180	0.000486	20.817556
889.228764	-3.016200	3.684900	-11.113000	25.032101	0.000486	20.826218
890.231765	-2.996400	3.684000	-11.038000	24.984138	0.000485	20.805101
891.237518	-2.994300	3.684000	-11.029000	24.957841	0.000484	20.819483
892.240996	-2.997500	3.683900	-11.042000	24.975269	0.000484	20.814690
893.241700	-2.994600	3.682800	-11.028000	24.974324	0.000487	20.787664
894.233539	-2.974600	3.683700	-10.957000	25.027179	0.000485	20.820329
895.240846	-2.986800	3.682600	-10.998000	25.042143	0.000486	20.816383
896.240015	-2.989100	3.683400	-11.009000	25.041543	0.000486	20.788755
897.229324	-2.991000	3.682900	-11.014000	25.015502	0.000485	20.810979
898.240232	-3.004300	3.681500	-11.060000	25.027311	0.000486	20.823781
899.238496	-3.020400	3.681200	-11.118000	25.061920	0.000484	20.801149
900.240023	-2.996700	3.682400	-11.034000	25.102699	0.000483	20.835919
901.251908	-2.969800	3.682900	-10.937000	25.082424	0.000485	20.819834
902.243384	-3.014400	3.681700	-11.097000	25.057862	0.000482	20.807981
903.238911	-3.005700	3.679800	-11.059000	24.987662	0.000484	20.811009
904.247480	-3.005800	3.681000	-11.064000	25.030851	0.000484	20.791773
905.236599	-3.009700	3.679700	-11.074000	25.024878	0.000486	20.822286
906.233225	-3.019700	3.678900	-11.108000	25.026397	0.000482	20.800104
907.243664	-3.018500	3.680300	-11.108000	25.048024	0.000484	20.800950
908.239661	-3.007900	3.680500	-11.070000	25.050563	0.000483	20.835267
909.244309	-2.984000	3.679300	-10.978000	25.043214	0.000483	20.822200
910.243878	-2.987900	3.678600	-10.991000	25.051538	0.000483	20.802581
911.243550	-3.007700	3.678300	-11.063000	25.078346	0.000482	20.812421
912.242954	-2.984300	3.679700	-10.981000	25.129525	0.000482	20.799787
913.253318	-2.972400	3.678900	-10.933000	25.108616	0.000482	20.823841
914.241378	-3.020300	3.677400	-11.106000	25.097061	0.000482	20.811294
915.240136	-3.013200	3.676900	-11.078000	25.088381	0.000481	20.815383
916.254704	-3.001600	3.677000	-11.036000	25.083506	0.000481	20.825661
917.245966	-2.983900	3.678200	-10.974000	25.092902	0.000482	20.820395
918.248126	-2.995500	3.677400	-11.015000	25.044351	0.000481	20.820023
919.246461	-2.993800	3.678500	-11.012000	25.039130	0.000478	20.809566
920.244112	-3.009400	3.677700	-11.067000	25.018920	0.000479	20.824841
921.236845	-3.004600	3.675600	-11.043000	25.001838	0.000478	20.829980
922.243766	-2.995600	3.678300	-11.017000	25.007136	0.000479	20.817754
923.248358	-3.009800	3.675600	-11.062000	25.082906	0.000480	20.832172
924.243671	-2.996800	3.677100	-11.018000	25.091535	0.000478	20.810015
925.266740	-3.013900	3.676300	-11.078000	25.126158	0.000477	20.831968
926.247567	-2.975100	3.676500	-10.937000	25.137046	0.000477	20.822985
927.243555	-2.983600	3.675600	-10.966000	25.157102	0.000480	20.823204
928.250425	-2.987000	3.676200	-10.980000	25.194592	0.000478	20.836184
929.245481	-3.017200	3.673900	-11.084000	25.211685	0.000478	20.850026
930.238650	-3.016700	3.673100	-11.079000	25.188274	0.000477	20.820833
931.259570	-3.009200	3.674800	-11.057000	25.155380	0.000476	20.820527
932.244571	-3.003200	3.672900	-11.030000	25.122994	0.000476	20.837800
933.253945	-3.005900	3.674600	-11.044000	25.066084	0.000475	20.828088
934.252697	-3.000200	3.673600	-11.020000	25.061605	0.000474	20.838764
935.246765	-3.024500	3.672900	-11.108000	25.074617	0.000476	20.830489
936.247527	-2.979900	3.673000	-10.945000	25.103953	0.000475	20.839549
937.240835	-3.012000	3.672600	-11.061000	25.139032	0.000474	20.824030
938.248679	-2.986600	3.672800	-10.968000	25.143242	0.000474	20.843903
939.250748	-2.976200	3.671400	-10.926000	25.155766	0.000474	20.846518
940.243644	-2.991100	3.671800	-10.982000	25.195378	0.000474	20.843138
941.246230	-2.992800	3.671600	-10.988000	25.166106	0.000472	20.853105
942.244980	-3.016800	3.671700	-11.076000	25.157137	0.000472	20.841731
943.253796	-3.021300	3.670900	-11.090000	25.143298	0.000473	20.849648
944.246497	-2.993300	3.670000	-10.985000	25.143247	0.000472	20.848649
945.244952	-2.997900	3.671300	-11.006000	25.127087	0.000472	20.835745
946.248336	-3.004400	3.671100	-11.029000	25.144436	0.000470	20.860273
947.257755	-2.983500	3.670400	-10.950000	25.137402	0.000470	20.838514
948.250980	-3.006900	3.670800	-11.036000	25.115812	0.000470	20.832962
949.257722	-2.982100	3.669900	-10.942000	25.133227	0.000472	20.852814
950.252332	-3.010700	3.669600	-11.047000	25.145507	0.000469	20.842857
951.264774	-2.993000	3.668100	-10.978000	25.178340	0.000469	20.853533
952.255830	-2.997800	3.669100	-10.999000	25.170910	0.000471	20.836592
953.256940	-2.995900	3.669500	-10.993000	25.186664	0.000469	20.852406
954.265087	-2.994700	3.669200	-10.987000	25.168894	0.000471	20.848792
955.260491	-3.005000	3.668500	-11.023000	25.178010	0.000469	20.844193
956.270576	-2.970000	3.668800	-10.895000	25.212421	0.000470	20.853135
957.268887	-2.970100	3.668700	-10.896000	25.193763	0.000467	20.840094
958.263481	-2.995100	3.668100	-10.985000	25.170006	0.000468	20.856546
959.264610	-3.001300	3.667600	-11.006000	25.173251	0.000466	20.850795
960.256835	-3.000900	3.666500	-11.002000	25.155009	0.000466	20.846706
961.253744	-2.980700	3.667700	-10.931000	25.103054	0.000469	20.845284
962.260828	-2.993900	3.666300	-10.976000	25.107137	0.000468	20.844167
963.258646	-2.997400	3.665600	-10.986000	25.132734	0.000468	20.860854
964.253494	-2.988800	3.666300	-10.957000	25.126147	0.000467	20.845707
965.256300	-2.995100	3.666200	-10.980000	25.144669	0.000467	20.849128
966.254950	-3.009800	3.665200	-11.031000	25.109895	0.000468	20.867797
967.249397	-3.019100	3.665900	-11.067000	25.090362	0.000466	20.846293
968.255266	-2.996200	3.664900	-10.979000	25.064306	0.000466	20.858070
969.260152	-3.016300	3.664700	-11.053000	25.080082	0.000467	20.875802
970.257908	-3.001200	3.663500	-10.994000	25.059019	0.000465	20.860823
971.271306	-3.000000	3.664000	-10.992000	25.110124	0.000464	20.862811
972.257169	-2.991900	3.664200	-10.962000	25.118483	0.000465	20.859350
973.263322	-3.006200	3.665000	-11.017000	25.133455	0.000464	20.857785
974.270586	-3.002000	3.663400	-10.997000	25.176614	0.000465	20.872661
975.257239	-2.980500	3.662800	-10.916000	25.187923	0.000462	20.872636
976.255265	-2.986800	3.663600	-10.942000	25.230531	0.000462	20.855669
977.262987	-3.007500	3.662500	-11.014000	25.229815	0.000465	20.888613
978.263800	-3.019300	3.661700	-11.055000	25.212863	0.000462	20.860217
979.256954	-3.008700	3.662200	-11.017000	25.156929	0.000463	20.877081
980.272882	-3.007000	3.662500	-11.012000	25.133263	0.000463	20.868496
981.269586	-3.007000	3.660100	-11.005000	25.097056	0.000461	20.892839
982.273870	-3.019700	3.661200	-11.054000	25.091759	0.000461	20.869980
983.263264	-3.011000	3.660100	-11.019000	25.119129	0.000463	20.884178
984.267492	-3.003000	3.661600	-10.995000	25.119154	0.000461	20.868083
985.257331	-3.005700	3.660400	-11.001000	25.123110	0.000459	20.849297
986.258054	-3.012300	3.659300	-11.022000	25.136858	0.000459	20.881114
987.274214	-3.003200	3.659600	-10.989000	25.138250	0.000459	20.874451
988.271879	-3.016600	3.658300	-11.034000	25.184216	0.000460	20.865595
989.276574	-3.004000	3.660000	-10.994000	25.175100	0.000460	20.872090
990.268561	-3.012700	3.659000	-11.023000	25.157219	0.000459	20.883536
991.268020	-3.006000	3.657400	-10.993000	25.186791	0.000459	20.895205
992.268364	-2.996000	3.659000	-10.962000	25.164811	0.000459	20.873615
993.270638	-2.982800	3.656700	-10.906000	25.180372	0.000458	20.866952
994.261612	-3.000100	3.658900	-10.976000	25.174014	0.000458	20.887594
995.271089	-3.023900	3.657000	-11.058000	25.144741	0.000457	20.893768
996.269853	-2.982900	3.657900	-10.910000	25.144116	0.000457	20.882236
997.282705	-2.997000	3.656900	-10.959000	25.210457	0.000458	20.887670
998.275838	-3.000100	3.656900	-10.971000	25.234208	0.000457	20.897290
999.272515	-2.989500	3.656800	-10.931000	25.273010	0.000456	20.887885
1000.275850	-2.995000	3.656800	-10.951000	25.258599	0.000457	20.893803
1001.267083	-2.989800	3.656000	-10.930000	25.218161	0.000458	20.925747
1002.276063	-3.009500	3.657100	-11.006000	25.216272	0.000456	20.885448
1003.287696	-2.980400	3.655700	-10.895000	25.200315	0.000453	20.879386
1004.270220	-3.008300	3.655200	-10.995000	25.219999	0.000454	20.879707
1005.285641	-3.009600	3.654300	-10.997000	25.250875	0.000456	20.911177
1006.278216	-3.011000	3.655200	-11.005000	25.297806	0.000454	20.885280
1007.272587	-3.014700	3.655700	-11.019000	25.322520	0.000453	20.892549
1008.277175	-3.024000	3.653700	-11.048000	25.337307	0.000455	20.908343
1009.276210	-3.003000	3.654400	-10.974000	25.293992	0.000452	20.887614
1010.265594	-3.011100	3.653200	-10.999000	25.254628	0.000453	20.901196
1011.274156	-2.989500	3.654300	-10.923000	25.227759	0.000454	20.891764
1012.275372	-3.012500	3.654200	-11.008000	25.205622	0.000454	20.906049
1013.277755	-3.012700	3.652000	-11.001000	25.236834	0.000454	20.905141
1014.279943	-2.999000	3.653100	-10.955000	25.246406	0.000453	20.906217
1015.278437	-3.022800	3.651900	-11.038000	25.256309	0.000452	20.915684
1016.273519	-3.013400	3.651900	-11.004000	25.244299	0.000451	20.913584
1017.275335	-2.999400	3.652500	-10.954000	25.247747	0.000452	20.909933
1018.274279	-3.032100	3.650600	-11.068000	25.253338	0.000450	20.916494
1019.273291	-3.032900	3.650200	-11.070000	25.248625	0.000448	20.921720
1020.275552	-2.991200	3.650300	-10.918000	25.227439	0.000450	20.909459
1021.282871	-2.977600	3.652600	-10.874000	25.216627	0.000449	20.891968
1022.271086	-3.000800	3.649300	-10.950000	25.237103	0.000447	20.916790
1023.273044	-2.991900	3.649700	-10.918000	25.277906	0.000449	20.936891
1024.279547	-3.001300	3.650700	-10.955000	25.258619	0.000447	20.927012
1025.274570	-2.999000	3.649400	-10.944000	25.233782	0.000447	20.894492
1026.278979	-2.992200	3.650500	-10.922000	25.260026	0.000447	20.918467
1027.276062	-3.013400	3.649100	-10.995000	25.302681	0.000448	20.909138
1028.280686	-2.986600	3.649400	-10.898000	25.316285	0.000448	20.905254
1029.293993	-3.010600	3.649100	-10.985000	25.348016	0.000448	20.929051
1030.278003	-3.017900	3.647200	-11.006000	25.356795	0.000448	20.922694
1031.275064	-3.011200	3.647300	-10.982000	25.300244	0.000447	20.928026
1032.285064	-2.986500	3.648100	-10.894000	25.263956	0.000446	20.923361
1033.294763	-3.024000	3.646500	-11.026000	25.221208	0.000446	20.935443
1034.284604	-3.028400	3.647000	-11.043000	25.196177	0.000444	20.929754
1035.282725	-3.033300	3.646100	-11.059000	25.177412	0.000447	20.945053
1036.281882	-3.001600	3.646100	-10.944000	25.190062	0.000443	20.935943
1037.277894	-2.990200	3.647500	-10.906000	25.239139	0.000447	20.924524
1038.277010	-2.998800	3.645400	-10.931000	25.274473	0.000444	20.931549
1039.289268	-3.002600	3.646800	-10.949000	25.294653	0.000446	20.922887
1040.278199	-2.987100	3.647300	-10.894000	25.309074	0.000444	20.943054
1041.278258	-2.985700	3.647300	-10.889000	25.278556	0.000443	20.923321
1042.276838	-3.001000	3.645000	-10.938000	25.238169	0.000442	20.926395
1043.283872	-2.967300	3.645600	-10.817000	25.271000	0.000444	20.918106
1044.296131	-2.982300	3.645000	-10.870000	25.325704	0.000443	20.935571
1045.279500	-2.989600	3.645000	-10.896000	25.292444	0.000442	20.945323
1046.274805	-3.001600	3.644200	-10.938000	25.325857	0.000443	20.934776
1047.288975	-2.988900	3.645600	-10.895000	25.353718	0.000442	20.949473
1048.280902	-2.995900	3.642100	-10.911000	25.340689	0.000442	20.948244
1049.291376	-3.015600	3.644500	-10.990000	25.299680	0.000440	20.927934
1050.288066	-2.983000	3.642500	-10.865000	25.313680	0.000441	20.946256
1051.276062	-3.001200	3.641700	-10.928000	25.244461	0.000442	20.937452
1052.290806	-3.001900	3.643800	-10.938000	25.220710	0.000439	20.926410
1053.283534	-3.021900	3.641200	-11.003000	25.240043	0.000440	20.942025
1054.288299	-2.999900	3.641400	-10.922000	25.287386	0.000437	20.946409
1055.306441	-3.011000	3.640400	-10.961000	25.256228	0.000438	20.953056
1056.292468	-3.015500	3.640700	-10.978000	25.305129	0.000436	20.951894
1057.285394	-3.014000	3.639600	-10.968000	25.320225	0.000436	20.953775
1058.286946	-3.004300	3.640300	-10.936000	25.348382	0.000436	20.955019
1059.289258	-2.998900	3.639400	-10.912000	25.342085	0.000437	20.950594
1060.290474	-3.003400	3.639800	-10.932000	25.372541	0.000434	20.951303
1061.280842	-3.001500	3.640200	-10.925000	25.370332	0.000438	20.946715
1062.284852	-2.990700	3.641000	-10.887000	25.385981	0.000435	20.963374
1063.296968	-2.999900	3.639800	-10.919000	25.418766	0.000436	20.947459
1064.301185	-2.982400	3.639900	-10.855000	25.439837	0.000434	20.955340
1065.292748	-2.998100	3.640000	-10.912000	25.417807	0.000434	20.946496
1066.291584	-3.016100	3.638000	-10.972000	25.398411	0.000434	20.973009
1067.293175	-3.000600	3.638100	-10.916000	25.341836	0.000433	20.957456
1068.291652	-2.971900	3.639300	-10.815000	25.367296	0.000434	20.951726
1069.288080	-2.993700	3.637900	-10.890000	25.334763	0.000433	20.959362
1070.306681	-2.977800	3.637600	-10.831000	25.294074	0.000435	20.954071
1071.283006	-3.006300	3.636200	-10.930000	25.268547	0.000431	20.944089
1072.293231	-3.018300	3.634700	-10.970000	25.294815	0.000432	20.958608
1073.300869	-3.006500	3.636100	-10.930000	25.317585	0.000431	20.955391
1074.292616	-3.004800	3.635400	-10.923000	25.320494	0.000433	20.969690
1075.296074	-3.030600	3.635500	-11.017000	25.317930	0.000432	20.989398
1076.293495	-3.018300	3.635000	-10.971000	25.309313	0.000433	20.958465
1077.294130	-3.004300	3.633800	-10.916000	25.337800	0.000430	20.985167
1078.289262	-3.019000	3.634300	-10.971000	25.327537	0.000430	20.978657
1079.302876	-3.005200	3.634400	-10.922000	25.333463	0.000431	20.972754
1080.301001	-2.993700	3.634100	-10.878000	25.361909	0.000429	20.958644
1081.312029	-3.006800	3.633400	-10.923000	25.371520	0.000431	20.986783
1082.293931	-2.979700	3.633600	-10.826000	25.350971	0.000429	20.978004
1083.289402	-3.000000	3.633300	-10.899000	25.314482	0.000428	20.987833
1084.296769	-2.994300	3.634800	-10.882000	25.309633	0.000429	20.982964
1085.291948	-2.983100	3.632500	-10.835000	25.306018	0.000427	20.981705
1086.298585	-2.974000	3.632500	-10.802000	25.327309	0.000427	20.973687
1087.296072	-2.992600	3.631400	-10.867000	25.315848	0.000428	20.979722
1088.297112	-3.013700	3.631900	-10.944000	25.352682	0.000427	20.984937
1089.304620	-2.999600	3.633200	-10.898000	25.335032	0.000426	21.001825
1090.305837	-3.012400	3.631400	-10.939000	25.303610	0.000425	20.983082
1091.300254	-3.002300	3.632000	-10.904000	25.280643	0.000424	20.976144
1092.310126	-2.995500	3.631600	-10.876000	25.279536	0.000425	21.002529
1093.305525	-2.980400	3.631200	-10.821000	25.319753	0.000424	20.977953
1094.299072	-3.002900	3.629900	-10.899000	25.346696	0.000425	20.980349
1095.308766	-2.991700	3.629100	-10.857000	25.380630	0.000425	20.990239
1096.302962	-2.990100	3.630000	-10.853000	25.361167	0.000425	20.987766
1097.296079	-3.021100	3.628000	-10.959000	25.391404	0.000426	20.995367
1098.296465	-3.012700	3.627900	-10.929000	25.409896	0.000423	20.999236
1099.301749	-3.004900	3.629900	-10.907000	25.381117	0.000424	20.997839
1100.310558	-2.990500	3.627700	-10.848000	25.402036	0.000423	20.981863
1101.303241	-3.013500	3.629000	-10.935000	25.434755	0.000425	20.981527
1102.302407	-2.987400	3.626600	-10.833000	25.474560	0.000423	20.999210
1103.302327	-3.005400	3.628300	-10.903000	25.487527	0.000423	21.001326
1104.313899	-2.991200	3.627500	-10.849000	25.447560	0.000423	20.989642
1105.307118	-3.010900	3.626600	-10.919000	25.469813	0.000424	20.998711
1106.304783	-3.000500	3.626600	-10.881000	25.479896	0.000424	21.019738
1107.297785	-3.019400	3.625800	-10.947000	25.441000	0.000419	21.003915
1108.324667	-3.004100	3.626600	-10.893000	25.452089	0.000422	21.012204
1109.305035	-2.987600	3.625700	-10.832000	25.428672	0.000423	21.027093
1110.304499	-2.998900	3.624600	-10.869000	25.443960	0.000421	20.982709
1111.310923	-2.982200	3.626500	-10.814000	25.405789	0.000422	21.014075
1112.305638	-2.989700	3.626600	-10.842000	25.416573	0.000420	20.980813
1113.321544	-3.001100	3.624000	-10.874000	25.418553	0.000420	21.000816
1114.307363	-2.997700	3.625800	-10.868000	25.390038	0.000419	21.003003
1115.309949	-2.992100	3.625000	-10.845000	25.359730	0.000417	21.006235
1116.306641	-3.028100	3.622600	-10.969000	25.396436	0.000419	21.011322
1117.319504	-3.010800	3.622200	-10.904000	25.408942	0.000416	21.009181
1118.312973	-3.006900	3.622400	-10.891000	25.391993	0.000418	21.006388
1119.308118	-2.998500	3.623600	-10.864000	25.360852	0.000416	20.980813
1120.303319	-2.977200	3.623800	-10.788000	25.370794	0.000416	21.015920
1121.311225	-2.997600	3.621700	-10.855000	25.367555	0.000417	20.997971
1122.309191	-3.002700	3.621200	-10.873000	25.357379	0.000416	20.989178
1123.304416	-2.997800	3.622400	-10.858000	25.340161	0.000417	20.999389
1124.309639	-2.999400	3.621400	-10.861000	25.365676	0.000415	20.988974
1125.302488	-3.009200	3.621800	-10.898000	25.397441	0.000415	21.003324
1126.308319	-3.007000	3.621400	-10.889000	25.408419	0.000415	21.002967
1127.321824	-2.968500	3.622300	-10.752000	25.408469	0.000414	21.005863
1128.309413	-2.993800	3.620600	-10.838000	25.410663	0.000415	21.007591
1129.310345	-2.989600	3.620300	-10.823000	25.367870	0.000415	20.986910
1130.308392	-3.008200	3.619200	-10.886000	25.391277	0.000413	20.990025
1131.317837	-3.012700	3.619400	-10.903000	25.398934	0.000412	20.993919
1132.318655	-3.001700	3.617800	-10.859000	25.409465	0.000412	20.974625
1133.315247	-2.992700	3.618400	-10.828000	25.453556	0.000411	20.971959
1134.308772	-3.001400	3.617900	-10.858000	25.454221	0.000411	20.976419
1135.312271	-2.990400	3.618100	-10.819000	25.495275	0.000412	20.993460
1136.307025	-3.013800	3.617000	-10.900000	25.483587	0.000410	20.969399
1137.310034	-2.999200	3.616800	-10.847000	25.466909	0.000409	20.981572
1138.314438	-3.014300	3.617900	-10.905000	25.421401	0.000410	20.962431
1139.308722	-2.990100	3.617200	-10.815000	25.400340	0.000410	20.981109
1140.321883	-3.017500	3.616900	-10.912000	25.427144	0.000410	20.963929
1141.329947	-3.024200	3.614600	-10.930000	25.451967	0.000408	20.978422
1142.313891	-2.997800	3.616900	-10.842000	25.438172	0.000411	20.987328
1143.307509	-2.986600	3.616900	-10.802000	25.441096	0.000406	20.988841
1144.315325	-3.001000	3.614600	-10.847000	25.438532	0.000408	20.986267
1145.305024	-3.013700	3.614900	-10.892000	25.448067	0.000406	20.992996
1146.320704	-3.016100	3.615500	-10.904000	25.458826	0.000408	20.993842
1147.310166	-2.985400	3.615200	-10.791000	25.464238	0.000406	20.964668
1148.313604	-2.979800	3.614900	-10.770000	25.446523	0.000405	20.943090
1149.324764	-2.999700	3.613500	-10.838000	25.430499	0.000405	20.948335
1150.312760	-2.997100	3.614300	-10.832000	25.368255	0.000405	20.972126
1151.314819	-3.022000	3.613400	-10.918000	25.330096	0.000405	20.980751
1152.305820	-2.996100	3.613000	-10.824000	25.337753	0.000406	20.957149
1153.315612	-3.018300	3.612700	-10.904000	25.370606	0.000405	20.983968
1154.320376	-3.001300	3.613000	-10.842000	25.420751	0.000404	20.964622
1155.328192	-3.007100	3.612300	-10.861000	25.411246	0.000404	20.971672
1156.320693	-2.985800	3.612700	-10.787000	25.405579	0.000403	20.953183
1157.315422	-2.989200	3.612200	-10.796000	25.389205	0.000403	20.971351
1158.313672	-3.012600	3.611600	-10.880000	25.411225	0.000404	20.978763
1159.317688	-3.001200	3.611500	-10.838000	25.481515	0.000403	20.960681
1160.307466	-2.991800	3.609800	-10.799000	25.465334	0.000401	20.965295
1161.309527	-3.012800	3.611000	-10.878000	25.501325	0.000400	20.954498
1162.324611	-2.967800	3.610500	-10.714000	25.504783	0.000404	20.966503
1163.309824	-2.998600	3.609000	-10.821000	25.491948	0.000401	20.957883
1164.315405	-3.009800	3.608900	-10.861000	25.506255	0.000400	20.933846
1165.313450	-3.004600	3.608800	-10.841000	25.483566	0.000401	20.949940
1166.320542	-2.973500	3.608500	-10.729000	25.499888	0.000399	20.963011
1167.316203	-2.984700	3.609400	-10.773000	25.465892	0.000400	20.942625
1168.314949	-3.000300	3.608600	-10.826000	25.458287	0.000399	20.959167
1169.323119	-2.989400	3.608300	-10.786000	25.450721	0.000398	20.963424
1170.320737	-3.004100	3.608000	-10.837000	25.461825	0.000398	20.967935
1171.319582	-2.990400	3.608100	-10.789000	25.456591	0.000397	20.951301
1172.331576	-2.987100	3.607000	-10.773000	25.461201	0.000398	20.954982
1173.318699	-3.009200	3.605900	-10.850000	25.459261	0.000398	20.929330
1174.315907	-3.008200	3.605900	-10.847000	25.487795	0.000397	20.946127
1175.327792	-2.976100	3.607400	-10.735000	25.533543	0.000396	20.948921
1176.324330	-2.992500	3.605600	-10.788000	25.485601	0.000395	20.958147
1177.327585	-2.989500	3.607100	-10.782000	25.488434	0.000398	20.943925
1178.333251	-3.005700	3.604700	-10.834000	25.452143	0.000395	20.939250
1179.326791	-3.007700	3.605600	-10.844000	25.464455	0.000397	20.945923
1180.327722	-3.010300	3.603900	-10.848000	25.457159	0.000396	20.928641
1181.328027	-3.000000	3.605200	-10.814000	25.440389	0.000393	20.944990
1182.324550	-2.996700	3.604900	-10.802000	25.459226	0.000396	20.942095
1183.329434	-3.011600	3.604400	-10.854000	25.443055	0.000393	20.932021
1184.323218	-2.984100	3.604400	-10.754000	25.426183	0.000391	20.952535
1185.328453	-3.018300	3.602200	-10.871000	25.460541	0.000393	20.941518
1186.332109	-3.009200	3.602500	-10.840000	25.442456	0.000393	20.924308
1187.328561	-3.013400	3.602600	-10.854000	25.435180	0.000395	20.946871
1188.329371	-3.000400	3.603300	-10.810000	25.456900	0.000392	20.946397
1189.334348	-2.985700	3.602200	-10.753000	25.410986	0.000394	20.947707
1190.321611	-3.023500	3.601100	-10.887000	25.451493	0.000391	20.946183
1191.332043	-2.975300	3.602300	-10.717000	25.476493	0.000393	20.953743
1192.333607	-2.995400	3.601800	-10.788000	25.532822	0.000392	20.941559
1193.323997	-2.991500	3.601600	-10.772000	25.556175	0.000389	20.956949
1194.324522	-2.996900	3.599800	-10.788000	25.594199	0.000390	20.951989
1195.322297	-3.028300	3.599000	-10.899000	25.592976	0.000389	20.946968
1196.333111	-3.014900	3.599700	-10.852000	25.622221	0.000390	20.929875
1197.314635	-2.984900	3.599600	-10.744000	25.560896	0.000388	20.937037
1198.312413	-2.983400	3.599700	-10.738000	25.602712	0.000389	20.955797
1199.313926	-2.981600	3.598600	-10.728000	25.581305	0.000388	20.939989
1200.308227	-3.003800	3.597700	-10.805000	25.545499	0.000389	20.932954
1201.312292	-3.004300	3.597900	-10.808000	25.554520	0.000388	20.945806
1202.311078	-2.998200	3.597000	-10.784000	25.506671	0.000388	20.910559
1203.330737	-2.988900	3.598600	-10.755000	25.459368	0.000385	20.944608
1204.333835	-3.019900	3.597800	-10.865000	25.426198	0.000386	20.938327
1205.349043	-2.993300	3.596900	-10.766000	25.435286	0.000386	20.948400
1206.335889	-2.994700	3.597100	-10.771000	25.413494	0.000384	20.921779
1207.339263	-3.004500	3.596400	-10.804000	25.375860	0.000384	20.938990
1208.342170	-3.003700	3.596500	-10.801000	25.468156	0.000385	20.948691
1209.336443	-3.024100	3.594600	-10.869000	25.489571	0.000383	20.932740
1210.342956	-3.021500	3.594300	-10.859000	25.505742	0.000384	20.942339
1211.317477	-2.981700	3.594900	-10.718000	25.549398	0.000385	20.943980
1212.315372	-3.010900	3.593700	-10.820000	25.580614	0.000384	20.924599
1213.313714	-3.000600	3.593800	-10.782000	25.576136	0.000383	20.947600
1214.314317	-3.015600	3.594200	-10.838000	25.552154	0.000381	20.937741
1215.321823	-2.988000	3.594400	-10.739000	25.488018	0.000382	20.930706
1216.322329	-3.001500	3.593400	-10.784000	25.497156	0.000381	20.917599
1217.321139	-3.016500	3.591900	-10.834000	25.479625	0.000380	20.927494
1218.318525	-3.019500	3.591400	-10.843000	25.502305	0.000380	20.926087
1219.347248	-3.009700	3.592300	-10.810000	25.538280	0.000380	20.924283
1220.315367	-2.987400	3.592700	-10.731000	25.577543	0.000385	20.911084
1221.319616	-2.999400	3.592100	-10.773000	25.611195	0.000380	20.912165
1222.315332	-2.998700	3.592300	-10.771000	25.555053	0.000379	20.916947
1223.337745	-3.016100	3.589200	-10.825000	25.524887	0.000379	20.929799
1224.320646	-3.020200	3.592000	-10.846000	25.499792	0.000380	20.911712
1225.345481	-2.980600	3.591500	-10.704000	25.509007	0.000378	20.924757
1226.345057	-2.981800	3.590800	-10.706000	25.497050	0.000378	20.905166
1227.321247	-3.007300	3.589800	-10.795000	25.515429	0.000377	20.917457
1228.320282	-3.000500	3.589300	-10.769000	25.519333	0.000377	20.922326
1229.316983	-3.003000	3.589600	-10.779000	25.525959	0.000378	20.919496
1230.346383	-2.993900	3.589900	-10.746000	25.580001	0.000377	20.900277
1231.340938	-2.997000	3.589600	-10.757000	25.562943	0.000377	20.918232
1232.342937	-3.011000	3.588100	-10.803000	25.541291	0.000377	20.918773
1233.323129	-3.014400	3.586500	-10.810000	25.571584	0.000377	20.924538
1234.328819	-2.992100	3.588800	-10.737000	25.573655	0.000375	20.917610
1235.329390	-2.992300	3.587400	-10.734000	25.556643	0.000376	20.921388
1236.327388	-3.005700	3.586700	-10.780000	25.559516	0.000375	20.918584
1237.323710	-2.987900	3.586800	-10.716000	25.539037	0.000374	20.907027
1238.346428	-3.007700	3.586300	-10.786000	25.571899	0.000375	20.934337
1239.345303	-2.990800	3.586900	-10.727000	25.543850	0.000373	20.908541
1240.340328	-2.974600	3.586100	-10.667000	25.543738	0.000372	20.895154
1241.355860	-2.997200	3.585900	-10.747000	25.536849	0.000375	20.918579
1242.343724	-3.005500	3.585300	-10.774000	25.508967	0.000375	20.911916
1243.354579	-3.022100	3.585300	-10.834000	25.511891	0.000372	20.917698
1244.325572	-3.024100	3.583600	-10.836000	25.548871	0.000372	20.912161
1245.350661	-3.010100	3.585100	-10.791000	25.551440	0.000369	20.904311
1246.349431	-2.984100	3.584600	-10.696000	25.530473	0.000371	20.910280
1247.324134	-2.986200	3.586000	-10.708000	25.504352	0.000367	20.909653
1248.356978	-2.991900	3.583700	-10.722000	25.510338	0.000372	20.923723
1249.353603	-3.011700	3.582800	-10.790000	25.497656	0.000372	20.930901
1250.348150	-2.984300	3.582600	-10.691000	25.480749	0.000367	20.897332
1251.333472	-3.006800	3.582200	-10.770000	25.464924	0.000369	20.912258
1252.349405	-3.000400	3.583000	-10.749000	25.423067	0.000366	20.901996
1253.326396	-2.994800	3.582500	-10.728000	25.444011	0.000368	20.911173
1254.332885	-3.008000	3.582000	-10.774000	25.446743	0.000367	20.900166
1255.332609	-2.991300	3.581900	-10.714000	25.475292	0.000368	20.887110
1256.324309	-3.007300	3.581900	-10.771000	25.514420	0.000366	20.899376
1257.327389	-2.996200	3.581700	-10.731000	25.542201	0.000365	20.891714
1258.334331	-2.998600	3.581000	-10.737000	25.562554	0.000366	20.876593
1259.328381	-2.991900	3.580600	-10.712000	25.532875	0.000366	20.924071
1260.349517	-3.001900	3.581100	-10.749000	25.496646	0.000365	20.892433
1261.332637	-2.978400	3.579500	-10.660000	25.467615	0.000365	20.898841
1262.328019	-2.996200	3.578400	-10.720000	25.516812	0.000363	20.906993
1263.329274	-3.004300	3.579200	-10.752000	25.480059	0.000363	20.879571
1264.328833	-3.000400	3.579000	-10.738000	25.483639	0.000363	20.919198
1265.325890	-2.991600	3.578600	-10.705000	25.497408	0.000364	20.909318
1266.360531	-3.000200	3.577100	-10.731000	25.520889	0.000360	20.895441
1267.326090	-2.987700	3.577900	-10.688000	25.521184	0.000362	20.886729
1268.330789	-2.991100	3.577800	-10.701000	25.551020	0.000361	20.893933
1269.372334	-3.013300	3.577700	-10.780000	25.570799	0.000363	20.903838
1270.359567	-3.021000	3.576000	-10.802000	25.588293	0.000362	20.905760
1271.331419	-3.005500	3.576500	-10.749000	25.603964	0.000361	20.903007
1272.330971	-3.015300	3.575400	-10.781000	25.636920	0.000363	20.893907
1273.333426	-3.014300	3.575900	-10.778000	25.637154	0.000359	20.872807
1274.331496	-3.014500	3.576300	-10.779000	25.617595	0.000363	20.884930
1275.332198	-3.011500	3.575100	-10.765000	25.605178	0.000360	20.901855
1276.336041	-3.006200	3.575600	-10.748000	25.598045	0.000359	20.896589
1277.331987	-3.016200	3.573700	-10.779000	25.588451	0.000360	20.886954
1278.331304	-3.017400	3.574000	-10.783000	25.578755	0.000359	20.904241
1279.336615	-2.991500	3.575900	-10.696000	25.564195	0.000360	20.892465
1280.332875	-3.014200	3.573900	-10.771000	25.523946	0.000359	20.899459
1281.332962	-2.990800	3.574400	-10.689000	25.579354	0.000359	20.886352
1282.336789	-3.000000	3.573500	-10.720000	25.620209	0.000361	20.886607
1283.331218	-3.023800	3.572100	-10.800000	25.625865	0.000359	20.893709
1284.334391	-2.988500	3.573100	-10.677000	25.641901	0.000357	20.906020
1285.336102	-2.986500	3.573400	-10.671000	25.614224	0.000358	20.885812
1286.335720	-2.994000	3.572300	-10.695000	25.588014	0.000357	20.900264
1287.333607	-2.976900	3.573200	-10.636000	25.556112	0.000356	20.891460
1288.336896	-2.979200	3.571400	-10.639000	25.530693	0.000358	20.873520
1289.339607	-3.000100	3.570800	-10.712000	25.517472	0.000355	20.885373
1290.337598	-2.999700	3.569800	-10.706000	25.535810	0.000355	20.903787
1291.337245	-2.974000	3.571300	-10.620000	25.563666	0.000355	20.897149
1292.335761	-2.989000	3.570600	-10.671000	25.562580	0.000354	20.904592
1293.337339	-2.970000	3.571600	-10.606000	25.564712	0.000353	20.883028
1294.336975	-3.014600	3.568900	-10.757000	25.582216	0.000356	20.892546
1295.337479	-3.036800	3.568800	-10.837000	25.609371	0.000354	20.864343
1296.338474	-3.019600	3.568800	-10.776000	25.623300	0.000352	20.889237
1297.340145	-2.980400	3.569000	-10.637000	25.615280	0.000353	20.876441
1298.342962	-3.000400	3.568500	-10.706000	25.612640	0.000353	20.871894
1299.340509	-2.976900	3.569500	-10.625000	25.618955	0.000351	20.869702
1300.347768	-2.979000	3.568400	-10.629000	25.645713	0.000350	20.873342
1301.341158	-3.006000	3.566800	-10.721000	25.585628	0.000350	20.865628
1302.345142	-2.978800	3.566700	-10.624000	25.594842	0.000350	20.897639
1303.343958	-3.034500	3.566200	-10.820000	25.608691	0.000352	20.875040
1304.344047	-3.008100	3.567200	-10.729000	25.572125	0.000348	20.857283
1305.345473	-3.017300	3.564500	-10.755000	25.563820	0.000349	20.881657
1306.344246	-3.006600	3.566100	-10.721000	25.580639	0.000348	20.891910
1307.343382	-2.988900	3.567100	-10.661000	25.545305	0.000349	20.880133
1308.343399	-3.037800	3.564200	-10.825000	25.575293	0.000346	20.865206
1309.345704	-3.004900	3.565700	-10.714000	25.579877	0.000348	20.879766
1310.343178	-3.008400	3.565600	-10.726000	25.563099	0.000350	20.884253
1311.344604	-2.993500	3.565100	-10.671000	25.596864	0.000349	20.864110
1312.348905	-3.014500	3.563400	-10.741000	25.555332	0.000344	20.863178
1313.352603	-2.997700	3.563300	-10.680000	25.564074	0.000347	20.877172
1314.340685	-3.006200	3.561700	-10.706000	25.551494	0.000345	20.851264
1315.348995	-3.007600	3.564000	-10.719000	25.499852	0.000346	20.880481
1316.343638	-3.007700	3.563300	-10.717000	25.496192	0.000345	20.854522
1317.347066	-3.021900	3.562000	-10.763000	25.515617	0.000345	20.869760
1318.347959	-2.994100	3.563000	-10.667000	25.570436	0.000345	20.862699
1319.345135	-3.001900	3.562400	-10.694000	25.631339	0.000342	20.857010
1320.347098	-3.005200	3.560900	-10.700000	25.594824	0.000344	20.844519
1321.349165	-3.004500	3.560600	-10.697000	25.587144	0.000344	20.857668
1322.343995	-3.001700	3.561200	-10.689000	25.533808	0.000344	20.852942
1323.345315	-2.978300	3.561000	-10.605000	25.551815	0.000343	20.887145
1324.346914	-3.005800	3.559500	-10.698000	25.556268	0.000344	20.870755
1325.342717	-2.985200	3.560200	-10.627000	25.580362	0.000343	20.864133
1326.346849	-3.006800	3.559100	-10.701000	25.616705	0.000343	20.848951
1327.345794	-3.010700	3.557500	-10.709000	25.584002	0.000341	20.863047
1328.343989	-3.011600	3.558600	-10.716000	25.558624	0.000340	20.836139
1329.347849	-2.985000	3.558700	-10.622000	25.554837	0.000341	20.865999
1330.345943	-2.986100	3.558300	-10.624000	25.534180	0.000341	20.831979
1331.345520	-2.998100	3.557300	-10.664000	25.552777	0.000341	20.874361
1332.348285	-2.984700	3.557900	-10.619000	25.561595	0.000342	20.841493
1333.346110	-2.998900	3.557300	-10.667000	25.565093	0.000339	20.841687
1334.352045	-3.005800	3.556800	-10.690000	25.596649	0.000338	20.851568
1335.346628	-2.975400	3.557200	-10.583000	25.568936	0.000339	20.855504
1336.347428	-3.010400	3.556900	-10.707000	25.571145	0.000338	20.842549
1337.350560	-2.994200	3.555500	-10.645000	25.599127	0.000338	20.855478
1338.346760	-2.986200	3.555700	-10.617000	25.632906	0.000338	20.841040
1339.357309	-3.001000	3.555600	-10.669000	25.596427	0.000337	20.839491
1340.356608	-3.002800	3.555600	-10.676000	25.566673	0.000337	20.839481
1341.350153	-2.991800	3.554800	-10.634000	25.598239	0.000335	20.832302
1342.351286	-2.994200	3.554600	-10.641000	25.607301	0.000336	20.829075
1343.361632	-2.991400	3.555200	-10.633000	25.558840	0.000334	20.835882
1344.349295	-2.994300	3.555100	-10.644000	25.514078	0.000333	20.834551
1345.351138	-2.995400	3.553500	-10.642000	25.525074	0.000334	20.840852
1346.358996	-3.001200	3.553900	-10.664000	25.547280	0.000336	20.833756
1347.350327	-2.995900	3.553100	-10.644000	25.561830	0.000333	20.834618
1348.355246	-2.996600	3.552100	-10.643000	25.620805	0.000335	20.828887
1349.351415	-2.973700	3.551400	-10.558000	25.611058	0.000334	20.805822
1350.353073	-2.993500	3.551800	-10.631000	25.636821	0.000333	20.831222
1351.354887	-2.984600	3.552700	-10.601000	25.606226	0.000333	20.842220
1352.359614	-3.007800	3.551000	-10.680000	25.616064	0.000332	20.837402
1353.352548	-3.011100	3.551200	-10.692000	25.563455	0.000332	20.831034
1354.355623	-3.008100	3.550400	-10.679000	25.599631	0.000331	20.850295
1355.358766	-3.016800	3.550300	-10.710000	25.586463	0.000332	20.828536
1356.352165	-2.993700	3.551200	-10.630000	25.584092	0.000332	20.827578
1357.354500	-3.001600	3.549200	-10.652000	25.608180	0.000332	20.841812
1358.358165	-3.005700	3.548600	-10.665000	25.630065	0.000330	20.827282
1359.354917	-2.993900	3.549200	-10.625000	25.588839	0.000329	20.833767
1360.354627	-3.004800	3.548900	-10.663000	25.582422	0.000329	20.826849
1361.360338	-3.002300	3.548500	-10.653000	25.585626	0.000329	20.827695
1362.354170	-2.980300	3.548200	-10.574000	25.601744	0.000329	20.815908
1363.353746	-2.990500	3.547700	-10.608000	25.653483	0.000327	20.833258
1364.361242	-2.996500	3.547100	-10.629000	25.604222	0.000327	20.820767
1365.355320	-2.979200	3.547100	-10.567000	25.630837	0.000328	20.828532
1366.358416	-2.995800	3.546900	-10.624000	25.627650	0.000328	20.809684
1367.362987	-2.990000	3.547200	-10.605000	25.653143	0.000328	20.820589
1368.362631	-3.028700	3.544900	-10.735000	25.647097	0.000327	20.817362
1369.359333	-3.013400	3.545100	-10.682000	25.629747	0.000327	20.830282
1370.362986	-2.982000	3.546800	-10.575000	25.615853	0.000323	20.810164
1371.361355	-2.994900	3.544900	-10.615000	25.565732	0.000324	20.824786
1372.361623	-3.002500	3.544500	-10.641000	25.583841	0.000325	20.807885
1373.365057	-3.009800	3.543400	-10.663000	25.605954	0.000325	20.823930
1374.361783	-3.014000	3.544400	-10.682000	25.617605	0.000325	20.808604
1375.361831	-2.988600	3.544400	-10.592000	25.655743	0.000326	20.810873
1376.363629	-2.992300	3.543300	-10.602000	25.653962	0.000324	20.806713
1377.361606	-3.017400	3.543100	-10.689000	25.631926	0.000325	20.818246
1378.366743	-2.983100	3.543800	-10.571000	25.608986	0.000321	20.801844
1379.365312	-2.997300	3.543600	-10.621000	25.628332	0.000324	20.803731
1380.360207	-3.001800	3.542600	-10.634000	25.635952	0.000326	20.804272
1381.366736	-3.017900	3.542300	-10.689000	25.603722	0.000324	20.803196
1382.366064	-3.006200	3.540900	-10.644000	25.632983	0.000323	20.823101
1383.363523	-3.016600	3.541400	-10.682000	25.647720	0.000322	20.803288
1384.365661	-2.987700	3.541300	-10.579000	25.629669	0.000323	20.798435
1385.365186	-3.004500	3.540100	-10.635000	25.680477	0.000321	20.796834
1386.364954	-3.013200	3.538800	-10.661000	25.681731	0.000321	20.809000
1387.368017	-2.990600	3.540700	-10.588000	25.627751	0.000323	20.797932
1388.369284	-3.005000	3.539900	-10.636000	25.637320	0.000321	20.797111
1389.362810	-2.994900	3.539900	-10.601000	25.640767	0.000319	20.831392
1390.365711	-2.964400	3.540000	-10.492000	25.655113	0.000323	20.791748
1391.366642	-3.006700	3.538000	-10.637000	25.684474	0.000321	20.776193
1392.366067	-2.989800	3.538400	-10.578000	25.650424	0.000322	20.795573
1393.366358	-2.993000	3.538000	-10.589000	25.657388	0.000320	20.802093
1394.369250	-3.009800	3.537400	-10.646000	25.613143	0.000321	20.821667
1395.370522	-3.026200	3.536100	-10.700000	25.603676	0.000318	20.790347
1396.365822	-3.033700	3.536600	-10.728000	25.592630	0.000317	20.820505
1397.365621	-3.024000	3.536200	-10.693000	25.573079	0.000319	20.805612
1398.366341	-3.006500	3.534700	-10.626000	25.606169	0.000318	20.802809
1399.367446	-3.015500	3.534700	-10.657000	25.600941	0.000320	20.799454
1400.370566	-3.010800	3.535800	-10.645000	25.597240	0.000318	20.815178
1401.368456	-3.019600	3.535200	-10.674000	25.619698	0.000318	20.801698
1402.368560	-3.020600	3.533400	-10.672000	25.606865	0.000318	20.780275
1403.373497	-2.979000	3.536300	-10.534000	25.610373	0.000320	20.788065
1404.369261	-2.992200	3.535000	-10.576000	25.581057	0.000315	20.790865
1405.366641	-3.015200	3.533300	-10.653000	25.550993	0.000317	20.795759
1406.369790	-2.979000	3.533800	-10.526000	25.556522	0.000319	20.801786
1407.367434	-2.996400	3.533300	-10.587000	25.561791	0.000317	20.783845
1408.368224	-3.002300	3.532800	-10.605000	25.567701	0.000315	20.801633
1409.370624	-2.996200	3.533000	-10.585000	25.568275	0.000315	20.802684
1410.370402	-3.025700	3.530800	-10.682000	25.572809	0.000313	20.789694
1411.370114	-3.002800	3.532000	-10.605000	25.605806	0.000314	20.808609
1412.370439	-2.993800	3.532200	-10.573000	25.598522	0.000312	20.787542
1413.369621	-3.016300	3.531300	-10.650000	25.582105	0.000313	20.797607
1414.366906	-2.989500	3.531000	-10.555000	25.641880	0.000314	20.798846
1415.370329	-2.998000	3.530400	-10.583000	25.648926	0.000314	20.788853
1416.366961	-3.016200	3.530600	-10.648000	25.656049	0.000310	20.788420
1417.370782	-2.997400	3.531100	-10.584000	25.616696	0.000310	20.807692
1418.372360	-3.007700	3.530100	-10.617000	25.598620	0.000312	20.786218
1419.371946	-2.994300	3.529400	-10.566000	25.547757	0.000311	20.785397
1420.371445	-3.011700	3.527400	-10.622000	25.538482	0.000313	20.802635
1421.371625	-3.015300	3.527700	-10.636000	25.547006	0.000309	20.779427
1422.374543	-2.951500	3.529000	-10.415000	25.531070	0.000307	20.796614
1423.372202	-2.994300	3.527000	-10.561000	25.599925	0.000310	20.792745
1424.376763	-3.003100	3.528100	-10.594000	25.577349	0.000309	20.820331
1425.371902	-3.006900	3.526300	-10.602000	25.572120	0.000309	20.796589
1426.376127	-3.012800	3.526600	-10.623000	25.583553	0.000309	20.802380
1427.374964	-3.002500	3.526100	-10.586000	25.573806	0.000307	20.798756
1428.375546	-3.012400	3.526600	-10.622000	25.568014	0.000308	20.794835
1429.375787	-3.011700	3.525600	-10.617000	25.535024	0.000304	20.802956
1430.373885	-3.001800	3.525300	-10.581000	25.543884	0.000308	20.790043
1431.375780	-3.002100	3.525100	-10.582000	25.601138	0.000309	20.799179
1432.377112	-3.017500	3.523700	-10.631000	25.637861	0.000307	20.798129
1433.375573	-3.004000	3.524600	-10.587000	25.676649	0.000307	20.800102
1434.374710	-2.986900	3.525300	-10.529000	25.689142	0.000309	20.801270
1435.378221	-3.004700	3.524500	-10.588000	25.685634	0.000307	20.776884
1436.378724	-2.984000	3.524300	-10.516000	25.693457	0.000307	20.782844
1437.378906	-2.987300	3.524200	-10.527000	25.684370	0.000305	20.785572
1438.379367	-2.992800	3.524200	-10.547000	25.634034	0.000306	20.807561
1439.374699	-3.021700	3.521100	-10.639000	25.609069	0.000306	20.777746
1440.378738	-3.021600	3.521600	-10.640000	25.637462	0.000305	20.812900
1441.379566	-3.004200	3.522000	-10.579000	25.654686	0.000303	20.787051
1442.379949	-2.996900	3.521600	-10.553000	25.630894	0.000303	20.814838
1443.379172	-2.982300	3.521500	-10.502000	25.624274	0.000305	20.816251
1444.379879	-3.023400	3.521600	-10.646000	25.583825	0.000301	20.810714
1445.381075	-2.995200	3.519900	-10.541000	25.597212	0.000302	20.831745
1446.391245	-3.039200	3.520000	-10.697000	25.591781	0.000302	20.798790
1447.382452	-2.996700	3.520800	-10.550000	25.614331	0.000302	20.822860
1448.379886	-3.003900	3.519000	-10.570000	25.597798	0.000300	20.812419
1449.381930	-2.990100	3.520600	-10.525000	25.573466	0.000302	20.803156
1450.382881	-3.013700	3.518000	-10.601000	25.579062	0.000304	20.802137
1451.383435	-3.001100	3.517700	-10.556000	25.635081	0.000300	20.807665
1452.385449	-2.998700	3.518900	-10.551000	25.652996	0.000299	20.803846
1453.385165	-3.022000	3.517800	-10.629000	25.630864	0.000298	20.810067
1454.383107	-3.001100	3.518600	-10.559000	25.611067	0.000298	20.824323
1455.384964	-3.011200	3.516800	-10.588000	25.591051	0.000300	20.824135
1456.383508	-3.006500	3.516300	-10.571000	25.598805	0.000298	20.782611
1457.384051	-3.011700	3.515600	-10.587000	25.588982	0.000300	20.827273
1458.387917	-3.008100	3.516400	-10.576000	25.595725	0.000298	20.816501
1459.401826	-2.996800	3.514900	-10.533000	25.613900	0.000296	20.815788
1460.393152	-3.007500	3.515100	-10.571000	25.617515	0.000296	20.797608
1461.390949	-3.003000	3.514700	-10.553000	25.616872	0.000297	20.811187
1462.388910	-2.993300	3.514100	-10.517000	25.635087	0.000296	20.799610
1463.390119	-3.009800	3.513800	-10.575000	25.620500	0.000297	20.798710
1464.385340	-2.994200	3.515600	-10.525000	25.648430	0.000295	20.796415
1465.389291	-2.977900	3.514600	-10.466000	25.622883	0.000297	20.807267
1466.390541	-2.993600	3.514900	-10.522000	25.614797	0.000294	20.790137
1467.391464	-2.975000	3.514800	-10.456000	25.618032	0.000295	20.818516
1468.391879	-3.006000	3.512200	-10.557000	25.617322	0.000295	20.796467
1469.395926	-3.001900	3.512300	-10.542000	25.655021	0.000293	20.801612
1470.393987	-2.992200	3.512000	-10.507000	25.628716	0.000294	20.818341
1471.393363	-3.014800	3.511600	-10.586000	25.657150	0.000293	20.812760
1472.398825	-3.013700	3.510900	-10.579000	25.627272	0.000293	20.786545
1473.392695	-3.003500	3.509900	-10.541000	25.572294	0.000294	20.832798
1474.402907	-3.013300	3.510300	-10.576000	25.554943	0.000293	20.820114
1475.397240	-2.992500	3.511300	-10.507000	25.598958	0.000294	20.801257
1476.393602	-3.009100	3.508800	-10.557000	25.598645	0.000296	20.810425
1477.396423	-2.990700	3.510100	-10.496000	25.644085	0.000294	20.805327
1478.418430	-3.002100	3.509600	-10.535000	25.640847	0.000295	20.796385
1479.404246	-2.998100	3.510100	-10.522000	25.581779	0.000291	20.809134
1480.399151	-3.006400	3.509700	-10.550000	25.599358	0.000291	20.805926
1481.398586	-2.990900	3.508500	-10.493000	25.580379	0.000292	20.800615
1482.396552	-2.998800	3.506800	-10.515000	25.589112	0.000291	20.798480
1483.401292	-3.012100	3.507100	-10.562000	25.604717	0.000291	20.808937
1484.403924	-2.976200	3.507900	-10.439000	25.691076	0.000291	20.815540
1485.399132	-2.998800	3.507700	-10.517000	25.700533	0.000291	20.798961
1486.405420	-2.992000	3.506700	-10.491000	25.693788	0.000292	20.813997
1487.402144	-3.007500	3.506900	-10.546000	25.686369	0.000290	20.821718
1488.412064	-3.007500	3.505900	-10.543000	25.666221	0.000292	20.816181
1489.398023	-3.000800	3.505800	-10.519000	25.638780	0.000287	20.809008
1490.412816	-2.979300	3.506600	-10.447000	25.608707	0.000288	20.815315
1491.398549	-3.005200	3.506700	-10.537000	25.583996	0.000289	20.803300
1492.410010	-3.003600	3.505300	-10.528000	25.606338	0.000289	20.810565
1493.412834	-3.005200	3.504500	-10.531000	25.595191	0.000289	20.801267
1494.402009	-2.983700	3.503700	-10.453000	25.615315	0.000289	20.803933
1495.402445	-2.987000	3.505100	-10.469000	25.617244	0.000288	20.804449
1496.410491	-2.978100	3.504900	-10.437000	25.653165	0.000287	20.805913
1497.405621	-2.994000	3.503600	-10.489000	25.610381	0.000288	20.815574
1498.403185	-2.987800	3.503800	-10.469000	25.637165	0.000288	20.813076
1499.411487	-2.990300	3.502400	-10.472000	25.648562	0.000287	20.836850
1500.416541	-3.003900	3.503200	-10.522000	25.643268	0.000287	20.811619
1501.401330	-3.006400	3.503000	-10.530000	25.707066	0.000286	20.823065
1502.411605	-2.981100	3.502100	-10.439000	25.683107	0.000287	20.815123
1503.409350	-2.985800	3.500300	-10.450000	25.646310	0.000285	20.806140
1504.404811	-2.990300	3.500900	-10.468000	25.644447	0.000286	20.816596
1505.410619	-3.011700	3.500200	-10.541000	25.664072	0.000285	20.831091
1506.407408	-2.983200	3.501100	-10.443000	25.638823	0.000284	20.831336
1507.406752	-2.987300	3.500000	-10.454000	25.631133	0.000285	20.807493
1508.402820	-2.985800	3.500200	-10.450000	25.613960	0.000287	20.822013
1509.415706	-2.984500	3.498300	-10.440000	25.617940	0.000284	20.834544
1510.402166	-2.993600	3.499300	-10.475000	25.668495	0.000282	20.812301
1511.403722	-3.017000	3.497700	-10.550000	25.691627	0.000286	20.835534
1512.415071	-2.992500	3.499900	-10.473000	25.730185	0.000283	20.828269
1513.408901	-2.997400	3.498600	-10.485000	25.746235	0.000282	20.841545
1514.405141	-3.009900	3.497500	-10.527000	25.704753	0.000282	20.815528
1515.416969	-3.000900	3.498300	-10.498000	25.702957	0.000282	20.809456
1516.417338	-3.001300	3.497800	-10.497000	25.739357	0.000282	20.846964
1517.405887	-2.993100	3.497000	-10.466000	25.711816	0.000283	20.828311
1518.414154	-2.990000	3.496300	-10.452000	25.696491	0.000280	20.816712
1519.406546	-2.996100	3.495500	-10.471000	25.705806	0.000284	20.833654
1520.406330	-2.986200	3.497200	-10.443000	25.660882	0.000282	20.844957
1521.422284	-3.007400	3.495100	-10.510000	25.612652	0.000280	20.846777
1522.409865	-3.012700	3.494000	-10.525000	25.617516	0.000280	20.825584
1523.409822	-2.999900	3.495800	-10.486000	25.657543	0.000280	20.824534
1524.412045	-3.007500	3.494100	-10.507000	25.656583	0.000280	20.840639
1525.406907	-3.019700	3.494400	-10.551000	25.700157	0.000280	20.829877
1526.414898	-2.996900	3.493100	-10.468000	25.700249	0.000279	20.803891
1527.414662	-3.015600	3.493700	-10.535000	25.679326	0.000280	20.842618
1528.406836	-3.013200	3.493200	-10.525000	25.670483	0.000279	20.846539
1529.413226	-2.999200	3.493200	-10.476000	25.724569	0.000279	20.844439
1530.412982	-3.013400	3.491600	-10.521000	25.724011	0.000280	20.847198
1531.412317	-3.009700	3.493400	-10.513000	25.751137	0.000279	20.837461
1532.413287	-2.999100	3.491100	-10.469000	25.755462	0.000280	20.839433
1533.413438	-3.005900	3.491000	-10.493000	25.736748	0.000277	20.848611
1534.409463	-2.991700	3.490800	-10.442000	25.740398	0.000278	20.841372
1535.416630	-3.023100	3.490900	-10.553000	25.743373	0.000277	20.826343
1536.412038	-2.987500	3.490800	-10.428000	25.722551	0.000275	20.848576
1537.412331	-2.999200	3.490900	-10.469000	25.707689	0.000275	20.838865
1538.416847	-3.002200	3.490000	-10.477000	25.705944	0.000274	20.850387
1539.414519	-2.986600	3.489300	-10.421000	25.701476	0.000274	20.839736
1540.412895	-2.999500	3.489300	-10.465000	25.704889	0.000275	20.839845
1541.414399	-2.998300	3.487800	-10.457000	25.715629	0.000274	20.848262
1542.417863	-2.995900	3.487000	-10.446000	25.706853	0.000272	20.843240
1543.413324	-3.019600	3.487600	-10.530000	25.725365	0.000275	20.859463
1544.413477	-2.988400	3.486900	-10.419000	25.736315	0.000273	20.856710
1545.416912	-2.994200	3.487200	-10.440000	25.738169	0.000274	20.857624
1546.411496	-2.976400	3.488600	-10.383000	25.757843	0.000274	20.844196
1547.414652	-3.004100	3.487300	-10.475000	25.760067	0.000270	20.852594
1548.414211	-3.006700	3.486200	-10.481000	25.767680	0.000270	20.846016
1549.416925	-2.987100	3.485200	-10.410000	25.747769	0.000270	20.851146
1550.414249	-2.997400	3.486500	-10.450000	25.741733	0.000271	20.873057
1551.420535	-3.020000	3.483500	-10.519000	25.725379	0.000271	20.835296
1552.417125	-3.012500	3.484600	-10.496000	25.737029	0.000270	20.845574
1553.417289	-2.990900	3.485500	-10.424000	25.690412	0.000270	20.871295
1554.415204	-2.992500	3.483700	-10.424000	25.731684	0.000271	20.879559
1555.417239	-3.005900	3.484200	-10.472000	25.738300	0.000272	20.852541
1556.418351	-3.018400	3.482000	-10.509000	25.755918	0.000268	20.859331
1557.418601	-2.959700	3.485600	-10.315000	25.742650	0.000270	20.881564
1558.421949	-2.991500	3.483000	-10.418000	25.660753	0.000269	20.888447
1559.416866	-2.982800	3.483300	-10.389000	25.674064	0.000270	20.870049
1560.420446	-2.993000	3.482400	-10.422000	25.693958	0.000267	20.853521
1561.420990	-2.985900	3.483600	-10.401000	25.735281	0.000268	20.872267
1562.421712	-2.994900	3.481600	-10.426000	25.762112	0.000267	20.866501
1563.419727	-3.006500	3.482400	-10.469000	25.801611	0.000268	20.864452
1564.422275	-2.981700	3.482200	-10.382000	25.808784	0.000267	20.873553
1565.420849	-3.003000	3.479900	-10.449000	25.763190	0.000268	20.878488
1566.419222	-2.985500	3.481200	-10.392000	25.761520	0.000265	20.860691
1567.420171	-2.987300	3.479500	-10.392000	25.730416	0.000267	20.874018
1568.420115	-2.992100	3.480600	-10.413000	25.714601	0.000264	20.869512
1569.425790	-3.009300	3.480100	-10.471000	25.690905	0.000266	20.877480
1570.422533	-2.989800	3.478900	-10.401000	25.685189	0.000265	20.870317
1571.420722	-2.990900	3.478800	-10.404000	25.665134	0.000266	20.860606
1572.422711	-2.985300	3.478200	-10.382000	25.651063	0.000265	20.872077
1573.422898	-2.996300	3.479100	-10.422000	25.692033	0.000265	20.879561
1574.425378	-3.000100	3.476400	-10.429000	25.768684	0.000264	20.887800
1575.421191	-3.004300	3.478200	-10.449000	25.781993	0.000267	20.877462
1576.423711	-3.014400	3.477700	-10.483000	25.807660	0.000264	20.899449
1577.421270	-3.009700	3.476900	-10.463000	25.816401	0.000265	20.889738
1578.424099	-3.002200	3.477300	-10.439000	25.837313	0.000264	20.890355
1579.422941	-2.991600	3.476000	-10.398000	25.817016	0.000263	20.892252
1580.425587	-3.006300	3.475700	-10.448000	25.852930	0.000264	20.878544
1581.434787	-3.008500	3.475900	-10.456000	25.814006	0.000262	20.870738
1582.425455	-2.996100	3.475500	-10.412000	25.730826	0.000265	20.892920
1583.424798	-2.989800	3.474400	-10.387000	25.754267	0.000263	20.879009
1584.421374	-3.014600	3.475100	-10.475000	25.757252	0.000262	20.900971
1585.424197	-2.978800	3.475000	-10.351000	25.760404	0.000260	20.891336
1586.424891	-3.003100	3.474300	-10.432000	25.766617	0.000259	20.907532
1587.425718	-3.016700	3.472700	-10.475000	25.794568	0.000259	20.900048
1588.431174	-2.980400	3.472700	-10.349000	25.775155	0.000260	20.882920
1589.425734	-2.984900	3.473000	-10.366000	25.735326	0.000259	20.913559
1590.427388	-2.973300	3.474100	-10.328000	25.759400	0.000258	20.886061
1591.424703	-3.013800	3.472200	-10.463000	25.790571	0.000259	20.895085
1592.426250	-2.988600	3.472200	-10.376000	25.801158	0.000261	20.881539
1593.432373	-3.009300	3.472100	-10.448000	25.825248	0.000258	20.888193
1594.426922	-3.006000	3.470500	-10.431000	25.806493	0.000259	20.895432
1595.425978	-3.007500	3.470000	-10.434000	25.856451	0.000257	20.883029
1596.428172	-2.980800	3.471700	-10.347000	25.843758	0.000256	20.893984
1597.426582	-2.992000	3.469900	-10.381000	25.778188	0.000256	20.894500
1598.427257	-2.997400	3.470600	-10.401000	25.757199	0.000256	20.915615
1599.426617	-2.989200	3.469500	-10.370000	25.732415	0.000257	20.894517
1600.429554	-3.023600	3.467800	-10.484000	25.647821	0.000257	20.893002
1601.429894	-2.995800	3.468600	-10.390000	25.635201	0.000258	20.899766
1602.426075	-3.014600	3.468500	-10.455000	25.661369	0.000255	20.921305
1603.431001	-2.995900	3.468600	-10.390000	25.730435	0.000257	20.893002
1604.426039	-2.987500	3.468100	-10.360000	25.772708	0.000256	20.916020
1605.427910	-3.001300	3.466600	-10.403000	25.769311	0.000255	20.905497
1606.428354	-3.003500	3.466400	-10.411000	25.737447	0.000255	20.921853
1607.428557	-2.994100	3.467500	-10.381000	25.732904	0.000253	20.911601
1608.426506	-3.003900	3.467200	-10.414000	25.734969	0.000255	20.918890
1609.426538	-2.995000	3.467600	-10.384000	25.735070	0.000254	20.906665
1610.427078	-3.043300	3.465500	-10.545000	25.802041	0.000254	20.903761
1611.426671	-3.022300	3.465800	-10.475000	25.827581	0.000253	20.933206
1612.429114	-2.997000	3.465000	-10.384000	25.834163	0.000254	20.907579
1613.428499	-3.002500	3.464000	-10.399000	25.830362	0.000254	20.927466
1614.430387	-2.981200	3.466200	-10.332000	25.850928	0.000251	20.919677
1615.431972	-2.998800	3.464400	-10.388000	25.810081	0.000254	20.920845
1616.431542	-2.990000	3.465300	-10.361000	25.807578	0.000252	20.921650
1617.432386	-3.009200	3.464100	-10.423000	25.758554	0.000253	20.919820
1618.430724	-3.000200	3.464000	-10.392000	25.789556	0.000251	20.924883
1619.430638	-3.011200	3.463400	-10.428000	25.805327	0.000250	20.919388
1620.429152	-3.011400	3.462000	-10.424000	25.827857	0.000250	20.919735
1621.430306	-2.989500	3.463400	-10.353000	25.822336	0.000251	20.941687
1622.435248	-2.987800	3.462600	-10.345000	25.785999	0.000248	20.920362
1623.429792	-3.003500	3.461400	-10.395000	25.772301	0.000249	20.945480
1624.435382	-2.997600	3.462900	-10.379000	25.716573	0.000247	20.935024
1625.431047	-2.994600	3.462600	-10.368000	25.697934	0.000248	20.940010
1626.434506	-3.024800	3.460900	-10.468000	25.681513	0.000248	20.933475
1627.431022	-3.007000	3.461300	-10.408000	25.679489	0.000248	20.924805
1628.433115	-2.998500	3.460700	-10.376000	25.700859	0.000248	20.916872
1629.432843	-3.008500	3.461200	-10.412000	25.748427	0.000248	20.935251
1630.435860	-2.998500	3.460000	-10.374000	25.769720	0.000247	20.922975
1631.436363	-3.010100	3.458700	-10.411000	25.737250	0.000248	20.931611
1632.430768	-2.989600	3.460200	-10.343000	25.741406	0.000245	20.956645
1633.434604	-2.995700	3.460600	-10.365000	25.721814	0.000246	20.953089
1634.434982	-3.006000	3.458200	-10.394000	25.770933	0.000246	20.949796
1635.433524	-2.994900	3.458600	-10.357000	25.824247	0.000247	20.947874
1636.441898	-3.019800	3.457800	-10.441000	25.833114	0.000247	20.943505
1637.437150	-3.004300	3.458000	-10.388000	25.828040	0.000248	20.953105
1638.434346	-2.983600	3.456700	-10.312000	25.856858	0.000247	20.946967
1639.439609	-2.981400	3.457700	-10.308000	25.831234	0.000246	20.919808
1640.441617	-2.993200	3.456100	-10.344000	25.843936	0.000244	20.930670
1641.438001	-3.005900	3.455700	-10.387000	25.787040	0.000244	20.944639
1642.440337	-3.026900	3.455800	-10.459000	25.778088	0.000244	20.953663
1643.435598	-3.009500	3.455900	-10.399000	25.754385	0.000246	20.925589
1644.434700	-3.013800	3.453900	-10.408000	25.754157	0.000243	20.946695
1645.438326	-2.994100	3.455600	-10.345000	25.777480	0.000242	20.954949
1646.437220	-3.008200	3.454900	-10.393000	25.806569	0.000242	20.959512
1647.439342	-3.004200	3.454400	-10.377000	25.829470	0.000245	20.955490
1648.438435	-3.026300	3.453600	-10.451000	25.843133	0.000244	20.955465
1649.437695	-2.995600	3.454800	-10.349000	25.819599	0.000242	20.953161
1650.439250	-2.996100	3.454400	-10.348000	25.847937	0.000244	20.937059
1651.442906	-3.005200	3.452700	-10.375000	25.879333	0.000243	20.939200
1652.439101	-3.012300	3.452500	-10.399000	25.890239	0.000241	20.941147
1653.441171	-3.004900	3.452000	-10.373000	25.862037	0.000240	20.946955
1654.440699	-3.006500	3.452000	-10.377000	25.816766	0.000241	20.925188
1655.442549	-3.015600	3.451800	-10.408000	25.813040	0.000242	20.925239
1656.445037	-3.018700	3.450900	-10.416000	25.857948	0.000240	20.965604
1657.441787	-2.999100	3.450700	-10.348000	25.826289	0.000242	20.949451
1658.438631	-3.027100	3.451700	-10.448000	25.816570	0.000239	20.923096
1659.439608	-3.021200	3.449900	-10.421000	25.818534	0.000239	20.932180
1660.441030	-3.020300	3.450800	-10.422000	25.846004	0.000239	20.938436
1661.440449	-2.994500	3.451600	-10.335000	25.807660	0.000237	20.940695
1662.443474	-2.976000	3.451600	-10.271000	25.768751	0.000239	20.914891
1663.442899	-2.966700	3.451300	-10.238000	25.803158	0.000238	20.921003
1664.442687	-2.999700	3.448900	-10.345000	25.788120	0.000238	20.923441
1665.443318	-3.005300	3.449300	-10.365000	25.823944	0.000238	20.921494
1666.443915	-2.992700	3.448000	-10.318000	25.815641	0.000236	20.931644
1667.444290	-3.003800	3.448900	-10.358000	25.842638	0.000240	20.908980
1668.442222	-2.988800	3.449400	-10.309000	25.833458	0.000236	20.929628
1669.444363	-2.997300	3.448500	-10.335000	25.790352	0.000239	20.908615
1670.441568	-2.987500	3.448500	-10.301000	25.764643	0.000237	20.919774
1671.443268	-3.007700	3.448000	-10.370000	25.783086	0.000235	20.916962
1672.445492	-2.996600	3.446700	-10.327000	25.840099	0.000235	20.925868
1673.443869	-2.994300	3.447200	-10.321000	25.820890	0.000237	20.893772
1674.443716	-2.990900	3.445700	-10.305000	25.825214	0.000236	20.933673
1675.445965	-3.005900	3.445400	-10.356000	25.857327	0.000234	20.901451
1676.444863	-3.005700	3.446300	-10.357000	25.826174	0.000234	20.895287
1677.442657	-2.987100	3.445700	-10.292000	25.850912	0.000236	20.913024
1678.442482	-3.000000	3.444400	-10.332000	25.877285	0.000236	20.910119
1679.441089	-3.012100	3.444500	-10.375000	25.884913	0.000235	20.915411
1680.444296	-3.010900	3.445100	-10.371000	25.840165	0.000233	20.902703
1681.445237	-3.006000	3.444300	-10.352000	25.856314	0.000234	20.892848
1682.445943	-3.001800	3.443200	-10.335000	25.853591	0.000233	20.892957
1683.442637	-2.999800	3.443300	-10.328000	25.904870	0.000233	20.889943
1684.445666	-3.032800	3.442500	-10.439000	25.866832	0.000234	20.917636
1685.444714	-2.995200	3.443300	-10.312000	25.864565	0.000234	20.878378
1686.442391	-3.016200	3.441700	-10.380000	25.815872	0.000234	20.905326
1687.446774	-2.987800	3.440900	-10.280000	25.766578	0.000230	20.895166
1688.444670	-2.995100	3.440600	-10.304000	25.735961	0.000232	20.894285
1689.447426	-3.005400	3.440200	-10.337000	25.742368	0.000231	20.912572
1690.449503	-2.995400	3.440500	-10.305000	25.772756	0.000230	20.894734
1691.446399	-2.973000	3.441400	-10.230000	25.791410	0.000230	20.885971
1692.449152	-3.000000	3.441100	-10.323000	25.783933	0.000230	20.911649
1693.448118	-3.030900	3.440100	-10.426000	25.802485	0.000230	20.896621
1694.450284	-3.008700	3.438500	-10.344000	25.782264	0.000229	20.893853
1695.447738	-3.006700	3.440300	-10.342000	25.780417	0.000232	20.897688
1696.449987	-3.007000	3.439000	-10.340000	25.738734	0.000231	20.886165
1697.448311	-3.021800	3.437800	-10.387000	25.768625	0.000230	20.872569
1698.449107	-3.008200	3.439000	-10.345000	25.747079	0.000229	20.896443
1699.451306	-3.007900	3.438300	-10.341000	25.782904	0.000229	20.896867
1700.451167	-2.975700	3.438200	-10.231000	25.787102	0.000228	20.901083
1701.457960	-2.999400	3.439800	-10.316000	25.779372	0.000228	20.891423
1702.452499	-2.993300	3.437400	-10.288000	25.736213	0.000228	20.895960
1703.452460	-3.006700	3.437700	-10.335000	25.702250	0.000228	20.874176
1704.449572	-2.992900	3.436700	-10.284000	25.721630	0.000230	20.877047
1705.458098	-2.971500	3.437200	-10.212000	25.696129	0.000228	20.885572
1706.453553	-2.987500	3.436800	-10.266000	25.733229	0.000229	20.884429
1707.451769	-2.970100	3.437600	-10.210000	25.754395	0.000226	20.887197
1708.452106	-2.986300	3.436000	-10.260000	25.824425	0.000227	20.857497
1709.454179	-2.978400	3.436400	-10.233000	25.820319	0.000226	20.890355
1710.454556	-2.992400	3.435000	-10.277000	25.827602	0.000226	20.876335
1711.456416	-3.001100	3.434400	-10.305000	25.839318	0.000225	20.878146
1712.458220	-2.984100	3.435100	-10.250000	25.863272	0.000226	20.889881
1713.451471	-2.996200	3.434300	-10.289000	25.829481	0.000226	20.862102
1714.459703	-3.008200	3.435000	-10.333000	25.859218	0.000223	20.857361
1715.453423	-2.993100	3.433900	-10.278000	25.895511	0.000224	20.871534
1716.454300	-2.993500	3.432500	-10.274000	25.958528	0.000225	20.884106
1717.457551	-3.001300	3.433200	-10.303000	25.970647	0.000223	20.855980
1718.451745	-3.002900	3.432400	-10.306000	25.910345	0.000225	20.893547
1719.453482	-3.006600	3.433300	-10.322000	25.873336	0.000222	20.872965
1720.457568	-2.983300	3.432100	-10.238000	25.832532	0.000222	20.876546
1721.454759	-2.983700	3.433200	-10.242000	25.848631	0.000223	20.904569
1722.456800	-2.995300	3.432100	-10.280000	25.834985	0.000222	20.864311
1723.458568	-2.995800	3.431100	-10.278000	25.810044	0.000222	20.866758
1724.455220	-3.008600	3.430000	-10.319000	25.840767	0.000222	20.870593
1725.458484	-3.015600	3.430100	-10.342000	25.892037	0.000221	20.869941
1726.461691	-3.025700	3.429500	-10.376000	25.916429	0.000221	20.881167
1727.455621	-3.001100	3.429400	-10.291000	25.857043	0.000221	20.876037
1728.455312	-3.007100	3.429400	-10.312000	25.836097	0.000220	20.856894
1729.454255	-2.994700	3.428700	-10.268000	25.839940	0.000219	20.870237
1730.458287	-2.979900	3.429800	-10.220000	25.841635	0.000219	20.877154
1731.457484	-2.991400	3.427700	-10.253000	25.879243	0.000220	20.893596
1732.457120	-3.009700	3.428000	-10.316000	25.876015	0.000221	20.849579
1733.458102	-2.983100	3.428200	-10.226000	25.931953	0.000222	20.870686
1734.462255	-2.996700	3.427600	-10.271000	25.954212	0.000219	20.872659
1735.458767	-2.986000	3.427000	-10.232000	25.956099	0.000218	20.860805
1736.459417	-2.997500	3.426800	-10.271000	25.979225	0.000218	20.855590
1737.457341	-2.987100	3.427600	-10.237000	25.900701	0.000218	20.866317
1738.458013	-2.996000	3.427100	-10.267000	25.869525	0.000218	20.860602
1739.459556	-3.002000	3.426200	-10.284000	25.821649	0.000217	20.870355
1740.461359	-3.011000	3.425600	-10.314000	25.808138	0.000217	20.848723
1741.459332	-3.007900	3.424500	-10.300000	25.783634	0.000216	20.850188
1742.464086	-3.014800	3.424800	-10.324000	25.804758	0.000217	20.858604
1743.457812	-3.012000	3.424600	-10.314000	25.854269	0.000216	20.866139
1744.460428	-3.002400	3.422800	-10.275000	25.891396	0.000215	20.847012
1745.464846	-2.992100	3.423000	-10.241000	25.948632	0.000217	20.841450
1746.462047	-2.982900	3.424200	-10.212000	25.922968	0.000212	20.864978
1747.466823	-2.995400	3.424000	-10.256000	25.955239	0.000216	20.859941
1748.465831	-2.995500	3.422700	-10.252000	25.911371	0.000216	20.843846
1749.466240	-2.986900	3.422800	-10.223000	25.918400	0.000215	20.874139
1750.463221	-3.009600	3.422900	-10.300000	25.933174	0.000213	20.848680
1751.466722	-3.005900	3.422200	-10.286000	25.933494	0.000213	20.855165
1752.462508	-3.004000	3.421300	-10.276000	25.908707	0.000214	20.844015
1753.466413	-3.011600	3.421800	-10.304000	25.909896	0.000212	20.849476
1754.464364	-3.028800	3.421000	-10.361000	25.908092	0.000213	20.863311
1755.465271	-3.007900	3.420100	-10.286000	25.904485	0.000212	20.867747
1756.464187	-2.996400	3.421100	-10.250000	25.844811	0.000211	20.845734
1757.468875	-3.009600	3.419700	-10.291000	25.857640	0.000214	20.839181
1758.464413	-3.015800	3.419900	-10.313000	25.869634	0.000213	20.855022
1759.470646	-3.015800	3.419400	-10.311000	25.871816	0.000212	20.854844
1760.470639	-2.977600	3.420200	-10.183000	25.875592	0.000212	20.849628
1761.464694	-3.001200	3.418700	-10.260000	25.923861	0.000212	20.854023
1762.466945	-2.982200	3.419100	-10.195000	25.876882	0.000212	20.854717
1763.472292	-2.992900	3.419000	-10.231000	25.897219	0.000213	20.852388
1764.470620	-3.010600	3.418100	-10.289000	25.869153	0.000211	20.865444
1765.469822	-2.989400	3.417900	-10.217000	25.877598	0.000211	20.847850
1766.479371	-3.002400	3.417700	-10.261000	25.876325	0.000210	20.858425
1767.473677	-2.999500	3.416500	-10.246000	25.857908	0.000210	20.851304
1768.475684	-3.006200	3.416300	-10.270000	25.858700	0.000211	20.844513
1769.476830	-3.013100	3.417400	-10.296000	25.889776	0.000209	20.827368
1770.472555	-3.020000	3.414500	-10.311000	25.876080	0.000208	20.838264
1771.475021	-3.018400	3.415400	-10.308000	25.844515	0.000208	20.844014
1772.477822	-3.017600	3.415500	-10.306000	25.899907	0.000209	20.830907
1773.475822	-2.987300	3.415800	-10.203000	25.946573	0.000206	20.858821
1774.472577	-3.010700	3.414900	-10.280000	25.942569	0.000206	20.847213
1775.475298	-3.006300	3.413700	-10.262000	25.919687	0.000208	20.826597
1776.475613	-2.999000	3.413300	-10.235000	25.872472	0.000206	20.840330
1777.472942	-3.004600	3.413600	-10.255000	25.853903	0.000204	20.851548
1778.474439	-3.012000	3.413800	-10.281000	25.886066	0.000206	20.836443
1779.475750	-2.984400	3.413500	-10.187000	25.900739	0.000203	20.851183
1780.479898	-2.987000	3.413400	-10.195000	25.876946	0.000205	20.851463
1781.472015	-3.013900	3.412300	-10.282000	25.880283	0.000206	20.844384
1782.474714	-2.995500	3.411700	-10.219000	25.876583	0.000206	20.835926
1783.478236	-3.005300	3.411800	-10.251000	25.882121	0.000204	20.843859
1784.475809	-3.022300	3.410300	-10.306000	25.861436	0.000201	20.828296
1785.475690	-2.989600	3.412100	-10.200000	25.820733	0.000202	20.842884
1786.473866	-3.018000	3.410300	-10.292000	25.843011	0.000202	20.842029
1787.476563	-2.991900	3.411700	-10.207000	25.846778	0.000201	20.842494
1788.473254	-3.012600	3.411300	-10.275000	25.844586	0.000201	20.854990
1789.473472	-2.995500	3.409800	-10.213000	25.816332	0.000200	20.825187
1790.474234	-3.007600	3.409400	-10.253000	25.835550	0.000203	20.831689
1791.476494	-2.987800	3.407800	-10.181000	25.908852	0.000200	20.805755
1792.477499	-3.002200	3.409100	-10.234000	25.950798	0.000200	20.846472
1793.478582	-3.024900	3.406900	-10.304000	25.934802	0.000201	20.813333
1794.479051	-3.008500	3.408500	-10.254000	25.937625	0.000201	20.843195
1795.477219	-2.981100	3.408900	-10.161000	25.963650	0.000201	20.835676
1796.478599	-3.019400	3.407300	-10.287000	25.913267	0.000198	20.833423
1797.476078	-2.984000	3.408600	-10.171000	25.894708	0.000202	20.841805
1798.474326	-2.997900	3.407000	-10.213000	25.913756	0.000199	20.835337
1799.489355	-2.988400	3.407100	-10.180000	25.919360	0.000198	20.840018
1800.476083	-2.985200	3.407400	-10.171000	25.884105	0.000200	20.833524
1801.482651	-3.002300	3.405200	-10.222000	25.885116	0.000198	20.829324
1802.484636	-3.009900	3.405100	-10.248000	25.887425	0.000198	20.846817
1803.479288	-2.984200	3.405500	-10.162000	25.869515	0.000200	20.813652
1804.479091	-3.007800	3.404800	-10.240000	25.876123	0.000198	20.827402
1805.477389	-2.990300	3.405600	-10.183000	25.915938	0.000198	20.806235
1806.483967	-2.985900	3.406100	-10.170000	25.952650	0.000198	20.819884
1807.481426	-3.009700	3.403300	-10.242000	25.968891	0.000197	20.814388
1808.478914	-3.000800	3.405000	-10.217000	25.964761	0.000198	20.813558
1809.483168	-3.005000	3.404400	-10.229000	25.972876	0.000195	20.833565
1810.492603	-3.003500	3.403700	-10.222000	26.010733	0.000197	20.825607
1811.492195	-3.001100	3.403400	-10.213000	26.037751	0.000195	20.828570
1812.483413	-2.999800	3.402000	-10.204000	26.026602	0.000196	20.834437
1813.483138	-3.005100	3.402600	-10.224000	26.000738	0.000193	20.802288
1814.483151	-3.013000	3.401100	-10.247000	25.972463	0.000195	20.792847
1815.482391	-3.012900	3.402300	-10.250000	25.967204	0.000193	20.813643
1816.483371	-2.987800	3.401900	-10.164000	26.009738	0.000195	20.823658
1817.490360	-2.996700	3.400200	-10.188000	25.977005	0.000193	20.820170
1818.485535	-3.000600	3.401600	-10.206000	25.955160	0.000191	20.810551
1819.482166	-2.971600	3.401200	-10.106000	25.942805	0.000192	20.805725
1820.492661	-3.002700	3.399000	-10.205000	25.872968	0.000193	20.799578
1821.505927	-2.988600	3.400900	-10.163000	25.854088	0.000192	20.801000
1822.483027	-2.976500	3.401300	-10.123000	25.873600	0.000192	20.813963
1823.485051	-2.973000	3.399800	-10.107000	25.896474	0.000192	20.801381
1824.490417	-3.003800	3.399000	-10.209000	25.886731	0.000193	20.817197
1825.487153	-3.005300	3.398200	-10.212000	25.852469	0.000192	20.808857
1826.484045	-2.984300	3.399000	-10.143000	25.867859	0.000193	20.811515
1827.489420	-2.977200	3.398500	-10.117000	25.878361	0.000190	20.815426
1828.483658	-2.999000	3.397500	-10.188000	25.877956	0.000191	20.798899
1829.489149	-2.999100	3.398000	-10.190000	25.896726	0.000190	20.804952
1830.492613	-3.015400	3.395700	-10.239000	25.906292	0.000192	20.807924
1831.489060	-2.997100	3.396700	-10.180000	25.927370	0.000191	20.812979
1832.487837	-3.026000	3.394900	-10.272000	25.971238	0.000191	20.797306
1833.492467	-2.993800	3.396900	-10.168000	25.984149	0.000190	20.803640
1834.488980	-3.006100	3.396000	-10.208000	25.953598	0.000189	20.808508
1835.486864	-3.012300	3.395100	-10.227000	25.974179	0.000190	20.795994
1836.499928	-2.970900	3.396200	-10.088000	25.957172	0.000189	20.795977
1837.488525	-2.988000	3.395600	-10.145000	25.965355	0.000190	20.800879
1838.492869	-2.999000	3.395400	-10.182000	25.997481	0.000188	20.802336
1839.490818	-2.995400	3.394100	-10.165000	26.011032	0.000189	20.810734
1840.492805	-2.969200	3.395900	-10.082000	26.046300	0.000190	20.809185
1841.492011	-2.977800	3.394300	-10.107000	26.086615	0.000190	20.799431
1842.495839	-2.980900	3.394000	-10.116000	26.080152	0.000188	20.799101
1843.493145	-3.004600	3.392800	-10.193000	26.038573	0.000187	20.795257
1844.491247	-2.986900	3.392600	-10.133000	25.979429	0.000188	20.802216
1845.494946	-2.992100	3.392600	-10.150000	25.974962	0.000187	20.814324
1846.490276	-2.970800	3.392800	-10.078000	25.973917	0.000188	20.788618
1847.493495	-3.001300	3.392300	-10.181000	25.991556	0.000185	20.800650
1848.493811	-3.001300	3.391900	-10.179000	26.038362	0.000185	20.810218
1849.506944	-2.974900	3.390900	-10.086000	26.012094	0.000186	20.797102
1850.493533	-2.981100	3.391300	-10.108000	25.943509	0.000185	20.788889
1851.494998	-2.992800	3.390700	-10.146000	25.900753	0.000185	20.793826
1852.493048	-3.009800	3.390400	-10.204000	25.931542	0.000184	20.799152
1853.491578	-3.000700	3.390000	-10.171000	25.898469	0.000183	20.789160
1854.493507	-2.968200	3.390400	-10.063000	25.952072	0.000184	20.797966
1855.494221	-2.995600	3.390500	-10.156000	25.954356	0.000183	20.779398
1856.495646	-2.996200	3.389600	-10.155000	25.973082	0.000183	20.796789
1857.495083	-3.004200	3.389900	-10.183000	26.028620	0.000183	20.782412
1858.493734	-2.993200	3.388000	-10.139000	26.033710	0.000185	20.803173
1859.498357	-3.005800	3.388800	-10.186000	26.027996	0.000182	20.806441
1860.500822	-2.966000	3.389200	-10.051000	25.976158	0.000183	20.802250
1861.494864	-3.028600	3.388100	-10.261000	25.969222	0.000182	20.801920
1862.496368	-3.005000	3.387000	-10.176000	26.001677	0.000181	20.811292
1863.496253	-3.017200	3.386400	-10.217000	26.019771	0.000180	20.806238
1864.497133	-2.997600	3.386200	-10.150000	26.057095	0.000179	20.808651
1865.500968	-2.982100	3.387700	-10.102000	26.041066	0.000182	20.811038
1866.505607	-2.994400	3.385700	-10.137000	25.988412	0.000178	20.791801
1867.497326	-2.993500	3.385400	-10.133000	25.985184	0.000180	20.805628
1868.499398	-2.995800	3.386200	-10.143000	26.024397	0.000180	20.790497
1869.500433	-2.980700	3.385800	-10.091000	26.031746	0.000182	20.795035
1870.496970	-2.988700	3.386700	-10.121000	26.069895	0.000181	20.791166
1871.497247	-2.971800	3.385600	-10.060000	26.069794	0.000178	20.807186
1872.501997	-3.002200	3.383700	-10.157000	26.005022	0.000178	20.795213
1873.498102	-3.017300	3.383500	-10.208000	25.982462	0.000177	20.805264
1874.500701	-2.995800	3.383200	-10.135000	25.993089	0.000179	20.805509
1875.509202	-3.009700	3.384000	-10.184000	25.977270	0.000177	20.834186
1876.494760	-3.009600	3.383800	-10.183000	25.950090	0.000175	20.812096
1877.501096	-2.992900	3.384100	-10.127000	25.920828	0.000174	20.803562
1878.501021	-3.008900	3.382200	-10.176000	25.953419	0.000175	20.815915
1879.498922	-2.994600	3.381700	-10.126000	25.973031	0.000175	20.836565
1880.497324	-2.982900	3.382500	-10.088000	25.992406	0.000177	20.783486
1881.502579	-3.004000	3.380800	-10.155000	26.013744	0.000175	20.815356
1882.502579	-2.989100	3.382000	-10.108000	26.043375	0.000176	20.815254
1883.507067	-2.989800	3.381300	-10.109000	26.058350	0.000174	20.820817
1884.501301	-3.015400	3.379400	-10.189000	26.038571	0.000173	20.830342
1885.501126	-2.975500	3.380700	-10.058000	25.996746	0.000175	20.800649
1886.508803	-3.001000	3.379100	-10.140000	25.990358	0.000175	20.820783
1887.508811	-3.036300	3.379400	-10.260000	25.982613	0.000175	20.833390
1888.501839	-3.009600	3.379000	-10.168000	25.955871	0.000176	20.806524
1889.510979	-2.997000	3.379800	-10.129000	25.982174	0.000172	20.809716
1890.507278	-3.014300	3.378100	-10.181000	25.996779	0.000174	20.809691
1891.499978	-2.996600	3.378900	-10.124000	25.990467	0.000174	20.822789
1892.508070	-3.017300	3.377600	-10.190000	25.967620	0.000172	20.811215
1893.507357	-2.983800	3.377800	-10.078000	26.017317	0.000172	20.809936
1894.503860	-2.979100	3.377400	-10.061000	26.018185	0.000170	20.818395
1895.505578	-2.994800	3.378200	-10.116000	26.033616	0.000172	20.820622
1896.512645	-2.998800	3.376000	-10.122000	26.063018	0.000172	20.796584
1897.504832	-3.009500	3.376700	-10.162000	26.070686	0.000171	20.835582
1898.504706	-2.989900	3.376500	-10.094000	26.085897	0.000172	20.814356
1899.509336	-3.001400	3.375800	-10.131000	26.147706	0.000169	20.816718
1900.501710	-2.980800	3.376100	-10.063000	26.093810	0.000168	20.841272
1901.509832	-3.018900	3.374300	-10.186000	26.081203	0.000170	20.810114
1902.509737	-3.010500	3.374200	-10.157000	26.109525	0.000172	20.829562
1903.507666	-2.968100	3.374200	-10.014000	26.147630	0.000171	20.819961
1904.512078	-3.023500	3.373600	-10.198000	26.153470	0.000169	20.821087
1905.505252	-3.005300	3.373700	-10.138000	26.138294	0.000168	20.825278
1906.509063	-2.995500	3.374100	-10.106000	26.122115	0.000169	20.816608
1907.507792	-3.009600	3.373900	-10.153000	26.161601	0.000170	20.817878
1908.504849	-3.019000	3.372100	-10.180000	26.169926	0.000167	20.831933
1909.508522	-2.969200	3.374600	-10.019000	26.160017	0.000166	20.835726
1910.505949	-2.972000	3.372600	-10.022000	26.184570	0.000167	20.839062
1911.506029	-3.006800	3.372600	-10.140000	26.166235	0.000168	20.831069
1912.508485	-2.993800	3.373700	-10.099000	26.141596	0.000165	20.815795
1913.508049	-3.019600	3.371000	-10.178000	26.090691	0.000167	20.836242
1914.509439	-2.997900	3.370600	-10.103000	26.092157	0.000167	20.814008
1915.509174	-3.000600	3.370700	-10.112000	26.095107	0.000166	20.826929
1916.510637	-3.002000	3.370300	-10.117000	26.055112	0.000165	20.833685
1917.510759	-2.980700	3.370800	-10.046000	26.071360	0.000164	20.820138
1918.509058	-2.981800	3.370000	-10.048000	26.106390	0.000165	20.833998
1919.509699	-2.974000	3.369500	-10.021000	26.110687	0.000165	20.844480
1920.508864	-2.991500	3.370400	-10.082000	26.098907	0.000163	20.822686
1921.507493	-3.000000	3.369100	-10.106000	26.090278	0.000162	20.841042
1922.517851	-2.990400	3.368600	-10.072000	26.077233	0.000163	20.851642
1923.510517	-2.989400	3.369200	-10.071000	26.159426	0.000161	20.841296
1924.509490	-3.008800	3.366800	-10.129000	26.189195	0.000159	20.836123
1925.510280	-3.000600	3.368100	-10.105000	26.175815	0.000161	20.846859
1926.510273	-2.999700	3.368300	-10.102000	26.141620	0.000161	20.852802
1927.509282	-3.017000	3.367800	-10.159000	26.141570	0.000161	20.832838
1928.509637	-3.017500	3.367600	-10.160000	26.189936	0.000161	20.819324
1929.509843	-3.006000	3.368000	-10.124000	26.231678	0.000161	20.829976
1930.514946	-2.992400	3.367300	-10.076000	26.273207	0.000159	20.839467
1931.508087	-3.017300	3.365900	-10.155000	26.239590	0.000161	20.843616
1932.533753	-2.980700	3.365200	-10.030000	26.238654	0.000161	20.832245
1933.513837	-3.012700	3.365000	-10.137000	26.258749	0.000160	20.830153
1934.510786	-2.990000	3.365200	-10.060000	26.228813	0.000160	20.828993
1935.511000	-3.019800	3.364200	-10.158000	26.241822	0.000157	20.823100
1936.515075	-3.004500	3.364800	-10.109000	26.249961	0.000157	20.839814
1937.509750	-2.995100	3.362900	-10.071000	26.203932	0.000158	20.844767
1938.513152	-2.985100	3.363800	-10.040000	26.180785	0.000156	20.836207
1939.519089	-3.006500	3.362700	-10.109000	26.157386	0.000157	20.841617
1940.509921	-2.997900	3.363200	-10.081000	26.111756	0.000157	20.830856
1941.510604	-2.993100	3.363000	-10.064000	26.130876	0.000157	20.836317
1942.515440	-2.988700	3.362100	-10.048000	26.151909	0.000156	20.854131
1943.510449	-2.992100	3.362900	-10.061000	26.110307	0.000157	20.848839
1944.513508	-2.977500	3.363600	-10.015000	26.088659	0.000156	20.851269
1945.515775	-3.017600	3.360700	-10.140000	26.132873	0.000157	20.846384
1946.513367	-3.022600	3.360700	-10.156000	26.166200	0.000156	20.853318
1947.513834	-2.997900	3.362100	-10.078000	26.152010	0.000156	20.850913
1948.521338	-2.999800	3.360500	-10.080000	26.154327	0.000157	20.844233
1949.511113	-2.988900	3.361200	-10.045000	26.159113	0.000157	20.863740
1950.512722	-3.005200	3.359800	-10.096000	26.132781	0.000156	20.840601
1951.517851	-2.992600	3.359600	-10.053000	26.130067	0.000156	20.850676
1952.515316	-2.993600	3.360200	-10.058000	26.108681	0.000153	20.848153
1953.516185	-3.003900	3.359100	-10.089000	26.110164	0.000155	20.823092
1954.519267	-3.009400	3.359300	-10.109000	26.130227	0.000154	20.848941
1955.516241	-2.977200	3.358100	-9.997200	26.139345	0.000155	20.846722
1956.516062	-2.984300	3.358100	-10.021000	26.156779	0.000155	20.860921
1957.517816	-2.981600	3.357300	-10.009000	26.188714	0.000154	20.862665
1958.513220	-2.987700	3.358900	-10.035000	26.196264	0.000154	20.869303
1959.522850	-3.021600	3.356000	-10.139000	26.178080	0.000154	20.874738
1960.517179	-3.003500	3.355800	-10.078000	26.184232	0.000153	20.867169
1961.515574	-3.014400	3.356300	-10.116000	26.156097	0.000152	20.859761
1962.519557	-3.010500	3.356100	-10.103000	26.126882	0.000154	20.857907
1963.519516	-2.983200	3.356800	-10.013000	26.157917	0.000152	20.858271
1964.519099	-2.995600	3.356700	-10.055000	26.198320	0.000151	20.852878
1965.518297	-3.035500	3.354100	-10.180000	26.238401	0.000152	20.871818
1966.521327	-2.989000	3.354800	-10.026000	26.245395	0.000151	20.852294
1967.518438	-2.989400	3.354600	-10.027000	26.208861	0.000150	20.862047
1968.520819	-3.000500	3.353700	-10.061000	26.199213	0.000149	20.830069
1969.518591	-3.011600	3.353300	-10.098000	26.272348	0.000150	20.874163
1970.515035	-3.012300	3.353000	-10.098000	26.276889	0.000147	20.851701
1971.522353	-2.994000	3.353300	-10.038000	26.280310	0.000148	20.858458
1972.525105	-2.994400	3.353700	-10.042000	26.262701	0.000148	20.865417
1973.519511	-2.989200	3.352700	-10.021000	26.253273	0.000149	20.858314
1974.524488	-2.994500	3.351800	-10.036000	26.285079	0.000149	20.859457
1975.520864	-2.998900	3.353100	-10.055000	26.243879	0.000149	20.874476
1976.520411	-3.025700	3.351100	-10.138000	26.218391	0.000147	20.853132
1977.521080	-2.993400	3.352100	-10.033000	26.198919	0.000147	20.868652
1978.520896	-3.001700	3.351900	-10.060000	26.257873	0.000146	20.857721
1979.520459	-2.983300	3.352000	-9.998300	26.291171	0.000146	20.851828
1980.521810	-2.966100	3.351500	-9.940600	26.275441	0.000147	20.888175
1981.522243	-3.005100	3.349800	-10.065000	26.238554	0.000147	20.877660
1982.520241	-3.021000	3.348300	-10.114000	26.239000	0.000147	20.857247
1983.521124	-3.017000	3.348000	-10.099000	26.273250	0.000147	20.887871
1984.524972	-2.980800	3.350700	-9.986100	26.284490	0.000149	20.870244
1985.520938	-2.966900	3.350500	-9.938900	26.258506	0.000147	20.884908
1986.528598	-2.994300	3.347800	-10.023000	26.234619	0.000145	20.893145
1987.523580	-2.989300	3.348000	-10.008000	26.246803	0.000147	20.873622
1988.522728	-2.985500	3.348000	-9.994200	26.296942	0.000146	20.868059
1989.524882	-2.998300	3.347800	-10.037000	26.321864	0.000145	20.881724
1990.524130	-2.997000	3.347900	-10.034000	26.309639	0.000146	20.868017
1991.522161	-3.009600	3.347000	-10.072000	26.344434	0.000143	20.863157
1992.527695	-3.009400	3.346000	-10.068000	26.372539	0.000145	20.868170
1993.531567	-2.992300	3.347900	-10.017000	26.392320	0.000144	20.893738
1994.523602	-3.033600	3.344600	-10.145000	26.370366	0.000142	20.895855
1995.526445	-2.978200	3.345900	-9.964200	26.344409	0.000142	20.882571
1996.526714	-3.016600	3.345600	-10.091000	26.369759	0.000145	20.890504
1997.530475	-2.993400	3.346000	-10.015000	26.410770	0.000142	20.876721
1998.529269	-3.040700	3.344500	-10.169000	26.374005	0.000140	20.913262
1999.530274	-3.003400	3.344800	-10.045000	26.307323	0.000142	20.885128
2000.523375	-3.007500	3.343400	-10.054000	26.294803	0.000141	20.891986
2001.524396	-3.009600	3.343400	-10.061000	26.298999	0.000142	20.880083
2002.531799	-3.016900	3.343700	-10.087000	26.305427	0.000142	20.885594
2003.523259	-3.032500	3.343300	-10.138000	26.337189	0.000142	20.897125
2004.531053	-2.997900	3.344100	-10.024000	26.310710	0.000142	20.889480
2005.543128	-2.991800	3.343600	-10.002000	26.311485	0.000141	20.912542
2006.527337	-3.030200	3.342000	-10.126000	26.334477	0.000142	20.887288
2007.525856	-2.995800	3.343700	-10.016000	26.325504	0.000139	20.893917
2008.532341	-2.997300	3.341700	-10.015000	26.296059	0.000140	20.891826
2009.529649	-3.007900	3.341600	-10.050000	26.253746	0.000139	20.884392
2010.528839	-2.997400	3.342500	-10.018000	26.273058	0.000138	20.880565
2011.531569	-2.993100	3.340800	-9.998600	26.303422	0.000137	20.907759
2012.526065	-2.996300	3.340400	-10.008000	26.356449	0.000137	20.912212
2013.529833	-3.012400	3.340800	-10.063000	26.383113	0.000135	20.901079
2014.531134	-3.015300	3.339000	-10.067000	26.428798	0.000137	20.900529
2015.528633	-3.023300	3.337900	-10.090000	26.447609	0.000136	20.904737
2016.529411	-3.012600	3.338400	-10.056000	26.452326	0.000137	20.899522
2017.532856	-2.994700	3.339000	-9.998200	26.444256	0.000135	20.920332
2018.527420	-3.013500	3.338200	-10.059000	26.401453	0.000134	20.922355
2019.530547	-3.004000	3.338600	-10.029000	26.346255	0.000135	20.917140
2020.532231	-3.018600	3.336400	-10.070000	26.358715	0.000135	20.899793
2021.527193	-2.986900	3.338700	-9.972100	26.363425	0.000135	20.904525
2022.529833	-3.001800	3.337200	-10.017000	26.412489	0.000134	20.911637
2023.537168	-2.995600	3.337000	-9.995600	26.456235	0.000134	20.899183
2024.532514	-3.017400	3.335600	-10.064000	26.451434	0.000135	20.906685
2025.531052	-3.014100	3.336000	-10.054000	26.445065	0.000134	20.909292
2026.537063	-2.990100	3.336200	-9.974500	26.502827	0.000134	20.903340
2027.532298	-3.006200	3.336200	-10.028000	26.552264	0.000134	20.905618
2028.532873	-2.979800	3.335700	-9.939000	26.474296	0.000136	20.929188
2029.538732	-2.971800	3.335600	-9.912000	26.485643	0.000134	20.908353
2030.529782	-2.971900	3.336100	-9.913600	26.485273	0.000133	20.919833
2031.534735	-2.992100	3.334400	-9.975700	26.498852	0.000132	20.917835
2032.534152	-2.995500	3.334500	-9.986700	26.488768	0.000132	20.925243
2033.533206	-2.999900	3.334900	-10.004000	26.495305	0.000132	20.919011
2034.536249	-2.991500	3.333100	-9.970200	26.479292	0.000132	20.915718
2035.537403	-3.011400	3.333000	-10.037000	26.435420	0.000133	20.912399
2036.531328	-3.012000	3.333100	-10.038000	26.502381	0.000132	20.917115
2037.532854	-3.003700	3.333500	-10.012000	26.534811	0.000133	20.928375
2038.536355	-2.987300	3.332400	-9.953700	26.581054	0.000132	20.934081
2039.535936	-2.997100	3.333100	-9.988600	26.558767	0.000129	20.914050
2040.539233	-2.987800	3.331500	-9.953200	26.541112	0.000132	20.931863
2041.531460	-3.024300	3.331100	-10.073000	26.528814	0.000132	20.942259
2042.536717	-2.996500	3.330800	-9.979700	26.504596	0.000129	20.920764
2043.531123	-3.002700	3.331500	-10.003000	26.496990	0.000130	20.942513
2044.535233	-3.004200	3.330800	-10.005000	26.508884	0.000131	20.941667
2045.535519	-2.987600	3.331600	-9.952400	26.503872	0.000128	20.935681
2046.535385	-3.016100	3.330000	-10.043000	26.512978	0.000129	20.932506
2047.535570	-3.005100	3.329100	-10.003000	26.499281	0.000128	20.923481
2048.539645	-2.973600	3.331000	-9.903700	26.479747	0.000130	20.941777
2049.534829	-2.984300	3.328600	-9.932900	26.429801	0.000126	20.946577
2050.535820	-3.000700	3.326800	-9.981800	26.409019	0.000129	20.937070
2051.537601	-3.008300	3.328500	-10.012000	26.411403	0.000129	20.949421
2052.532407	-3.000100	3.328900	-9.986100	26.400796	0.000128	20.959149
2053.534460	-3.017200	3.327300	-10.039000	26.422514	0.000128	20.952529
2054.539345	-3.006000	3.327600	-10.001000	26.443920	0.000126	20.954603
2055.536519	-3.011100	3.326500	-10.015000	26.431756	0.000127	20.973668
2056.533897	-2.999000	3.325700	-9.972800	26.461299	0.000126	20.961638
2057.540372	-2.971300	3.327400	-9.885700	26.467878	0.000126	20.946442
2058.533056	-3.002000	3.326000	-9.983300	26.465249	0.000126	20.933844
2059.537706	-2.997300	3.325500	-9.965800	26.460583	0.000124	20.958548
2060.542100	-3.014700	3.325300	-10.023000	26.487210	0.000124	20.948804
2061.534901	-3.002900	3.324700	-9.982300	26.513829	0.000124	20.945688
2062.537171	-3.015400	3.324900	-10.026000	26.532428	0.000126	20.956796
2063.536738	-3.005700	3.323700	-9.989100	26.578056	0.000125	20.946713
2064.538539	-3.010000	3.322500	-10.000000	26.595584	0.000123	20.953900
2065.540112	-3.015900	3.323000	-10.021000	26.592830	0.000123	20.969147
2066.540053	-2.991600	3.324100	-9.942500	26.601665	0.000124	20.959064
2067.538075	-2.993700	3.323600	-9.948800	26.580128	0.000124	20.980559
2068.537685	-3.016000	3.322600	-10.020000	26.553899	0.000121	20.946611
2069.538965	-3.009100	3.322600	-9.997100	26.558573	0.000123	20.940405
2070.540659	-3.012100	3.322500	-10.007000	26.612396	0.000125	20.961316
2071.541237	-3.008000	3.320200	-9.986800	26.639062	0.000123	20.945925
2072.541076	-2.992900	3.321500	-9.939800	26.627169	0.000123	20.962417
2073.540853	-2.983600	3.320200	-9.905300	26.645227	0.000123	20.961130
2074.539612	-3.009100	3.320400	-9.990300	26.639778	0.000121	20.951860
2075.544330	-3.000700	3.320200	-9.962000	26.635364	0.000122	20.976817
2076.542592	-3.024600	3.319100	-10.037000	26.672903	0.000123	20.960977
2077.544804	-2.983100	3.319100	-9.900300	26.648781	0.000121	20.957591
2078.547916	-2.988500	3.320200	-9.921500	26.663427	0.000119	20.934860
2079.543200	-2.993200	3.319600	-9.935300	26.656850	0.000119	20.973760
2080.544182	-2.973000	3.319500	-9.868400	26.693444	0.000120	20.980203
2081.546346	-2.995000	3.318300	-9.937500	26.705369	0.000118	20.977020
2082.539868	-2.986100	3.317900	-9.905900	26.694151	0.000119	20.957684
2083.546910	-2.997200	3.317400	-9.940600	26.710507	0.000121	20.984080
2084.552151	-2.996500	3.317100	-9.938600	26.695322	0.000116	21.003898
2085.548989	-2.998300	3.317600	-9.947400	26.678663	0.000117	20.970560
2086.549245	-3.002700	3.316400	-9.957000	26.714137	0.000116	20.957861
2087.551737	-2.993700	3.315400	-9.925200	26.695751	0.000117	20.986315
2088.546707	-2.985600	3.315700	-9.898900	26.676810	0.000117	20.952104
2089.548676	-2.991000	3.316100	-9.918100	26.679000	0.000117	20.971373
2090.549493	-3.002600	3.315700	-9.954700	26.655619	0.000117	20.964464
2091.547767	-3.013900	3.315100	-9.990600	26.612302	0.000116	20.978763
2092.545146	-3.000400	3.314300	-9.943400	26.602473	0.000115	20.981210
2093.550038	-3.010600	3.314600	-9.977700	26.608731	0.000114	20.968536
2094.546834	-3.021900	3.313400	-10.011000	26.656571	0.000116	20.952146
2095.545967	-3.007900	3.313500	-9.965100	26.637688	0.000115	20.974411
2096.551594	-2.980400	3.314700	-9.878400	26.585062	0.000116	20.959444
2097.549377	-3.019500	3.312200	-10.000000	26.616665	0.000116	20.961340
2098.555027	-2.998400	3.312800	-9.931500	26.693292	0.000113	20.944493
2099.551500	-3.016300	3.312800	-9.991000	26.742618	0.000114	20.963736
2100.548586	-3.018300	3.312300	-9.996600	26.751461	0.000115	20.968358
2101.549677	-3.007000	3.312500	-9.959600	26.701368	0.000115	20.959723
2102.551252	-3.021000	3.310600	-10.001000	26.693106	0.000115	20.959003
2103.546086	-2.984400	3.312400	-9.884800	26.665203	0.000112	20.966987
2104.553981	-2.985500	3.310900	-9.883600	26.695565	0.000112	20.956735
2105.551977	-3.002700	3.311600	-9.943100	26.731636	0.000112	20.950800
2106.548009	-2.986600	3.309300	-9.882600	26.759023	0.000114	20.955575
2107.553699	-3.009900	3.310000	-9.962000	26.732638	0.000112	20.949911
2108.551945	-2.991000	3.310500	-9.901100	26.721412	0.000114	20.961382
2109.552746	-2.996000	3.310100	-9.915700	26.730676	0.000113	20.959317
2110.553596	-3.006400	3.308800	-9.946500	26.674577	0.000113	20.952231
2111.550430	-3.009900	3.308700	-9.958200	26.647718	0.000110	20.960790
2112.548392	-2.987600	3.309400	-9.886100	26.670105	0.000112	20.948209
2113.550421	-2.996200	3.307900	-9.910500	26.700130	0.000110	20.950893
2114.550742	-2.991200	3.307200	-9.892000	26.697544	0.000107	20.933597
2115.550247	-3.003300	3.307200	-9.930500	26.724806	0.000111	20.951993
2116.552699	-2.977000	3.308400	-9.847800	26.791547	0.000113	20.951765
2117.561077	-3.026400	3.305600	-10.003000	26.814831	0.000109	20.946253
2118.555425	-3.007700	3.305700	-9.941500	26.861248	0.000111	20.925596
2119.551798	-3.014400	3.305600	-9.963500	26.820389	0.000111	20.947100
2120.557200	-3.019300	3.304800	-9.977600	26.837644	0.000109	20.936949
2121.551995	-3.001700	3.304500	-9.917500	26.778527	0.000110	20.952425
2122.556555	-3.018100	3.305700	-9.974900	26.792002	0.000110	20.935155
2123.559328	-2.993200	3.304400	-9.890000	26.778915	0.000108	20.955659
2124.557166	-3.009600	3.304300	-9.942900	26.755292	0.000107	20.946609
2125.555507	-3.010100	3.303700	-9.944400	26.747848	0.000106	20.929169
2126.560347	-2.989000	3.303100	-9.872500	26.781803	0.000106	20.932488
2127.558886	-3.005700	3.303300	-9.927700	26.841787	0.000107	20.956760
2128.558823	-2.989800	3.302900	-9.873700	26.834116	0.000107	20.943358
2129.559028	-3.002500	3.302100	-9.913200	26.885937	0.000107	20.941411
2130.555582	-2.988700	3.302600	-9.869100	26.851665	0.000104	20.929711
2131.559642	-3.023600	3.301800	-9.982800	26.834941	0.000105	20.927594
2132.558126	-3.008500	3.301800	-9.932500	26.833888	0.000106	20.928907
2133.555114	-3.009600	3.300700	-9.933000	26.793240	0.000102	20.937821
2134.555737	-2.986800	3.300400	-9.856600	26.743839	0.000103	20.935569
2135.560106	-3.006300	3.299400	-9.918000	26.771336	0.000105	20.935239
2136.557483	-3.009700	3.299600	-9.930200	26.809215	0.000102	20.930651
2137.559871	-3.006300	3.300200	-9.919900	26.903275	0.000104	20.947938
2138.564301	-2.999900	3.298700	-9.894800	26.923677	0.000103	20.925783
2139.558105	-2.996400	3.299600	-9.884800	26.945309	0.000103	20.943739
2140.561426	-2.988300	3.299100	-9.856800	26.890417	0.000103	20.931218
2141.558664	-3.011200	3.298700	-9.931400	26.887083	0.000105	20.918858
2142.561866	-3.002200	3.298000	-9.900600	26.915299	0.000101	20.935375
2143.567352	-3.019300	3.296500	-9.952600	26.913902	0.000101	20.932073
2144.565080	-3.016300	3.297300	-9.944300	26.942539	0.000102	20.911560
2145.559085	-3.014100	3.296400	-9.935200	26.932805	9.991483E-5	20.930219
2146.559653	-3.002300	3.296800	-9.897400	26.892396	0.000100	20.910451
2147.560811	-2.990000	3.298100	-9.860500	26.928806	0.000101	20.932361
2148.560169	-3.002400	3.296500	-9.896400	26.960356	0.000102	20.925682
2149.561216	-2.996100	3.295400	-9.873000	26.944947	9.806669E-5	20.940531
2150.558125	-2.994400	3.294700	-9.864400	26.938784	0.000101	20.931964
2151.561149	-3.004500	3.293500	-9.894700	26.960895	0.000101	20.915794
2152.561884	-2.997400	3.294400	-9.874100	26.940586	9.892475E-5	20.918605
2153.564270	-3.006200	3.293100	-9.898900	26.917178	9.961780E-5	20.917826
2154.563879	-2.997700	3.293800	-9.873100	26.881257	9.988182E-5	20.921534
2155.562790	-3.006500	3.293500	-9.900400	26.875556	9.783567E-5	20.948041
2156.564150	-2.990600	3.292300	-9.845200	26.805738	9.763766E-5	20.921940
2157.561363	-2.999800	3.292200	-9.874400	26.798681	9.648258E-5	20.919587
2158.563147	-3.000600	3.292400	-9.878700	26.762478	9.585553E-5	20.928705
2159.558373	-3.006700	3.291000	-9.894000	26.743967	9.644957E-5	20.933802
2160.562625	-2.997400	3.291000	-9.863500	26.769383	9.572352E-5	20.910046
2161.564244	-3.003600	3.291700	-9.885600	26.778630	9.473345E-5	20.914601
2162.565284	-3.018100	3.289800	-9.927400	26.774950	9.555851E-5	20.932236
2163.562816	-3.012400	3.289200	-9.907100	26.852248	9.701061E-5	20.922711
2164.566563	-3.001400	3.290100	-9.874200	26.931241	9.681260E-5	20.926750
2165.568163	-2.981000	3.289000	-9.803800	26.982249	9.440342E-5	20.909293
2166.564670	-3.012200	3.289200	-9.907200	27.038509	9.460144E-5	20.923194
2167.565608	-3.015000	3.288800	-9.915100	27.072034	9.404040E-5	20.928460
2168.565113	-3.004100	3.289200	-9.880000	27.020845	9.318233E-5	20.925345
2169.570538	-3.002600	3.287600	-9.870200	26.989743	9.433742E-5	20.918250
2170.568104	-2.974600	3.287600	-9.778500	26.960610	9.506347E-5	20.896069
2171.565844	-2.991400	3.287700	-9.834100	27.014379	9.407340E-5	20.914102
2172.569606	-2.994100	3.286500	-9.839300	27.032102	9.509647E-5	20.920070
2173.566886	-3.005400	3.287600	-9.879300	26.967473	9.417241E-5	20.917666
2174.567374	-2.995900	3.286300	-9.844200	26.981946	9.437042E-5	20.926056
2175.573034	-2.985300	3.286000	-9.807900	27.048629	9.166422E-5	20.895442
2176.567748	-3.008600	3.285100	-9.882500	27.047551	9.324834E-5	20.918064
2177.565175	-3.000900	3.285800	-9.859100	27.009117	9.173023E-5	20.900751
2178.571836	-3.028000	3.283100	-9.939400	27.047214	9.123519E-5	20.898287
2179.570078	-2.986500	3.283900	-9.805900	27.026865	9.397439E-5	20.895840
2180.565419	-3.004300	3.283100	-9.863200	26.990534	9.202725E-5	20.907193
2181.570262	-2.972000	3.283000	-9.756000	27.034409	9.209325E-5	20.911960
2182.569551	-3.013100	3.280700	-9.883700	27.010708	9.156522E-5	20.901877
2183.582924	-2.997400	3.283800	-9.842300	27.055432	9.057514E-5	20.909869
2184.575721	-3.010100	3.283100	-9.881500	27.085008	8.978309E-5	20.908319
2185.569973	-2.988400	3.283300	-9.810800	27.110088	9.014611E-5	20.915524
2186.566426	-2.982300	3.282300	-9.788600	27.099522	9.232427E-5	20.890676
2187.574337	-2.992300	3.282500	-9.820700	27.059692	8.928805E-5	20.921264
2188.570150	-2.995700	3.282200	-9.831800	27.051946	9.130120E-5	20.893089
2189.569585	-3.011800	3.280100	-9.877400	27.114558	9.067415E-5	20.920968
2190.575319	-2.990400	3.280100	-9.808100	27.115324	8.882602E-5	20.883810
2191.571091	-2.997800	3.278500	-9.827800	27.185147	9.017911E-5	20.914678
2192.572367	-3.018700	3.279300	-9.898800	27.098259	8.767093E-5	20.886087
2193.576901	-2.975500	3.280400	-9.759200	27.023556	9.017911E-5	20.887298
2194.571642	-3.001200	3.280000	-9.843300	26.994593	8.846299E-5	20.910326
2195.570343	-3.015800	3.278200	-9.885400	27.063859	8.852899E-5	20.909810
2196.577529	-2.998800	3.277400	-9.827100	27.124450	8.856200E-5	20.908633
2197.573342	-3.005000	3.277200	-9.847200	27.130217	8.724190E-5	20.913958
2198.575175	-2.998100	3.277300	-9.824500	27.084478	8.677987E-5	20.905416
2199.577099	-2.999400	3.274900	-9.821200	27.109271	8.625183E-5	20.900954
2200.573834	-2.995500	3.277400	-9.816200	27.089285	8.615282E-5	20.906457
2201.577531	-2.984100	3.275800	-9.774900	27.028271	8.430469E-5	20.891565
2202.571781	-2.979300	3.276000	-9.759300	27.011314	8.635083E-5	20.908176
2203.573810	-2.995700	3.275300	-9.810800	27.036893	8.367764E-5	20.895494
2204.576941	-3.020800	3.274400	-9.890500	27.108101	8.486573E-5	20.909259
2205.582199	-2.991600	3.274900	-9.795700	27.141086	8.430469E-5	20.904976
2206.576482	-3.001100	3.275200	-9.827900	27.136321	8.354563E-5	20.898762
2207.578926	-2.977900	3.274400	-9.750600	27.110046	8.489873E-5	20.900785
2208.580803	-2.979500	3.272500	-9.749600	27.123095	8.453570E-5	20.897314
2209.578466	-3.012800	3.272900	-9.859700	27.088671	8.400766E-5	20.906788
2210.581737	-3.015100	3.272600	-9.866500	27.106586	8.364464E-5	20.910107
2211.577619	-2.998100	3.271800	-9.808700	27.145557	8.460171E-5	20.887663
2212.577429	-2.990200	3.272600	-9.785200	27.215327	8.311660E-5	20.912791
2213.579281	-3.030100	3.271200	-9.910900	27.210394	8.176350E-5	20.904985
2214.579494	-3.020900	3.269600	-9.876500	27.139158	8.331461E-5	20.895926
2215.576555	-2.984800	3.270900	-9.761900	27.122473	8.252256E-5	20.894792
2216.578454	-3.006700	3.270200	-9.832100	27.129966	8.404067E-5	20.893318
2217.579367	-2.995000	3.271700	-9.797900	27.135749	8.394166E-5	20.902928
2218.577719	-2.992700	3.269700	-9.784400	27.097410	8.126846E-5	20.886181
2219.581449	-3.007700	3.268900	-9.830900	27.049843	8.113645E-5	20.907567
2220.577096	-2.998500	3.269400	-9.802900	27.112169	8.064142E-5	20.907186
2221.578418	-2.990500	3.267400	-9.769200	27.172361	8.083943E-5	20.899448
2222.580360	-2.997300	3.268700	-9.795600	27.207473	8.090544E-5	20.889246
2223.581509	-3.013600	3.268000	-9.847300	27.195680	8.212653E-5	20.881652
2224.583663	-3.007100	3.267700	-9.825400	27.148386	7.984936E-5	20.897146
2225.581123	-3.002000	3.267500	-9.808000	27.127567	8.037740E-5	20.896595
2226.583832	-2.978600	3.267700	-9.732100	27.127836	7.862827E-5	20.876954
2227.579502	-3.001200	3.266400	-9.801800	27.119123	7.932132E-5	20.880044
2228.583190	-2.980100	3.267700	-9.737200	27.077391	8.050941E-5	20.892599
2229.579671	-3.011800	3.264300	-9.830500	27.069864	7.823224E-5	20.883608
2230.576492	-2.988700	3.265000	-9.757000	27.082004	8.047641E-5	20.886334
2231.582253	-2.989600	3.263900	-9.757000	27.113601	7.925532E-5	20.867853
2232.582365	-3.000100	3.263700	-9.790800	27.112414	7.991536E-5	20.884675
2233.579223	-3.021400	3.263200	-9.857800	27.116749	7.909030E-5	20.876709
2234.579342	-3.004000	3.263400	-9.802800	27.138141	7.793522E-5	20.898222
2235.578300	-3.018600	3.262900	-9.847600	27.145482	7.483299E-5	20.882847
2236.579259	-3.007700	3.260900	-9.806900	27.091493	7.638411E-5	20.879756
2237.579799	-2.985900	3.261800	-9.738800	27.121658	7.783621E-5	20.894446
2238.581230	-3.022000	3.260200	-9.850800	27.201455	7.763820E-5	20.887461
2239.587374	-2.992600	3.261900	-9.760300	27.279623	7.678014E-5	20.868412
2240.580529	-2.990800	3.262000	-9.754900	27.245507	7.638411E-5	20.877242
2241.576395	-2.982000	3.260200	-9.720800	27.266391	7.790222E-5	20.884972
2242.579389	-2.998100	3.259600	-9.771500	27.205732	7.493200E-5	20.896978
2243.581080	-2.995000	3.259900	-9.762400	27.209007	7.717616E-5	20.875617
2244.581504	-3.010300	3.258400	-9.807600	27.197297	7.430495E-5	20.859099
2245.578391	-2.998000	3.258600	-9.767600	27.157866	7.288585E-5	20.878707
2246.579962	-2.993200	3.257600	-9.750000	27.118560	7.691214E-5	20.869996
2247.578300	-3.020100	3.257700	-9.837600	27.149448	7.470098E-5	20.865500
2248.582911	-3.018500	3.257300	-9.831400	27.145626	7.080670E-5	20.878725
2249.581540	-2.982200	3.256700	-9.710600	27.104855	7.311687E-5	20.868540
2250.582367	-3.004300	3.257000	-9.784300	27.130490	7.598808E-5	20.863976
2251.583731	-3.015900	3.256500	-9.820500	27.170082	7.387592E-5	20.894311
2252.584067	-3.006100	3.255800	-9.785700	27.215212	7.222580E-5	20.873323
2253.583679	-3.022200	3.254700	-9.835400	27.272486	7.437096E-5	20.868820
2254.589038	-3.021000	3.253900	-9.829100	27.324657	7.354590E-5	20.894744
2255.584699	-3.005200	3.255200	-9.781800	27.343250	7.420595E-5	20.864138
2256.587540	-3.051600	3.252000	-9.923300	27.328344	7.413994E-5	20.868109
2257.585622	-3.010700	3.253500	-9.793900	27.319287	7.321587E-5	20.865163
2258.586259	-3.014100	3.252700	-9.802200	27.359512	7.371091E-5	20.852048
2259.586586	-2.995100	3.253000	-9.742100	27.390789	7.222580E-5	20.857907
2260.589509	-2.998000	3.251600	-9.747000	27.351676	7.522902E-5	20.863131
2261.586828	-2.985900	3.253900	-9.713800	27.429117	7.252282E-5	20.865172
2262.587061	-3.002200	3.251400	-9.759700	27.392069	7.060868E-5	20.878160
2263.584991	-2.978700	3.252100	-9.685600	27.371136	7.126873E-5	20.850465
2264.587499	-2.972800	3.251400	-9.664600	27.332924	7.074069E-5	20.858966
2265.587094	-3.000100	3.252000	-9.755500	27.296798	7.173077E-5	20.867670
2266.586915	-2.996800	3.250300	-9.739500	27.341745	7.116972E-5	20.852668
2267.584274	-3.028000	3.247800	-9.833400	27.349927	7.047667E-5	20.862320
2268.586892	-3.008400	3.248400	-9.771800	27.358066	6.978362E-5	20.869558
2269.587891	-3.005100	3.249100	-9.763200	27.331587	6.839752E-5	20.878008
2270.589246	-2.985700	3.249400	-9.700900	27.273853	6.998164E-5	20.859289
2271.587226	-3.001200	3.248800	-9.749000	27.306125	6.951960E-5	20.841018
2272.583345	-2.989000	3.248200	-9.707800	27.310334	7.169776E-5	20.859002
2273.588626	-2.996900	3.247900	-9.733200	27.330678	7.037767E-5	20.869983
2274.587426	-3.038300	3.244800	-9.857400	27.367536	6.767147E-5	20.855852
2275.588260	-2.997600	3.246500	-9.731200	27.366787	6.951960E-5	20.868849
2276.592622	-2.997100	3.246400	-9.728300	27.321083	6.905757E-5	20.860332
2277.588424	-3.009700	3.246100	-9.768100	27.281699	6.608735E-5	20.846319
2278.589375	-2.997500	3.244600	-9.724200	27.344399	6.843052E-5	20.850121
2279.584319	-2.978900	3.244400	-9.664200	27.383697	6.734144E-5	20.829437
2280.587695	-2.990800	3.244000	-9.700900	27.423414	6.638437E-5	20.873184
2281.589618	-2.997600	3.243900	-9.721900	27.501641	6.717643E-5	20.842832
2282.586608	-3.010000	3.243500	-9.762200	27.481393	6.767147E-5	20.849961
2283.587960	-3.005400	3.243800	-9.748200	27.464132	6.493227E-5	20.854880
2284.592575	-2.989800	3.243400	-9.696500	27.430341	6.724244E-5	20.830843
2285.590065	-3.008700	3.242000	-9.753300	27.418197	6.364517E-5	20.856557
2286.589502	-2.995500	3.243500	-9.714600	27.410134	6.516328E-5	20.842282
2287.593331	-3.009000	3.241900	-9.754000	27.353920	6.529529E-5	20.833147
2288.585705	-2.996800	3.241600	-9.713100	27.290825	6.456924E-5	20.829896
2289.588492	-2.999800	3.241000	-9.721100	27.326371	6.404120E-5	20.815392
2290.593638	-3.009100	3.239900	-9.748600	27.270919	6.430522E-5	20.835002
2291.591136	-3.004300	3.241200	-9.736400	27.258065	6.404120E-5	20.836297
2292.592365	-3.009600	3.239800	-9.749000	27.293620	6.440423E-5	20.857362
2293.593509	-3.007300	3.238800	-9.739200	27.281929	6.460224E-5	20.839439
2294.588557	-2.989800	3.239200	-9.683800	27.370662	6.301813E-5	20.840506
2295.591510	-2.993600	3.236800	-9.688100	27.440266	6.334815E-5	20.827552
2296.595472	-3.025100	3.237800	-9.794000	27.461172	6.295212E-5	20.830566
2297.589351	-3.013800	3.238800	-9.760300	27.445291	6.522929E-5	20.825969
2298.592525	-2.980200	3.237400	-9.646800	27.413857	6.169803E-5	20.837492
2299.602342	-3.010200	3.236600	-9.741800	27.371808	6.255609E-5	20.814158
2300.594666	-3.003500	3.235400	-9.716200	27.332106	6.318314E-5	20.803617
2301.592484	-3.009600	3.235300	-9.736200	27.388667	6.169803E-5	20.829695
2302.592350	-3.042900	3.233900	-9.839100	27.440116	6.371118E-5	20.818392
2303.596146	-3.000300	3.235000	-9.704800	27.503337	6.258910E-5	20.834581
2304.595995	-3.007600	3.234700	-9.727700	27.525335	6.318314E-5	20.823997
2305.600718	-2.977700	3.234300	-9.629700	27.504952	6.179704E-5	20.818663
2306.595290	-2.997100	3.233600	-9.690900	27.437045	6.192905E-5	20.821940
2307.598315	-3.011800	3.233100	-9.736200	27.376565	5.994890E-5	20.827004
2308.601780	-3.021500	3.231300	-9.762300	27.343445	6.050994E-5	20.817394
2309.603094	-2.980000	3.233000	-9.633700	27.362669	6.192905E-5	20.813499
2310.600245	-3.004500	3.231000	-9.706400	27.437332	6.407421E-5	20.814168
2311.601945	-2.986000	3.232100	-9.650400	27.472730	6.067496E-5	20.818012
2312.599982	-3.018000	3.232200	-9.754400	27.485076	5.918985E-5	20.830908
2313.604302	-3.010800	3.229800	-9.723500	27.523788	6.070796E-5	20.803475
2314.607415	-3.027000	3.227800	-9.769700	27.530260	6.087297E-5	20.798607
2315.595642	-2.997400	3.230300	-9.682500	27.488493	6.044394E-5	20.797836
2316.597427	-3.001500	3.228500	-9.689400	27.478311	5.981689E-5	20.814144
2317.605832	-2.976000	3.229600	-9.610700	27.494334	6.050994E-5	20.823153
2318.600566	-2.980300	3.228200	-9.620500	27.504702	5.978389E-5	20.825050
2319.603340	-2.989700	3.229800	-9.655300	27.506681	5.994890E-5	20.812341
2320.606335	-2.995500	3.228000	-9.668700	27.518900	5.796876E-5	20.813730
2321.601655	-2.976800	3.226800	-9.604600	27.517217	6.031193E-5	20.812037
2322.600303	-2.997900	3.225900	-9.669500	27.509946	5.935486E-5	20.813256
2323.605361	-2.989100	3.226600	-9.643700	27.507615	5.928885E-5	20.807592
2324.599524	-2.994100	3.225500	-9.657000	27.531675	6.004791E-5	20.812359
2325.601604	-3.011900	3.225500	-9.714100	27.575645	6.100498E-5	20.840951
2326.604498	-2.982100	3.225000	-9.616100	27.611779	6.110399E-5	20.827523
2327.600720	-3.007100	3.224600	-9.695200	27.589505	5.951987E-5	20.808905
2328.607951	-3.009900	3.222500	-9.698200	27.523479	5.747372E-5	20.776611
2329.603921	-2.986400	3.223400	-9.625100	27.489076	5.948687E-5	20.797949
2330.603348	-3.006100	3.221500	-9.683100	27.542995	5.879382E-5	20.799566
2331.602408	-3.030800	3.221400	-9.761700	27.482301	5.678067E-5	20.804883
2332.605046	-3.011300	3.221400	-9.699200	27.511243	5.734171E-5	20.806975
2333.603503	-2.972200	3.221000	-9.571900	27.577893	5.816677E-5	20.781573
2334.611748	-3.031000	3.221300	-9.763000	27.602944	5.760573E-5	20.800142
2335.611072	-3.022500	3.220400	-9.732100	27.600361	5.876082E-5	20.795172
2336.602499	-2.998100	3.219400	-9.650800	27.621844	5.585660E-5	20.790709
2337.608015	-2.993700	3.219600	-9.637900	27.631117	5.499854E-5	20.796721
2338.609867	-2.993900	3.218300	-9.634800	27.660037	5.846379E-5	20.787890
2339.604798	-3.010800	3.218700	-9.690000	27.613606	5.711069E-5	20.808973
2340.605503	-3.003600	3.218300	-9.665500	27.567533	5.687968E-5	20.812876
2341.609181	-2.998000	3.217100	-9.644300	27.571875	5.681367E-5	20.791640
2342.605374	-3.005600	3.216200	-9.666000	27.573878	5.486653E-5	20.786069
2343.607265	-2.995700	3.216500	-9.634300	27.550845	5.819977E-5	20.790395
2344.616313	-2.986200	3.216300	-9.603500	27.509399	5.631864E-5	20.805594
2345.608835	-2.985200	3.215700	-9.598600	27.464451	5.549358E-5	20.789295
2346.607926	-3.041800	3.212700	-9.770600	27.508432	5.569159E-5	20.789447
2347.611224	-3.000100	3.214500	-9.642600	27.489833	5.513055E-5	20.803451
2348.608799	-2.993400	3.214600	-9.621900	27.431341	5.608762E-5	20.799133
2349.607971	-3.005500	3.213000	-9.656000	27.473438	5.318341E-5	20.807820
2350.613113	-3.021800	3.213100	-9.708700	27.483108	5.628563E-5	20.811385
2351.607934	-3.002100	3.212700	-9.643900	27.512328	5.456951E-5	20.793841
2352.609291	-3.000600	3.212400	-9.638600	27.553336	5.334842E-5	20.794798
2353.612147	-3.001200	3.211200	-9.636200	27.549558	5.298539E-5	20.808066
2354.609484	-3.016800	3.211600	-9.685900	27.552209	5.466852E-5	20.775646
2355.612943	-2.998100	3.211200	-9.627200	27.576840	5.466852E-5	20.787152
2356.613978	-3.010000	3.210400	-9.662000	27.535504	5.384346E-5	20.783968
2357.609773	-2.997100	3.209100	-9.617300	27.538298	5.110425E-5	20.798634
2358.611922	-2.990200	3.209300	-9.595900	27.500823	5.192932E-5	20.811190
2359.614636	-3.002300	3.207500	-9.629100	27.569199	5.348043E-5	20.778042
2360.609613	-3.001600	3.208600	-9.630400	27.537179	5.120326E-5	20.788973
2361.610303	-2.988300	3.209200	-9.589400	27.542413	5.117026E-5	20.784756
2362.614402	-3.010400	3.208900	-9.659400	27.517461	5.189631E-5	20.786204
2363.608978	-3.001000	3.207200	-9.624300	27.523260	5.070823E-5	20.807211
2364.613125	-3.008400	3.206900	-9.647400	27.544736	5.123626E-5	20.804163
2365.613807	-3.011600	3.207100	-9.656800	27.577522	5.126927E-5	20.804434
2366.611945	-3.007000	3.204700	-9.635500	27.587199	5.057622E-5	20.802317
2367.611818	-2.982100	3.204800	-9.556200	27.604265	5.229234E-5	20.806212
2368.616945	-2.970300	3.204500	-9.517400	27.553564	5.074123E-5	20.782699
2369.614227	-3.010300	3.204800	-9.646700	27.542557	5.189631E-5	20.804341
2370.614594	-3.009900	3.204100	-9.642700	27.589901	5.037820E-5	20.777534
2371.621965	-3.006600	3.202200	-9.626700	27.641088	5.245735E-5	20.782098
2372.614584	-3.001900	3.202900	-9.614200	27.622247	5.305140E-5	20.781158
2373.613688	-3.003300	3.202500	-9.617600	27.616643	5.103825E-5	20.780260
2374.622993	-2.989000	3.200900	-9.567400	27.628449	5.113726E-5	20.794036
2375.614904	-2.999400	3.201400	-9.601600	27.671480	5.153329E-5	20.769532
2376.620067	-2.975500	3.202900	-9.529300	27.703698	5.044421E-5	20.794840
2377.622847	-2.998500	3.202800	-9.603100	27.748115	4.905810E-5	20.794019
2378.613753	-2.987300	3.202500	-9.565300	27.742773	5.206132E-5	20.800497
2379.614946	-3.003700	3.199200	-9.608300	27.802189	4.820004E-5	20.794384
2380.621925	-3.003600	3.197800	-9.603900	27.817291	4.978416E-5	20.798676
2381.618095	-3.009400	3.198700	-9.623900	27.734957	5.080723E-5	20.794054
2382.617813	-3.020800	3.197600	-9.657800	27.763202	4.793602E-5	20.790709
2383.620344	-3.001000	3.197100	-9.593500	27.750354	5.021319E-5	20.786789
2384.616128	-2.994200	3.197000	-9.571000	27.735151	4.955314E-5	20.782869
2385.614219	-3.010000	3.196100	-9.618400	27.699021	4.919011E-5	20.801987
2386.619397	-2.990200	3.194500	-9.551000	27.682277	4.744099E-5	20.798415
2387.617125	-2.995900	3.195500	-9.572600	27.731870	4.915711E-5	20.801378
2388.625095	-2.976500	3.193400	-9.504000	27.695571	4.694595E-5	20.780024
2389.621493	-3.028100	3.192200	-9.665600	27.668536	4.833205E-5	20.804028
2390.620111	-3.004800	3.190900	-9.586700	27.677237	4.757300E-5	20.799507
2391.621227	-3.001400	3.192000	-9.580000	27.704019	4.803503E-5	20.780939
2392.620074	-2.996200	3.191600	-9.561500	27.648485	4.529583E-5	20.793335
2393.621770	-3.009100	3.192500	-9.606000	27.625875	4.796902E-5	20.798559
2394.619110	-2.989400	3.191500	-9.539800	27.635148	4.625290E-5	20.799355
2395.629998	-2.999100	3.189500	-9.565100	27.602137	4.621990E-5	20.790321
2396.621430	-2.988000	3.190100	-9.530500	27.609079	4.496580E-5	20.797306
2397.622541	-2.993100	3.188600	-9.542100	27.615104	4.635191E-5	20.803369
2398.626516	-2.994200	3.188300	-9.545600	27.641906	4.476779E-5	20.827491
2399.625260	-3.009400	3.188200	-9.593900	27.716834	4.595588E-5	20.808059
2400.624922	-2.998600	3.189100	-9.562100	27.665963	4.562585E-5	20.818508
2401.630577	-2.985000	3.186900	-9.512200	27.670649	4.572486E-5	20.802362
2402.624014	-2.990900	3.187100	-9.531100	27.644363	4.450377E-5	20.827119
2403.625519	-3.017400	3.185000	-9.609800	27.591391	4.598888E-5	20.808432
2404.626410	-3.010200	3.185600	-9.588800	27.546514	4.410774E-5	20.802633
2405.624267	-3.004800	3.182900	-9.563400	27.610578	4.414074E-5	20.802607
2406.627965	-2.985600	3.184000	-9.505100	27.650876	4.433876E-5	20.806172
2407.625000	-2.981300	3.184700	-9.494400	27.665257	4.384372E-5	20.788874
2408.624413	-2.991900	3.182400	-9.520200	27.649908	4.509781E-5	20.810414
2409.624031	-2.977900	3.182700	-9.477400	27.654444	4.390973E-5	20.817823
2410.624014	-3.000200	3.181400	-9.543300	27.712595	4.387672E-5	20.818018
2411.625117	-2.988500	3.180900	-9.505500	27.708750	4.463578E-5	20.821261
2412.626473	-3.000500	3.180100	-9.541600	27.690593	4.282065E-5	20.790187
2413.630839	-3.018400	3.180400	-9.599500	27.691585	4.258963E-5	20.803040
2414.621554	-3.010800	3.179500	-9.571700	27.741279	4.186358E-5	20.793777
2415.626840	-3.010100	3.179700	-9.570600	27.793031	4.460278E-5	20.801288
2416.630569	-2.981800	3.178800	-9.477300	27.814182	4.117053E-5	20.804556
2417.625823	-3.021500	3.176800	-9.597900	27.848987	4.018045E-5	20.808291
2418.629043	-3.006100	3.176400	-9.547700	27.782363	4.176457E-5	20.806673
2419.624928	-3.024400	3.175800	-9.603500	27.781101	4.262263E-5	20.813938
2420.629162	-3.008000	3.175900	-9.552600	27.739117	4.212760E-5	20.820525
2421.629045	-3.037100	3.173000	-9.636200	27.764164	4.027946E-5	20.808747
2422.628624	-3.000400	3.174200	-9.522500	27.788757	4.103852E-5	20.823065
2423.628082	-2.994300	3.173600	-9.501300	27.809934	4.288665E-5	20.813083
2424.627946	-3.018200	3.171700	-9.571400	27.854641	3.895936E-5	20.815877
2425.630661	-3.008400	3.172500	-9.543600	27.870986	4.150055E-5	20.806250
2426.632265	-2.998700	3.172600	-9.513500	27.881192	4.011445E-5	20.811779
2427.629541	-2.991500	3.172200	-9.488900	27.912149	4.291965E-5	20.810695
2428.629692	-2.988600	3.169600	-9.471600	27.885978	3.961941E-5	20.816123
2429.635633	-2.996200	3.170900	-9.500000	27.795109	3.846433E-5	20.822345
2430.635530	-3.011700	3.169500	-9.545000	27.859208	3.777128E-5	20.834698
2431.633558	-3.000900	3.169900	-9.511500	27.894164	3.856333E-5	20.794489
2432.636844	-3.017600	3.167500	-9.557100	27.915456	3.919038E-5	20.834411
2433.632469	-3.010300	3.166700	-9.531100	27.953909	3.823331E-5	20.830441
2434.629669	-2.996800	3.166100	-9.487400	27.950485	3.820031E-5	20.818934
2435.635473	-2.991500	3.167200	-9.473800	27.971633	3.730924E-5	20.825521
2436.633789	-3.020200	3.163800	-9.554100	28.006348	4.024646E-5	20.810205
2437.630828	-2.994800	3.165800	-9.479100	28.049861	3.608815E-5	20.803744
2438.635771	-3.025100	3.163400	-9.568600	28.101851	3.681421E-5	20.810561
2439.631050	-3.020800	3.163800	-9.556200	28.090152	3.806830E-5	20.820594
2440.632814	-2.998400	3.161900	-9.479300	28.074633	3.843133E-5	20.817301
2441.633684	-2.988000	3.160500	-9.442800	28.111700	3.569212E-5	20.818579
2442.633775	-2.986900	3.160600	-9.439800	28.106587	3.605515E-5	20.808216
2443.633887	-2.999300	3.159500	-9.474900	28.104181	3.592314E-5	20.832347
2444.635900	-2.999500	3.159700	-9.476300	28.104232	3.661619E-5	20.827656
2445.635488	-2.988700	3.157900	-9.437200	28.029456	3.737525E-5	20.817344
2446.633598	-2.970800	3.158700	-9.383100	27.978255	3.648418E-5	20.832186
2447.635520	-2.992700	3.157700	-9.448800	27.962221	3.575813E-5	20.827902
2448.639796	-3.019900	3.155800	-9.528300	27.963163	3.625317E-5	20.817945
2449.635738	-2.990800	3.156300	-9.438500	27.999679	3.664919E-5	20.821984
2450.639227	-3.017800	3.153600	-9.516200	28.015149	3.625317E-5	20.836132
2451.638243	-3.000400	3.154500	-9.464000	28.001858	3.509808E-5	20.835082
2452.638599	-2.993700	3.152900	-9.438200	27.972997	3.516409E-5	20.822153
2453.635932	-3.011100	3.152900	-9.492200	27.876306	3.549411E-5	20.833888
2454.636250	-3.023400	3.151800	-9.528200	27.909081	3.760626E-5	20.811874
2455.636178	-2.989000	3.151500	-9.418800	27.947711	3.453704E-5	20.814719
2456.638918	-3.005800	3.150600	-9.468600	28.002161	3.565912E-5	20.838705
2457.637572	-3.007500	3.149000	-9.470200	28.017134	3.470205E-5	20.834337
2458.639342	-2.983000	3.148500	-9.390900	28.082069	3.331595E-5	20.821941
2459.641774	-3.008500	3.147700	-9.469200	28.097856	3.546111E-5	20.838307
2460.641370	-3.001400	3.147700	-9.446900	28.098950	3.503208E-5	20.846046
2461.640018	-3.010900	3.147200	-9.475400	28.120785	3.539510E-5	20.852853
2462.639731	-3.000300	3.147000	-9.441200	28.062412	3.291992E-5	20.853835
2463.641114	-3.008500	3.144900	-9.460400	28.057500	3.245789E-5	20.834666
2464.642394	-3.001800	3.144600	-9.438600	28.033426	3.503208E-5	20.839357
2465.644742	-2.998200	3.143100	-9.422500	28.031147	3.410801E-5	20.844649
2466.642889	-2.993500	3.142100	-9.405400	28.056482	3.331595E-5	20.850237
2467.639806	-3.012400	3.143000	-9.467100	28.104493	3.390999E-5	20.838824
2468.643954	-3.003400	3.140700	-9.431000	28.154258	3.582413E-5	20.844826
2469.640784	-2.999300	3.140600	-9.419400	28.126142	3.153382E-5	20.843548
2470.641072	-2.996300	3.139100	-9.404000	28.098134	3.424002E-5	20.851388
2471.639562	-3.019500	3.136900	-9.471100	28.063228	3.285392E-5	20.836165
2472.643622	-2.991100	3.138000	-9.385400	28.048314	3.529610E-5	20.841067
2473.642360	-3.003100	3.137800	-9.422200	27.997138	3.206186E-5	20.850245
2474.644903	-3.018200	3.136200	-9.465100	28.002076	3.278791E-5	20.852844
2475.642067	-3.037700	3.133600	-9.517900	28.002151	3.361297E-5	20.857187
2476.640385	-3.003900	3.134900	-9.415900	27.960108	3.265590E-5	20.830517
2477.644697	-3.017200	3.133400	-9.453400	27.916063	3.209486E-5	20.839289
2478.644874	-2.969800	3.132600	-9.301700	27.925155	3.278791E-5	20.864087
2479.644318	-2.970400	3.132100	-9.302500	27.955153	3.110479E-5	20.859193
2480.642471	-3.005500	3.129900	-9.405800	28.072092	3.232588E-5	20.834183
2481.644498	-2.986100	3.129400	-9.343700	28.093961	2.994970E-5	20.861411
2482.644746	-2.982900	3.129800	-9.333900	28.099293	3.268890E-5	20.870098
2483.646488	-3.013400	3.127500	-9.423100	28.031835	3.077476E-5	20.847712
2484.642400	-3.013600	3.126100	-9.419800	28.097006	3.222687E-5	20.849304
2485.642027	-3.011400	3.125400	-9.411000	28.095273	3.126980E-5	20.843293
2486.646528	-2.997200	3.125300	-9.366200	28.156352	3.163283E-5	20.845037
2487.647174	-2.977200	3.124900	-9.302200	28.213710	3.156682E-5	20.867694
2488.647130	-2.995000	3.123600	-9.353400	28.234205	3.093978E-5	20.836647
2489.644415	-2.996000	3.122600	-9.354100	28.286825	3.367898E-5	20.865916
2490.646912	-3.007600	3.121200	-9.386400	28.245609	3.143481E-5	20.867093
2491.645265	-2.998900	3.120900	-9.358400	28.196461	3.179784E-5	20.863130
2492.647914	-2.987000	3.119600	-9.317400	28.231548	3.202886E-5	20.851989
2493.648155	-3.022800	3.118200	-9.424800	28.222213	2.991670E-5	20.853496
2494.646600	-2.987900	3.118400	-9.316400	28.213063	3.021372E-5	20.857086
2495.648574	-3.013400	3.117300	-9.392600	28.139741	3.011471E-5	20.865298
2496.650089	-3.013100	3.116200	-9.388500	28.102313	3.027973E-5	20.875508
2497.645013	-3.004900	3.115800	-9.360500	28.167126	2.836559E-5	20.853039
2498.647624	-3.022400	3.113400	-9.409200	28.169708	2.892663E-5	20.865120
2499.648637	-2.982200	3.114100	-9.285900	28.119816	2.796956E-5	20.862309
2500.648927	-2.981200	3.114300	-9.283100	28.155082	2.909164E-5	20.866991
2501.649648	-3.008800	3.111600	-9.360900	28.104685	2.813457E-5	20.849923
2502.645931	-3.002300	3.110600	-9.338000	28.158530	2.783755E-5	20.897013
2503.648507	-3.022200	3.109500	-9.396500	28.163165	2.813457E-5	20.882240
2504.644924	-2.996800	3.110300	-9.320100	28.149808	2.862961E-5	20.881122
2505.650781	-3.018300	3.108200	-9.380400	28.208915	2.928965E-5	20.861445
2506.648816	-3.003500	3.107700	-9.332700	28.213197	2.872861E-5	20.868125
2507.648498	-3.013000	3.105700	-9.356700	28.237712	2.965268E-5	20.885219
2508.652618	-2.998000	3.105300	-9.309100	28.281240	2.711149E-5	20.880681
2509.647347	-2.984400	3.104200	-9.262300	28.199463	2.618743E-5	20.868049
2510.651478	-3.004000	3.103100	-9.320200	28.157478	2.628643E-5	20.880308
2511.649686	-3.023500	3.101300	-9.375300	28.225492	2.905864E-5	20.862961
2512.649771	-3.031600	3.100500	-9.398300	28.256398	2.800256E-5	20.879851
2513.652752	-3.046300	3.099800	-9.442000	28.277590	2.737551E-5	20.887437
2514.649083	-3.025800	3.098300	-9.373600	28.245541	2.546137E-5	20.881248
2515.654198	-2.981600	3.097900	-9.235900	28.200312	2.681447E-5	20.886446
2516.651078	-3.009100	3.097500	-9.319800	28.174232	2.668246E-5	20.879631
2517.652774	-2.990900	3.096300	-9.259500	28.161407	2.615442E-5	20.878573
2518.656308	-3.010700	3.093100	-9.311900	28.182525	2.589040E-5	20.873756
2519.656360	-3.011000	3.093400	-9.313800	28.182163	2.684747E-5	20.880503
2520.655468	-2.980200	3.093400	-9.217900	28.212187	2.516435E-5	20.878488
2521.652576	-2.994800	3.091500	-9.258100	28.187520	2.935566E-5	20.902964
2522.660549	-3.002800	3.090900	-9.280900	28.192887	2.549438E-5	20.907418
2523.653088	-2.983800	3.089500	-9.217900	28.228957	2.575839E-5	20.896793
2524.658631	-3.000200	3.088200	-9.264600	28.213441	2.598941E-5	20.887336
2525.654878	-3.015000	3.087500	-9.308400	28.259426	2.483433E-5	20.890485
2526.655264	-2.974500	3.087900	-9.183800	28.311615	2.628643E-5	20.903676
2527.653965	-2.993200	3.085900	-9.236800	28.364677	2.457031E-5	20.877448
2528.660665	-2.979800	3.085500	-9.193400	28.340475	2.740852E-5	20.893380
2529.663166	-2.964800	3.083600	-9.141000	28.335909	2.503234E-5	20.897792
2530.657523	-2.992100	3.082200	-9.220900	28.339752	2.381125E-5	20.895497
2531.659767	-3.005100	3.081300	-9.259300	28.299530	2.707849E-5	20.886768
2532.658623	-3.002500	3.079200	-9.243800	28.222238	2.546137E-5	20.915630
2533.659041	-3.001500	3.079400	-9.240800	28.236719	2.628643E-5	20.915511
2534.660619	-3.004300	3.078800	-9.248400	28.277178	2.546137E-5	20.885600
2535.660559	-3.011900	3.076400	-9.264700	28.339828	2.569239E-5	20.917382
2536.657810	-2.997200	3.076700	-9.219900	28.320377	2.466931E-5	20.885473
2537.669202	-3.032200	3.074900	-9.322200	28.292290	2.612142E-5	20.902236
2538.659041	-3.032600	3.073000	-9.317800	28.304610	2.311820E-5	20.894253
2539.659812	-3.004500	3.072100	-9.228400	28.346345	2.394326E-5	20.907350
2540.661453	-2.980200	3.072400	-9.155400	28.342358	2.430629E-5	20.908078
2541.662033	-2.989200	3.071500	-9.180800	28.360598	2.473532E-5	20.914114
2542.661250	-2.990400	3.069100	-9.176500	28.338616	2.391026E-5	20.888665
2543.660084	-2.993600	3.069100	-9.186300	28.355637	2.427329E-5	20.911964
2544.664176	-2.998700	3.066400	-9.194000	28.363768	2.374525E-5	20.920151
2545.661379	-2.986700	3.065500	-9.154600	28.333058	2.301919E-5	20.902982
2546.663222	-3.000600	3.065400	-9.197300	28.346959	2.209513E-5	20.886633
2547.663013	-2.998400	3.063700	-9.185400	28.355065	2.486733E-5	20.920871
2548.667103	-2.998000	3.062200	-9.179200	28.385756	2.338222E-5	20.901991
2549.664794	-3.006800	3.060600	-9.200600	28.418886	2.090704E-5	20.895523
2550.664501	-3.025200	3.058200	-9.250900	28.378542	2.136907E-5	20.882400
2551.664584	-3.027400	3.057900	-9.255800	28.287009	2.235914E-5	20.921573
2552.662707	-2.999800	3.057300	-9.170200	28.287463	2.186411E-5	20.920134
2553.669408	-3.004900	3.056600	-9.183900	28.323034	2.004897E-5	20.899527
2554.664598	-3.032200	3.055400	-9.264100	28.298841	2.133607E-5	20.934907
2555.667984	-2.984400	3.053800	-9.113000	28.348354	2.255716E-5	20.912692
2556.666918	-3.017300	3.051500	-9.206700	28.341946	2.044500E-5	20.928049
2557.666996	-3.041500	3.049000	-9.272600	28.297503	2.074203E-5	20.916967
2558.665824	-3.011900	3.049800	-9.184600	28.308813	2.051101E-5	20.920768
2559.668577	-2.978600	3.049200	-9.081500	28.230083	2.292019E-5	20.915469
2560.666710	-3.033600	3.047100	-9.242400	28.247307	2.232614E-5	20.932333
2561.664030	-2.991900	3.047200	-9.116300	28.268044	1.935592E-5	20.901058
2562.668437	-2.989300	3.045100	-9.102000	28.352684	2.133607E-5	20.926533
2563.666238	-2.996800	3.045000	-9.125100	28.404944	2.239215E-5	20.928896
2564.668290	-2.994000	3.044400	-9.113500	28.345149	1.991697E-5	20.920844
2565.676725	-2.978600	3.041900	-9.060000	28.342938	2.123706E-5	20.907239
2566.669985	-3.015400	3.039000	-9.162700	28.379104	1.958694E-5	20.929429
2567.672147	-2.993000	3.038700	-9.092800	28.393500	2.080803E-5	20.941552
2568.676069	-2.988900	3.037600	-9.078000	28.398192	2.037900E-5	20.942009
2569.672727	-2.987300	3.036400	-9.069600	28.383023	2.433929E-5	20.944752
2570.669290	-2.977800	3.036300	-9.040300	28.426965	2.166609E-5	20.945378
2571.671495	-2.964400	3.034400	-8.993900	28.428109	2.021399E-5	20.916187
2572.672164	-2.986400	3.034600	-9.062000	28.432346	2.110505E-5	20.945107
2573.672374	-3.014800	3.030800	-9.136300	28.414167	2.001597E-5	20.928699
2574.673899	-3.019400	3.029100	-9.145200	28.370913	2.054401E-5	20.935879
2575.675366	-2.990500	3.029500	-9.058900	28.426654	2.110505E-5	20.938901
2576.675315	-2.994200	3.028100	-9.066100	28.491850	2.245815E-5	20.938647
2577.671767	-3.005500	3.025700	-9.092600	28.573579	2.222714E-5	20.936082
2578.673602	-2.998700	3.025100	-9.070700	28.629014	2.212813E-5	20.952556
2579.674129	-2.993800	3.023900	-9.051300	28.653125	2.212813E-5	20.946969
2580.680558	-3.004300	3.022000	-9.077200	28.653175	2.374525E-5	20.940382
2581.678846	-3.000300	3.021200	-9.063800	28.623121	2.278818E-5	20.949940
2582.677009	-2.989700	3.020500	-9.029500	28.586400	2.397626E-5	20.953259
2583.680580	-3.033100	3.016500	-9.148400	28.620581	2.219413E-5	20.953546
2584.678429	-3.011900	3.017100	-9.086300	28.638370	2.127006E-5	20.941592
2585.679146	-3.024600	3.016200	-9.121400	28.733933	2.163309E-5	20.961978
2586.678823	-3.017900	3.015200	-9.098300	28.756125	2.219413E-5	20.954935
2587.682939	-3.028900	3.012800	-9.124000	28.734303	2.193011E-5	20.967091
2588.676954	-2.978100	3.011700	-8.968600	28.756150	2.216113E-5	20.963494
2589.678287	-3.014300	3.010600	-9.073700	28.677932	2.123706E-5	20.950617
2590.682446	-3.005800	3.009200	-9.044300	28.637799	2.189711E-5	20.935801
2591.675867	-3.019900	3.006400	-9.078500	28.611654	2.308520E-5	20.954511
2592.679454	-2.969700	3.006600	-8.927400	28.652788	2.268917E-5	20.961326
2593.681132	-3.037100	3.002800	-9.118400	28.722736	2.272217E-5	20.970139
2594.676577	-2.985100	3.004900	-8.969000	28.734471	2.193011E-5	20.952564
2595.679698	-2.969400	3.003700	-8.918600	28.671374	2.153408E-5	20.995214
2596.682391	-2.985400	3.001600	-8.960200	28.571291	2.041200E-5	20.967439
2597.675706	-2.978600	3.000700	-8.937300	28.544481	2.268917E-5	20.964145
2598.681352	-2.986300	2.999000	-8.954700	28.589804	2.288718E-5	20.945783
2599.679647	-3.018700	2.996800	-9.045700	28.618648	2.143508E-5	20.980518
2600.678315	-2.990500	2.996500	-8.960400	28.564725	2.110505E-5	20.952293
2601.680868	-2.994800	2.994200	-8.965700	28.535510	2.206212E-5	20.954638
2602.681957	-3.008600	2.992000	-9.000400	28.474697	2.460331E-5	20.972103
2603.679327	-3.017300	2.992100	-9.026600	28.442165	2.113806E-5	20.964001
2604.679042	-3.014700	2.990900	-9.016000	28.404891	2.047801E-5	20.970088
2605.678994	-3.003300	2.989000	-8.975600	28.480549	2.136907E-5	20.965669
2606.675214	-2.998000	2.987100	-8.954600	28.538562	2.292019E-5	20.958185
2607.684362	-3.000400	2.985200	-8.955600	28.557613	2.212813E-5	20.980213
2608.678205	-3.002600	2.984200	-8.960000	28.626938	2.061002E-5	20.967532
2609.676732	-3.014500	2.982800	-8.990300	28.694559	2.473532E-5	20.957407
2610.683019	-3.002700	2.981500	-8.951200	28.700973	2.282118E-5	20.971926
2611.680420	-2.988400	2.979600	-8.903800	28.679613	2.265617E-5	20.972222
2612.679604	-2.984200	2.979500	-8.890300	28.606030	2.173210E-5	20.963544
2613.684175	-3.003300	2.977300	-8.940900	28.611057	2.321721E-5	20.965763
2614.686433	-3.003800	2.975700	-8.937400	28.680807	2.024699E-5	20.963468
2615.681839	-2.988300	2.975000	-8.889600	28.762984	1.978496E-5	20.961369
2616.686502	-3.003900	2.973000	-8.929500	28.713280	2.107205E-5	20.960142
2617.683575	-3.015400	2.971300	-8.958700	28.629855	2.024699E-5	20.962885
2618.682380	-2.988200	2.970000	-8.874100	28.592125	2.298619E-5	20.968980
2619.682450	-3.011300	2.967300	-8.934700	28.636177	2.166609E-5	20.969725
2620.684563	-3.015100	2.966700	-8.944400	28.695779	2.166609E-5	20.951050
2621.683490	-3.016000	2.964900	-8.941300	28.681287	2.262316E-5	20.977226
2622.686764	-3.005000	2.962000	-8.899100	28.644222	2.077503E-5	20.956019
2623.689105	-2.984600	2.963400	-8.843900	28.622297	1.925692E-5	20.953378
2624.684010	-2.992400	2.961100	-8.859700	28.568586	2.202912E-5	20.950492
2625.687371	-2.998500	2.960000	-8.874400	28.586603	2.331622E-5	20.942559
2626.682880	-2.988000	2.958200	-8.838500	28.661079	2.064302E-5	20.946445
2627.683863	-2.991300	2.957500	-8.845600	28.679287	1.965295E-5	20.935863
2628.686224	-3.011000	2.954200	-8.893600	28.706313	2.034600E-5	20.950281
2629.686727	-2.979500	2.953700	-8.799500	28.670813	1.971895E-5	20.945345
2630.686324	-2.981400	2.953200	-8.804300	28.695058	2.239215E-5	20.941790
2631.688351	-3.012500	2.949100	-8.882900	28.715131	2.021399E-5	20.939250
2632.688119	-2.984900	2.950600	-8.806100	28.723546	2.094004E-5	20.942984
2633.687224	-2.995100	2.946800	-8.824600	28.736307	1.998297E-5	20.950620
2634.690058	-2.987000	2.946900	-8.801200	28.746839	1.985096E-5	20.935627
2635.690511	-3.013100	2.944400	-8.870700	28.798046	1.780481E-5	20.955911
2636.688587	-2.971900	2.944000	-8.748100	28.811444	2.090704E-5	20.929108
2637.684940	-3.002900	2.941100	-8.831500	28.789842	2.001597E-5	20.913514
2638.689605	-2.989700	2.939000	-8.785200	28.738282	1.968595E-5	20.918949
2639.688692	-2.991200	2.938900	-8.789400	28.709316	2.361324E-5	20.940978
2640.688287	-3.004400	2.935300	-8.818100	28.708736	2.067602E-5	20.936128
2641.693440	-2.981700	2.935500	-8.751000	28.722748	2.206212E-5	20.927483
2642.688999	-3.022100	2.931900	-8.859200	28.699548	2.047801E-5	20.912651
2643.690288	-3.023700	2.930100	-8.858500	28.730053	1.991697E-5	20.925358
2644.688556	-3.002800	2.929600	-8.796400	28.703171	2.054401E-5	20.910136
2645.687799	-3.048700	2.926900	-8.922100	28.732726	2.054401E-5	20.930421
2646.689922	-2.958800	2.927900	-8.662200	28.764114	2.100605E-5	20.929321
2647.693710	-2.985900	2.924600	-8.731100	28.710737	2.027999E-5	20.932928
2648.689739	-3.004200	2.924000	-8.783000	28.740990	1.938893E-5	20.916935
2649.693741	-2.994600	2.920600	-8.744900	28.730861	1.836585E-5	20.917638
2650.690821	-3.003800	2.919700	-8.769300	28.718521	1.994997E-5	20.936974
2651.691648	-2.983500	2.919200	-8.708000	28.690991	1.965295E-5	20.914463
2652.694874	-3.012100	2.917300	-8.786200	28.801619	2.084103E-5	20.921109
2653.694465	-2.986800	2.914500	-8.703700	28.872761	1.701275E-5	20.923547
2654.694621	-3.001800	2.913800	-8.746300	28.938333	1.968595E-5	20.909002
2655.700468	-2.987400	2.912500	-8.699900	28.900051	1.829985E-5	20.931599
2656.693658	-2.977500	2.909600	-8.662600	28.915364	1.932292E-5	20.910518
2657.692030	-2.991400	2.907300	-8.696400	28.913667	2.061002E-5	20.917343
2658.697814	-2.985700	2.907400	-8.679800	28.851456	1.905890E-5	20.926021
2659.695767	-3.007800	2.904800	-8.735100	28.874393	2.061002E-5	20.904331
2660.696438	-3.003400	2.902100	-8.715000	28.878284	2.160009E-5	20.912044
2661.697103	-2.975600	2.901500	-8.631500	28.862399	1.796982E-5	20.930178
2662.697243	-3.003500	2.898700	-8.705400	28.888573	1.707876E-5	20.901072
2663.697443	-2.976700	2.898200	-8.626000	28.886093	1.602268E-5	20.921332
2664.697387	-3.016900	2.895300	-8.734300	28.920713	1.938893E-5	20.902157
2665.700087	-2.978000	2.893400	-8.615900	29.005174	1.922391E-5	20.913756
2666.695649	-3.036700	2.890400	-8.775900	29.009671	1.721077E-5	20.906434
2667.695034	-2.996600	2.889100	-8.656700	29.019596	1.760680E-5	20.912640
2668.699140	-2.971400	2.889100	-8.583400	28.943969	1.925692E-5	20.896190
2669.697138	-2.981100	2.886300	-8.602900	28.854386	1.605568E-5	20.911676
2670.696969	-2.999500	2.885300	-8.653600	28.777730	1.711176E-5	20.899417
2671.699860	-2.986600	2.884800	-8.614800	28.799997	1.694675E-5	20.909518
2672.699929	-2.995700	2.881800	-8.632800	28.800913	1.648471E-5	20.912337
2673.699934	-3.008900	2.878600	-8.661100	28.830627	2.014798E-5	20.888218
2674.698765	-3.017300	2.877500	-8.682200	28.818086	1.796982E-5	20.908774
2675.702843	-2.988100	2.876300	-8.594300	28.813069	1.862987E-5	20.903721
2676.701404	-2.996500	2.874600	-8.612500	28.794511	1.615469E-5	20.892613
2677.701070	-3.000200	2.871600	-8.615200	28.777532	1.820084E-5	20.888787
2678.700722	-2.968300	2.871100	-8.521100	28.785652	1.859687E-5	20.897914
2679.702371	-3.012300	2.868400	-8.639700	28.720979	1.965295E-5	20.878764
2680.711950	-3.031800	2.865200	-8.684700	28.726696	1.783781E-5	20.898271
2681.705844	-2.988700	2.865200	-8.562400	28.737213	1.932292E-5	20.877572
2682.701347	-3.017800	2.862200	-8.637200	28.840743	1.704575E-5	20.892719
2683.705437	-2.994600	2.861100	-8.567400	28.915521	1.717776E-5	20.897875
2684.704850	-3.002200	2.858200	-8.580200	28.972880	1.869588E-5	20.881223
2685.704998	-2.990000	2.856500	-8.540200	29.025186	1.846486E-5	20.886506
2686.703859	-3.003400	2.853400	-8.569100	29.054388	1.899290E-5	20.910237
2687.707765	-2.995700	2.853100	-8.545700	29.062011	1.948793E-5	20.884255
2688.704189	-3.003300	2.850600	-8.560200	29.094473	1.948793E-5	20.869549
2689.706971	-2.982800	2.848900	-8.496700	29.079701	1.839885E-5	20.882639
2690.706411	-2.984400	2.846900	-8.495700	29.009726	1.862987E-5	20.886102
2691.706852	-2.997300	2.843900	-8.523200	28.994986	1.859687E-5	20.890217
2692.705879	-2.976200	2.841200	-8.455300	29.004542	1.760680E-5	20.884198
2693.705960	-2.982200	2.839400	-8.467300	29.011492	1.780481E-5	20.888830
2694.706110	-2.987800	2.838000	-8.478700	28.981911	1.859687E-5	20.897907
2695.705986	-2.981900	2.836000	-8.455800	28.965347	1.826684E-5	20.882167
2696.708115	-3.001500	2.833700	-8.503400	28.923427	1.862987E-5	20.884979
2697.704230	-2.972900	2.832200	-8.418200	28.942170	2.011498E-5	20.871145
2698.709138	-2.992900	2.830000	-8.469200	28.983585	1.853086E-5	20.867826
2699.706888	-2.978800	2.828300	-8.422600	29.064226	2.008198E-5	20.871315
2700.707030	-2.998200	2.824100	-8.466500	29.086494	1.816784E-5	20.867674
2701.711514	-2.996700	2.821100	-8.453500	29.082050	1.925692E-5	20.864145
2702.710521	-2.995400	2.819100	-8.442800	29.026269	1.714476E-5	20.852512
2703.708844	-2.952300	2.817800	-8.318000	29.061682	2.064302E-5	20.870648
2704.713521	-3.014300	2.813500	-8.479700	29.118999	1.988396E-5	20.882881
2705.710438	-2.982000	2.811800	-8.383400	29.156736	2.107205E-5	20.873493
2706.712524	-2.996300	2.810000	-8.418500	29.214661	1.905890E-5	20.858371
2707.714099	-2.993200	2.807400	-8.402800	29.270306	1.777181E-5	20.881256
2708.709889	-2.986700	2.804800	-8.376500	29.304191	2.163309E-5	20.879844
2709.713398	-2.993900	2.803700	-8.392700	29.262275	1.905890E-5	20.875059
2710.715867	-3.005200	2.798400	-8.409100	29.220476	2.110505E-5	20.881299
2711.713796	-3.015300	2.795700	-8.428900	29.240675	1.925692E-5	20.860405
2712.716969	-3.005300	2.793700	-8.395300	29.226190	1.892689E-5	20.857661
2713.717022	-2.986400	2.791800	-8.336500	29.228643	1.879488E-5	20.860607
2714.716312	-2.993700	2.789000	-8.348400	29.315533	1.925692E-5	20.855714
2715.717247	-2.996700	2.785400	-8.345900	29.345273	1.905890E-5	20.887108
2716.718040	-2.999100	2.783400	-8.346200	29.383009	1.935592E-5	20.875830
2717.713730	-2.980900	2.780300	-8.286700	29.377658	1.849786E-5	20.875653
2718.716600	-2.986500	2.778200	-8.296100	29.257243	1.777181E-5	20.873782
2719.718585	-2.985500	2.775700	-8.285700	29.217368	2.103905E-5	20.882909
2720.717724	-3.002400	2.771200	-8.318900	29.155880	1.975195E-5	20.864096
2721.720706	-2.973800	2.770600	-8.238500	29.149023	2.008198E-5	20.867618
2722.719081	-3.012700	2.765600	-8.331300	29.150334	1.813483E-5	20.876999
2723.718097	-3.010900	2.763000	-8.318200	29.121202	2.054401E-5	20.858551
2724.716761	-2.976100	2.761600	-8.218000	29.064288	2.034600E-5	20.866637
2725.720611	-3.010000	2.757800	-8.299500	29.066943	1.905890E-5	20.868363
2726.718723	-2.981700	2.754600	-8.212600	29.068675	2.037900E-5	20.869634
2727.720554	-2.977200	2.750800	-8.188900	29.175265	1.958694E-5	20.858974
2728.718742	-3.018000	2.746700	-8.289000	29.224048	2.074203E-5	20.876365
2729.722925	-2.991000	2.745200	-8.210300	29.188734	2.011498E-5	20.872072
2730.721617	-2.991100	2.740800	-8.197200	29.107624	1.714476E-5	20.882326
2731.726713	-2.993600	2.737900	-8.195100	29.134353	1.853086E-5	20.855681
2732.722504	-2.985200	2.734400	-8.162000	29.084045	1.955394E-5	20.858095
2733.719773	-2.980000	2.731900	-8.140200	29.157352	1.790382E-5	20.860364
2734.726078	-3.013900	2.727700	-8.219500	29.281432	2.011498E-5	20.865917
2735.721932	-2.984400	2.724700	-8.130200	29.312770	2.110505E-5	20.846292
2736.724132	-3.030200	2.720500	-8.242700	29.385346	1.889389E-5	20.854479
2737.726663	-2.985100	2.717000	-8.108900	29.375140	2.133607E-5	20.861735
2738.725554	-3.017500	2.712600	-8.185100	29.333808	1.773881E-5	20.843787
2739.723643	-3.025300	2.709100	-8.194400	29.336117	1.958694E-5	20.868399
2740.727644	-3.001600	2.704700	-8.117700	29.421436	2.037900E-5	20.861931
2741.726181	-2.999700	2.702000	-8.104600	29.466125	1.882789E-5	20.863827
2742.722899	-3.000000	2.699200	-8.096100	29.508335	1.909190E-5	20.856114
2743.725747	-3.025500	2.692900	-8.145900	29.518734	1.829985E-5	20.848579
2744.726166	-3.023400	2.689000	-8.128900	29.505412	2.163309E-5	20.862651
2745.724910	-2.993000	2.686000	-8.038500	29.492023	1.714476E-5	20.856266
2746.728317	-3.026400	2.681600	-8.114100	29.502271	2.080803E-5	20.847631
2747.722202	-2.997600	2.677200	-8.024300	29.509419	2.018098E-5	20.851517
2748.725968	-2.969200	2.674600	-7.940500	29.453273	1.991697E-5	20.860830
2749.731067	-2.986300	2.669400	-7.970600	29.333757	1.991697E-5	20.860805
2750.728515	-2.976200	2.665700	-7.932600	29.293146	2.008198E-5	20.852118
2751.724905	-2.993700	2.660800	-7.965100	29.361650	2.150108E-5	20.848614
2752.730838	-3.016700	2.654900	-8.007800	29.407836	2.080803E-5	20.867663
2753.727977	-3.006200	2.652100	-7.971600	29.398126	2.074203E-5	20.847919
2754.728416	-2.996200	2.647700	-7.931700	29.435843	1.932292E-5	20.857012
2755.728996	-2.960100	2.642800	-7.822000	29.399864	2.051101E-5	20.863895
2756.730128	-3.022400	2.636700	-7.968100	29.482079	2.057701E-5	20.848140
2757.728484	-2.989300	2.633300	-7.871000	29.481893	1.889389E-5	20.843211
2758.733315	-3.005600	2.628600	-7.899000	29.530435	1.902590E-5	20.864641
2759.732392	-3.007500	2.620800	-7.880800	29.585913	2.209513E-5	20.858926
2760.728179	-3.009100	2.618600	-7.878800	29.594229	2.094004E-5	20.851188
2761.735681	-2.988500	2.612300	-7.805800	29.655523	2.044500E-5	20.845176
2762.731682	-2.984800	2.608200	-7.784300	29.688872	1.938893E-5	20.863150
2763.736819	-3.046400	2.600300	-7.920600	29.699782	2.057701E-5	20.857554
2764.737286	-3.013000	2.596600	-7.822600	29.644487	2.018098E-5	20.841163
2765.735645	-2.948900	2.593400	-7.646600	29.593665	2.136907E-5	20.842085
2766.735641	-2.997400	2.586500	-7.752500	29.517542	2.024699E-5	20.844058
2767.738137	-3.007400	2.579800	-7.756900	29.526403	1.935592E-5	20.842085
2768.735467	-2.999400	2.575200	-7.723200	29.563630	2.067602E-5	20.852585
2769.735798	-3.034400	2.568300	-7.792200	29.634089	2.027999E-5	20.859129
2770.738209	-2.992700	2.563500	-7.671400	29.726891	2.146808E-5	20.843161
2771.735868	-2.983700	2.559000	-7.634500	29.795669	1.905890E-5	20.856081
2772.737183	-3.050300	2.550200	-7.777800	29.716167	1.787081E-5	20.850366
2773.739946	-3.014700	2.546700	-7.677000	29.674411	1.965295E-5	20.855209
2774.739372	-2.994300	2.539000	-7.601700	29.657160	2.196312E-5	20.861525
2775.733714	-2.990800	2.533600	-7.576800	29.658244	2.229314E-5	20.844126
2776.736592	-3.009500	2.526800	-7.602400	29.657178	2.037900E-5	20.853956
2777.735906	-2.971600	2.522200	-7.494100	29.595791	2.305220E-5	20.824314
2778.737873	-2.974600	2.514800	-7.479200	29.582545	2.133607E-5	20.849841
2779.738387	-2.987400	2.509800	-7.497500	29.696239	2.011498E-5	20.841654
2780.739579	-2.955000	2.504300	-7.398900	29.729891	2.070902E-5	20.830539
2781.733217	-2.962900	2.498600	-7.402900	29.783704	2.004897E-5	20.842121
