LabVIEW Measurement	
Writer_Version	2
Reader_Version	2
Separator	Tab
Decimal_Separator	.
Multi_Headings	No
X_Columns	One
Time_Pref	Absolute
Operator	admin
Description	Clolumns are: time, Current, Voltage, Power, Battery Temp, and Chamber Temp
Date	2024/08/16
Time	13:07:17.8513970375061035156
***End_of_Header***	
	
Channels	6						
Samples	1	1	1	1	1	1	
Date	2024/08/28	2024/08/28	2024/08/28	2024/08/28	2024/08/28	2024/08/28	
Time	09:28:12.2480759620666503906	09:28:12.2520666122436523438	09:28:12.2580862045288085938	09:28:12.2309741973876953125	09:28:12.2309741973876953125	09:28:12.2309741973876953125	
X_Dimension	Time	Time	Time	Time	Time	Time	
X0	0.0000000000000000E+0	0.0000000000000000E+0	0.0000000000000000E+0	0.0000000000000000E+0	0.0000000000000000E+0	0.0000000000000000E+0	
Delta_X	1.000000	1.000000	1.000000	1.000000	1.000000	1.000000	
***End_of_Header***							
X_Value	Untitled	Untitled 1	Untitled 2	Untitled 3	Untitled 4	Untitled 5	Comment
0.000000	0.018705	4.090000	0.076662	20.849611	0.000459	20.857197
0.998969	-2.976600	3.929900	-11.697000	20.879101	0.000459	20.832636
1.998082	-2.984700	3.924800	-11.713000	20.878355	0.000457	20.824779
3.001488	-3.000600	3.920200	-11.762000	20.877382	0.000455	20.848461
3.999053	-2.987300	3.916000	-11.698000	20.867223	0.000454	20.844939
5.004207	-2.999200	3.913100	-11.735000	20.884519	0.000454	20.838529
6.001140	-2.986400	3.913100	-11.685000	20.876385	0.000455	20.851730
6.997691	-3.031200	3.907900	-11.844000	20.879027	0.000453	20.852002
7.999946	-3.006800	3.906600	-11.745000	20.881748	0.000453	20.852353
9.002015	-2.979100	3.906600	-11.637000	20.912462	0.000451	20.843240
10.003079	-2.976100	3.904500	-11.619000	20.912763	0.000450	20.851602
11.005327	-2.996200	3.902800	-11.692000	20.938992	0.000451	20.827100
12.001076	-2.980200	3.901600	-11.627000	20.922443	0.000449	20.854170
13.002906	-2.981100	3.901800	-11.631000	20.930532	0.000450	20.854200
14.003118	-2.981600	3.900000	-11.627000	20.941634	0.000453	20.864828
15.002207	-3.025800	3.896500	-11.789000	20.920003	0.000449	20.852678
16.002902	-3.013400	3.895400	-11.737000	20.965946	0.000449	20.846470
17.000629	-2.993700	3.894800	-11.659000	20.956504	0.000448	20.833708
18.004078	-3.017800	3.895900	-11.756000	20.956958	0.000448	20.848861
19.001260	-2.996000	3.894400	-11.667000	20.972771	0.000448	20.842391
20.004465	-3.014700	3.893700	-11.737000	20.960923	0.000446	20.863732
21.006185	-2.999400	3.892800	-11.675000	20.983487	0.000446	20.842677
22.006267	-3.009000	3.892400	-11.711000	21.004415	0.000446	20.855074
23.005719	-3.007900	3.890300	-11.700000	21.008706	0.000445	20.840400
24.003593	-2.996200	3.890000	-11.654000	21.017190	0.000445	20.835135
25.001987	-2.987100	3.890800	-11.621000	21.023551	0.000445	20.869945
26.002148	-3.003900	3.889500	-11.683000	21.028469	0.000447	20.848787
27.006376	-2.992300	3.887900	-11.632000	21.020558	0.000443	20.873589
28.002171	-2.973400	3.888900	-11.562000	21.050527	0.000443	20.856150
29.004548	-3.008500	3.887400	-11.695000	21.048730	0.000445	20.836336
30.007545	-2.979600	3.888400	-11.585000	21.051673	0.000442	20.848288
31.005977	-3.002900	3.887200	-11.672000	21.065948	0.000443	20.856402
32.011176	-2.996300	3.887000	-11.646000	21.062329	0.000441	20.837610
33.003710	-3.003800	3.885200	-11.669000	21.086451	0.000444	20.859840
34.004373	-2.995500	3.884000	-11.634000	21.104864	0.000443	20.827525
35.008721	-3.008500	3.884000	-11.683000	21.097758	0.000441	20.849814
36.008558	-2.997700	3.883300	-11.640000	21.106790	0.000442	20.847468
37.006167	-2.984400	3.885500	-11.595000	21.123405	0.000441	20.851286
38.013223	-3.005800	3.882600	-11.669000	21.120635	0.000440	20.842825
39.011162	-3.017400	3.882300	-11.713000	21.141492	0.000440	20.827653
40.011445	-3.016900	3.883900	-11.717000	21.138426	0.000440	20.833594
41.014966	-3.014500	3.882300	-11.702000	21.142914	0.000441	20.837610
42.016762	-3.009800	3.882000	-11.683000	21.149999	0.000439	20.817197
43.011014	-2.989200	3.883000	-11.606000	21.172855	0.000441	20.833896
44.008786	-2.992400	3.883200	-11.619000	21.169982	0.000439	20.834340
45.016254	-3.017800	3.881300	-11.712000	21.178168	0.000440	20.831624
46.011316	-3.001400	3.882100	-11.651000	21.197301	0.000440	20.811408
47.013754	-3.008900	3.879900	-11.674000	21.185925	0.000440	20.832271
48.020170	-3.008300	3.879500	-11.669000	21.202766	0.000439	20.816876
49.011647	-2.992200	3.880000	-11.609000	21.213164	0.000438	20.842924
50.015267	-2.987600	3.880200	-11.592000	21.210868	0.000441	20.819291
51.020029	-2.979600	3.881300	-11.563000	21.211293	0.000438	20.808336
52.012517	-3.010100	3.878600	-11.675000	21.211965	0.000440	20.815172
53.017260	-2.995300	3.878800	-11.617000	21.226510	0.000440	20.816920
54.018533	-2.989900	3.878700	-11.596000	21.270313	0.000441	20.828023
55.016323	-3.007700	3.879300	-11.667000	21.244896	0.000438	20.806390
56.015596	-2.997100	3.879100	-11.626000	21.250258	0.000438	20.828823
57.013916	-3.006100	3.878300	-11.658000	21.246417	0.000439	20.809334
58.015312	-3.007500	3.878200	-11.663000	21.293438	0.000442	20.825554
59.013638	-2.999400	3.877700	-11.630000	21.289197	0.000440	20.820837
60.016265	-3.025400	3.877300	-11.729000	21.298824	0.000440	20.819563
61.013073	-3.027500	3.877100	-11.737000	21.297822	0.000438	20.807655
62.013003	-3.013700	3.876500	-11.682000	21.309019	0.000439	20.807951
63.013139	-3.018000	3.875500	-11.696000	21.321721	0.000439	20.823978
64.014398	-3.006200	3.876800	-11.653000	21.325755	0.000438	20.798617
65.016182	-3.001300	3.876100	-11.633000	21.343814	0.000439	20.830908
66.012672	-2.999800	3.876100	-11.626000	21.347432	0.000440	20.799916
67.013634	-3.015700	3.875800	-11.688000	21.319446	0.000440	20.815064
68.016573	-3.007000	3.875600	-11.654000	21.357958	0.000438	20.815187
69.015019	-2.991700	3.875700	-11.594000	21.367283	0.000440	20.799861
70.020751	-3.022100	3.875200	-11.711000	21.376539	0.000440	20.817657
71.017524	-3.015800	3.876100	-11.688000	21.386190	0.000439	20.818304
72.018042	-3.008000	3.874600	-11.654000	21.386867	0.000438	20.797644
73.015951	-3.001700	3.874900	-11.631000	21.400778	0.000439	20.814407
74.017989	-3.011200	3.874800	-11.667000	21.406169	0.000440	20.809843
75.020976	-2.995400	3.875100	-11.606000	21.415444	0.000438	20.817227
76.022398	-2.981900	3.874600	-11.553000	21.410004	0.000440	20.813681
77.017242	-3.003100	3.872900	-11.630000	21.446618	0.000439	20.812856
78.019977	-3.027700	3.873300	-11.726000	21.429360	0.000440	20.800331
79.023782	-3.007900	3.875200	-11.655000	21.437964	0.000438	20.809888
80.020790	-3.014300	3.873900	-11.676000	21.456441	0.000439	20.798503
81.024105	-3.002700	3.873200	-11.629000	21.458786	0.000439	20.810332
82.020671	-2.978600	3.873300	-11.536000	21.471225	0.000440	20.796701
83.020505	-2.987600	3.872800	-11.569000	21.492747	0.000440	20.802588
84.023182	-2.981100	3.873300	-11.545000	21.483324	0.000438	20.808806
85.019650	-2.997600	3.873000	-11.609000	21.479824	0.000439	20.827590
86.021650	-2.985500	3.873600	-11.563000	21.484637	0.000439	20.798267
87.022059	-2.981000	3.872800	-11.544000	21.512768	0.000440	20.804129
88.021750	-2.986100	3.873200	-11.564000	21.519402	0.000440	20.779948
89.023006	-2.989600	3.872300	-11.575000	21.531347	0.000439	20.790004
90.023832	-2.981400	3.871400	-11.541000	21.535913	0.000440	20.780348
91.022317	-2.989200	3.870500	-11.568000	21.546239	0.000439	20.793525
92.027365	-2.984900	3.871700	-11.556000	21.545558	0.000438	20.812284
93.021178	-2.980300	3.872300	-11.540000	21.575662	0.000438	20.793570
94.022809	-2.994400	3.871800	-11.593000	21.583366	0.000440	20.800331
95.019780	-2.980400	3.870900	-11.536000	21.594264	0.000439	20.785159
96.023894	-2.996400	3.871500	-11.600000	21.598504	0.000441	20.799358
97.027656	-3.001100	3.869700	-11.613000	21.601747	0.000442	20.813983
98.022843	-2.996700	3.871000	-11.599000	21.604861	0.000441	20.814729
99.022574	-2.999700	3.869800	-11.607000	21.612521	0.000440	20.793471
100.023390	-2.994100	3.869500	-11.584000	21.612215	0.000440	20.802174
101.023908	-3.010100	3.870300	-11.649000	21.612595	0.000442	20.776475
102.024069	-2.981400	3.870100	-11.537000	21.625408	0.000441	20.800203
103.024205	-3.006800	3.868700	-11.631000	21.625512	0.000441	20.791298
104.020739	-2.999800	3.870200	-11.609000	21.641217	0.000439	20.791841
105.023324	-2.996600	3.870000	-11.596000	21.654468	0.000440	20.809370
106.023154	-3.006500	3.868800	-11.631000	21.645713	0.000441	20.793022
107.026038	-2.987200	3.870300	-11.560000	21.659354	0.000440	20.779172
108.025325	-2.970400	3.870000	-11.495000	21.672942	0.000443	20.764794
109.023567	-3.024900	3.867800	-11.699000	21.682768	0.000442	20.788853
110.022716	-2.978200	3.868800	-11.522000	21.688779	0.000443	20.794869
111.022330	-3.008100	3.868000	-11.634000	21.693487	0.000442	20.792943
112.024023	-2.996900	3.868300	-11.592000	21.708105	0.000444	20.808046
113.026070	-2.983300	3.867000	-11.536000	21.721065	0.000444	20.794938
114.025425	-2.972300	3.867100	-11.494000	21.724786	0.000443	20.792972
115.027318	-2.989600	3.868500	-11.564000	21.714758	0.000443	20.789574
116.029005	-2.986800	3.868700	-11.555000	21.757402	0.000442	20.777251
117.028482	-3.003400	3.867600	-11.614000	21.740465	0.000444	20.803922
118.027273	-3.011300	3.865700	-11.640000	21.755704	0.000445	20.786932
119.031682	-3.009100	3.866100	-11.632000	21.777196	0.000447	20.789949
120.031269	-3.007700	3.866500	-11.629000	21.782432	0.000446	20.790923
121.029762	-2.995500	3.868500	-11.587000	21.769740	0.000445	20.773003
122.027580	-3.000200	3.867400	-11.602000	21.778173	0.000446	20.758684
123.029966	-3.006700	3.866200	-11.624000	21.790219	0.000445	20.776431
124.032340	-3.011000	3.865800	-11.639000	21.794858	0.000447	20.784867
125.029061	-3.006500	3.867200	-11.625000	21.787998	0.000445	20.774208
126.025610	-2.998100	3.865600	-11.589000	21.829115	0.000445	20.780748
127.026444	-2.995000	3.867200	-11.581000	21.809667	0.000445	20.765550
128.026193	-3.002100	3.865400	-11.603000	21.824230	0.000447	20.783444
129.030778	-2.990000	3.866700	-11.561000	21.806751	0.000449	20.775433
130.030298	-2.997900	3.865800	-11.588000	21.843430	0.000446	20.777058
131.026462	-3.004500	3.864000	-11.608000	21.808927	0.000448	20.781878
132.031383	-3.011600	3.866200	-11.642000	21.843904	0.000448	20.777058
133.032519	-3.023800	3.864100	-11.683000	21.855278	0.000448	20.768528
134.032426	-2.999700	3.864900	-11.593000	21.876970	0.000447	20.780757
135.031519	-2.999600	3.864500	-11.591000	21.877646	0.000447	20.780960
136.031072	-3.023700	3.864800	-11.685000	21.874730	0.000447	20.798429
137.032052	-3.001600	3.863800	-11.596000	21.898894	0.000449	20.786580
138.032353	-3.021900	3.863500	-11.673000	21.885255	0.000447	20.781937
139.031251	-3.007700	3.863400	-11.618000	21.885107	0.000449	20.785583
140.032525	-2.996200	3.863900	-11.577000	21.902086	0.000449	20.786457
141.033829	-2.978300	3.865500	-11.512000	21.914057	0.000449	20.800336
142.032093	-3.015100	3.864800	-11.652000	21.918843	0.000450	20.796592
143.032961	-2.994600	3.863300	-11.568000	21.956743	0.000451	20.763405
144.032551	-2.992400	3.863000	-11.558000	21.960108	0.000451	20.780999
145.036567	-2.996000	3.862200	-11.571000	21.967815	0.000451	20.782075
146.037518	-3.016000	3.861800	-11.645000	21.971732	0.000450	20.765608
147.033926	-2.992300	3.863700	-11.560000	21.967543	0.000451	20.777536
148.035450	-2.972700	3.863700	-11.485000	21.978867	0.000454	20.787923
149.033892	-2.986500	3.862700	-11.535000	21.975225	0.000451	20.749664
150.036775	-2.991900	3.861800	-11.553000	21.996195	0.000452	20.759750
151.039803	-2.979600	3.863000	-11.509000	21.999866	0.000452	20.763899
152.037666	-2.996300	3.862100	-11.571000	22.036011	0.000454	20.751719
153.037230	-3.015700	3.860400	-11.642000	22.013725	0.000455	20.765445
154.041197	-2.991100	3.861600	-11.550000	22.010133	0.000453	20.757582
155.039281	-2.990700	3.859600	-11.541000	22.027742	0.000454	20.742966
156.039540	-2.990600	3.860800	-11.545000	22.034225	0.000454	20.773639
157.037354	-2.998500	3.861300	-11.576000	22.033603	0.000456	20.764956
158.038170	-2.995800	3.860800	-11.566000	22.046539	0.000454	20.747560
159.040562	-3.015500	3.860900	-11.641000	22.061474	0.000454	20.758243
160.040886	-2.998600	3.859300	-11.572000	22.058410	0.000454	20.765607
161.040437	-3.008200	3.859500	-11.609000	22.062747	0.000455	20.739602
162.042527	-3.010900	3.859600	-11.619000	22.077528	0.000454	20.770996
163.040331	-3.019500	3.859700	-11.653000	22.103350	0.000456	20.757967
164.040524	-3.024100	3.858100	-11.665000	22.119103	0.000456	20.738649
165.043324	-2.995900	3.859200	-11.561000	22.107741	0.000457	20.756198
166.041479	-3.004400	3.858600	-11.591000	22.118600	0.000457	20.754267
167.045245	-2.999100	3.859600	-11.574000	22.109280	0.000457	20.756791
168.044689	-3.005200	3.859400	-11.598000	22.107687	0.000458	20.763257
169.043432	-2.992400	3.859300	-11.547000	22.128841	0.000457	20.763099
170.048506	-2.984800	3.857800	-11.514000	22.138165	0.000459	20.762476
171.043478	-3.002700	3.857800	-11.583000	22.169097	0.000459	20.757409
172.046896	-3.012300	3.858200	-11.622000	22.162842	0.000458	20.768216
173.042207	-3.016800	3.857900	-11.638000	22.165180	0.000460	20.750642
174.043348	-2.999200	3.859000	-11.574000	22.159768	0.000459	20.770829
175.042670	-2.997600	3.859400	-11.568000	22.181652	0.000458	20.752435
176.042161	-2.989100	3.857900	-11.531000	22.153335	0.000461	20.757275
177.042849	-2.975700	3.857400	-11.477000	22.160785	0.000461	20.747190
178.043414	-2.978800	3.859400	-11.496000	22.178258	0.000459	20.754253
179.044853	-2.986400	3.857900	-11.520000	22.194286	0.000463	20.755127
180.045759	-2.993200	3.857000	-11.544000	22.176334	0.000463	20.746162
181.045200	-2.999900	3.856200	-11.567000	22.196052	0.000463	20.750257
182.046302	-3.009200	3.856300	-11.603000	22.184760	0.000463	20.746063
183.047849	-2.996500	3.857100	-11.556000	22.221018	0.000463	20.743959
184.042843	-2.995200	3.856200	-11.549000	22.230939	0.000464	20.744883
185.042982	-3.006700	3.855800	-11.592000	22.239788	0.000465	20.740942
186.044202	-3.004600	3.855400	-11.583000	22.228995	0.000466	20.741989
187.043860	-3.000600	3.856300	-11.571000	22.241031	0.000464	20.735548
188.047362	-2.980000	3.857100	-11.493000	22.240755	0.000466	20.743806
189.046668	-3.003900	3.856000	-11.583000	22.273751	0.000464	20.735118
190.043922	-2.998600	3.856400	-11.563000	22.269834	0.000464	20.741628
191.047716	-3.002600	3.854600	-11.573000	22.281846	0.000464	20.734215
192.050210	-2.992000	3.854200	-11.531000	22.306489	0.000466	20.758891
193.049039	-3.007800	3.854700	-11.593000	22.303298	0.000465	20.759489
194.047152	-2.988200	3.854000	-11.516000	22.289043	0.000467	20.749956
195.045770	-2.998000	3.852600	-11.550000	22.331059	0.000467	20.743190
196.046935	-2.979300	3.855300	-11.485000	22.334442	0.000467	20.757484
197.049291	-2.987700	3.853500	-11.512000	22.370054	0.000467	20.745729
198.051922	-2.987100	3.854400	-11.513000	22.345975	0.000466	20.742005
199.052266	-2.992000	3.852900	-11.527000	22.359835	0.000467	20.738339
200.053773	-3.001200	3.853500	-11.564000	22.360205	0.000466	20.746771
201.047971	-2.999900	3.853500	-11.560000	22.378943	0.000468	20.739930
202.048169	-3.004900	3.852400	-11.575000	22.396585	0.000468	20.751908
203.046178	-2.994300	3.853100	-11.536000	22.372190	0.000467	20.732220
204.053086	-2.992800	3.852800	-11.530000	22.395535	0.000469	20.736157
205.047063	-3.018900	3.852600	-11.629000	22.407175	0.000469	20.754452
206.050331	-3.010700	3.852800	-11.598000	22.430425	0.000470	20.754975
207.049856	-2.996400	3.851500	-11.539000	22.402736	0.000471	20.737678
208.051033	-3.010500	3.850400	-11.591000	22.409962	0.000472	20.759139
209.054163	-3.018300	3.851500	-11.625000	22.417385	0.000469	20.753770
210.054408	-2.993900	3.851200	-11.529000	22.428901	0.000471	20.737327
211.051745	-3.011000	3.851300	-11.595000	22.429419	0.000470	20.746381
212.049593	-2.997200	3.850500	-11.540000	22.460091	0.000471	20.740113
213.053524	-3.004000	3.851200	-11.568000	22.447234	0.000471	20.747152
214.049305	-3.008700	3.850900	-11.586000	22.452491	0.000473	20.737718
215.055986	-3.005200	3.850000	-11.568000	22.443993	0.000471	20.732527
216.052273	-3.004900	3.850200	-11.569000	22.454030	0.000472	20.724085
217.050186	-3.006900	3.849600	-11.574000	22.443890	0.000474	20.715827
218.053101	-3.015600	3.849100	-11.606000	22.460062	0.000472	20.740558
219.049523	-3.004900	3.849600	-11.567000	22.449123	0.000473	20.737664
220.054101	-2.999400	3.849100	-11.544000	22.474389	0.000472	20.748743
221.053830	-3.009800	3.849000	-11.584000	22.481417	0.000473	20.739659
222.052018	-3.012400	3.849000	-11.594000	22.480125	0.000473	20.713708
223.052272	-3.026700	3.848400	-11.646000	22.478345	0.000475	20.731366
224.052033	-2.999600	3.848800	-11.543000	22.515427	0.000474	20.716820
225.052427	-3.009700	3.848200	-11.582000	22.506555	0.000474	20.714572
226.055728	-2.993300	3.848500	-11.518000	22.537555	0.000476	20.732344
227.053917	-3.010000	3.847600	-11.580000	22.520013	0.000477	20.734216
228.050416	-3.000300	3.848500	-11.546000	22.531918	0.000476	20.726699
229.054001	-2.993400	3.848400	-11.518000	22.526661	0.000476	20.709104
230.050192	-2.994000	3.847800	-11.519000	22.546269	0.000476	20.732063
231.057023	-2.993600	3.846500	-11.514000	22.550806	0.000477	20.721433
232.053796	-2.986700	3.848000	-11.492000	22.562272	0.000477	20.713476
233.053600	-2.985700	3.847500	-11.486000	22.563140	0.000478	20.732364
234.053301	-3.007400	3.846200	-11.566000	22.582792	0.000477	20.731658
235.054668	-2.983000	3.846400	-11.473000	22.571607	0.000479	20.722826
236.056306	-3.011600	3.846800	-11.584000	22.610348	0.000478	20.720377
237.051677	-2.991000	3.846700	-11.504000	22.591017	0.000478	20.725671
238.053689	-2.994800	3.845800	-11.516000	22.597468	0.000480	20.734977
239.054466	-2.992200	3.846200	-11.508000	22.585702	0.000480	20.727460
240.053157	-2.961000	3.847000	-11.390000	22.616843	0.000481	20.718821
241.054217	-2.977700	3.845300	-11.449000	22.600402	0.000480	20.719423
242.054218	-2.987500	3.845500	-11.487000	22.608524	0.000481	20.719023
243.054652	-2.994200	3.845000	-11.511000	22.612188	0.000483	20.713684
244.055652	-3.005200	3.843400	-11.548000	22.642905	0.000483	20.736865
245.053769	-2.994300	3.845200	-11.513000	22.621296	0.000483	20.725178
246.052822	-2.987400	3.843600	-11.481000	22.606897	0.000483	20.722136
247.054478	-2.981000	3.844000	-11.458000	22.642550	0.000484	20.717542
248.053866	-2.986300	3.844500	-11.480000	22.672590	0.000484	20.719182
249.055110	-2.999400	3.842300	-11.523000	22.636938	0.000484	20.711447
250.057969	-3.007000	3.844800	-11.560000	22.662995	0.000486	20.726167
251.054662	-3.008300	3.843200	-11.560000	22.672886	0.000484	20.728962
252.055027	-3.006400	3.843100	-11.552000	22.655618	0.000485	20.705500
253.059577	-3.019000	3.841900	-11.598000	22.668049	0.000484	20.720324
254.055685	-3.015300	3.842100	-11.585000	22.672650	0.000485	20.705491
255.057075	-2.998200	3.841800	-11.518000	22.697295	0.000485	20.717375
256.054689	-2.992200	3.843200	-11.499000	22.696422	0.000486	20.714604
257.055372	-3.029000	3.840500	-11.632000	22.732319	0.000487	20.713103
258.058636	-3.023700	3.841000	-11.613000	22.744897	0.000486	20.730445
259.054847	-2.996600	3.841100	-11.509000	22.746544	0.000488	20.712653
260.064828	-2.978800	3.841800	-11.443000	22.767213	0.000487	20.692579
261.057691	-3.005700	3.840700	-11.543000	22.768658	0.000487	20.699717
262.061293	-2.986600	3.840600	-11.470000	22.762879	0.000488	20.720008
263.062136	-2.976800	3.841700	-11.435000	22.758141	0.000490	20.705778
264.054807	-3.023300	3.838900	-11.605000	22.761706	0.000487	20.690381
265.059866	-2.985100	3.839800	-11.462000	22.754552	0.000488	20.707398
266.059729	-2.988400	3.838900	-11.471000	22.771415	0.000490	20.709117
267.061706	-2.992700	3.839000	-11.488000	22.757239	0.000489	20.679742
268.064865	-2.995000	3.839100	-11.497000	22.778263	0.000490	20.700804
269.060745	-2.999500	3.838400	-11.512000	22.792759	0.000491	20.695410
270.061605	-2.997300	3.839600	-11.508000	22.801304	0.000491	20.718670
271.064889	-3.010700	3.838600	-11.556000	22.815721	0.000491	20.703714
272.063062	-3.000100	3.838400	-11.515000	22.815647	0.000492	20.708382
273.062071	-2.994100	3.838700	-11.492000	22.805884	0.000491	20.694808
274.066217	-2.993200	3.838000	-11.487000	22.822998	0.000491	20.683976
275.064054	-3.021100	3.836300	-11.589000	22.833233	0.000491	20.694230
276.062645	-3.007700	3.838100	-11.543000	22.840781	0.000493	20.679980
277.062126	-3.016200	3.837600	-11.574000	22.856346	0.000493	20.691781
278.065045	-3.001200	3.836200	-11.511000	22.854779	0.000494	20.696374
279.067681	-3.009800	3.836000	-11.545000	22.844489	0.000493	20.689385
280.061622	-2.971000	3.836800	-11.398000	22.849474	0.000493	20.708130
281.063472	-3.021900	3.835600	-11.590000	22.868899	0.000494	20.694873
282.060764	-2.971500	3.838700	-11.406000	22.876471	0.000492	20.686337
283.062332	-3.013300	3.835800	-11.558000	22.888003	0.000494	20.691726
284.066121	-2.997500	3.835900	-11.497000	22.872912	0.000493	20.688461
285.063426	-2.992100	3.835000	-11.473000	22.884645	0.000494	20.700217
286.065148	-2.972100	3.836000	-11.400000	22.871517	0.000495	20.702712
287.062737	-3.007600	3.835000	-11.532000	22.888880	0.000495	20.706831
288.065583	-3.006800	3.834800	-11.529000	22.886440	0.000496	20.699644
289.065569	-2.993100	3.834200	-11.475000	22.932343	0.000495	20.697269
290.065211	-3.001300	3.834700	-11.507000	22.921433	0.000497	20.690605
291.062097	-2.983800	3.835200	-11.442000	22.916227	0.000496	20.692502
292.069325	-2.992300	3.834200	-11.472000	22.944505	0.000499	20.695702
293.068603	-2.991800	3.834100	-11.470000	22.943859	0.000495	20.705487
294.067482	-2.969600	3.834700	-11.386000	22.949562	0.000499	20.703615
295.069822	-3.001800	3.833400	-11.506000	22.942114	0.000496	20.700420
296.066170	-2.991100	3.834000	-11.467000	22.949192	0.000499	20.674793
297.066146	-2.999300	3.833700	-11.498000	22.960995	0.000497	20.700844
298.068778	-3.016900	3.831900	-11.559000	22.953378	0.000497	20.707438
299.067985	-3.003700	3.832000	-11.510000	22.938061	0.000498	20.679762
300.064227	-3.009300	3.831700	-11.530000	22.943065	0.000500	20.701373
301.072349	-3.006500	3.833800	-11.525000	22.956666	0.000498	20.702197
302.067376	-3.016900	3.832500	-11.562000	22.992332	0.000500	20.694309
303.073553	-2.989900	3.831800	-11.455000	23.016477	0.000500	20.700957
304.072885	-3.002400	3.830100	-11.499000	23.030023	0.000499	20.687976
305.068409	-2.965000	3.831800	-11.360000	23.030821	0.000502	20.675973
306.072014	-2.999000	3.832400	-11.492000	23.071493	0.000501	20.701555
307.072361	-2.987200	3.830900	-11.441000	23.054778	0.000500	20.687650
308.069122	-2.998600	3.830600	-11.485000	23.071513	0.000502	20.694462
309.068610	-2.992500	3.830700	-11.462000	23.051195	0.000503	20.683111
310.071781	-3.008100	3.830600	-11.521000	23.053886	0.000503	20.701456
311.071210	-2.989200	3.830000	-11.448000	23.048656	0.000505	20.695267
312.072859	-3.018700	3.829000	-11.557000	23.069201	0.000502	20.685981
313.075031	-2.996300	3.829900	-11.475000	23.046606	0.000504	20.688945
314.069543	-3.014400	3.827900	-11.538000	23.082767	0.000503	20.690091
315.072740	-3.013000	3.827500	-11.531000	23.069596	0.000502	20.683531
316.073700	-2.987900	3.830000	-11.443000	23.090515	0.000501	20.699752
317.073887	-3.015400	3.828300	-11.542000	23.099452	0.000504	20.705389
318.069696	-3.004900	3.829700	-11.507000	23.085182	0.000504	20.689192
319.074934	-2.992400	3.827600	-11.453000	23.103982	0.000503	20.695228
320.074747	-3.007600	3.827100	-11.509000	23.104377	0.000505	20.684717
321.073273	-2.992200	3.828300	-11.455000	23.075117	0.000503	20.684322
322.078406	-3.022000	3.826400	-11.563000	23.111445	0.000505	20.673307
323.070579	-3.001300	3.827700	-11.488000	23.125646	0.000505	20.685166
324.074489	-3.006500	3.826700	-11.504000	23.158324	0.000507	20.697051
325.071305	-2.994500	3.826900	-11.458000	23.160730	0.000507	20.706101
326.074187	-2.974600	3.828000	-11.386000	23.148008	0.000508	20.704258
327.074675	-3.013100	3.827100	-11.531000	23.160725	0.000508	20.710838
328.075930	-2.995600	3.826700	-11.463000	23.154949	0.000509	20.695565
329.074724	-3.011800	3.825700	-11.521000	23.159902	0.000509	20.710961
330.074382	-3.006500	3.825500	-11.501000	23.182063	0.000507	20.706615
331.073622	-3.001600	3.826200	-11.483000	23.195735	0.000510	20.702298
332.071891	-2.991100	3.826200	-11.444000	23.150858	0.000508	20.678662
333.076541	-2.992600	3.825300	-11.447000	23.144278	0.000506	20.720910
334.071327	-2.968900	3.825600	-11.357000	23.154841	0.000510	20.701621
335.073682	-2.995000	3.824000	-11.452000	23.130260	0.000509	20.700697
336.073976	-2.965400	3.824400	-11.340000	23.158079	0.000509	20.708186
337.075826	-3.018500	3.824300	-11.543000	23.144426	0.000509	20.696875
338.073384	-3.002400	3.822500	-11.476000	23.145195	0.000509	20.701439
339.074811	-2.992300	3.823300	-11.440000	23.145451	0.000513	20.701221
340.074774	-2.995000	3.822900	-11.448000	23.185543	0.000510	20.707732
341.075435	-2.972300	3.825300	-11.369000	23.200610	0.000510	20.702441
342.077835	-2.991500	3.823800	-11.438000	23.223020	0.000508	20.709727
343.077053	-3.020600	3.822000	-11.544000	23.223691	0.000509	20.708502
344.081083	-3.004400	3.822200	-11.482000	23.262566	0.000511	20.705262
345.075215	-3.003000	3.822200	-11.477000	23.280624	0.000511	20.723360
346.075776	-3.007800	3.821900	-11.495000	23.281195	0.000512	20.704491
347.077822	-2.985100	3.822300	-11.409000	23.278159	0.000511	20.694809
348.080284	-2.977800	3.822600	-11.382000	23.290131	0.000514	20.701118
349.082355	-3.007700	3.820200	-11.489000	23.283364	0.000513	20.719941
350.080145	-3.003000	3.821200	-11.473000	23.286400	0.000513	20.683626
351.081086	-2.996500	3.820000	-11.446000	23.274153	0.000512	20.707390
352.083397	-3.028900	3.819300	-11.567000	23.269047	0.000512	20.701325
353.078712	-2.979800	3.820600	-11.384000	23.295369	0.000513	20.704471
354.081829	-2.992900	3.820100	-11.432000	23.307818	0.000513	20.701774
355.080343	-3.007000	3.819900	-11.486000	23.311528	0.000515	20.698381
356.077257	-3.001100	3.819100	-11.460000	23.337726	0.000514	20.715155
357.079674	-2.991700	3.819800	-11.427000	23.347937	0.000515	20.694567
358.077545	-3.018100	3.818600	-11.523000	23.339471	0.000516	20.718326
359.079108	-2.990800	3.819000	-11.420000	23.316565	0.000516	20.726189
360.082476	-3.016000	3.817700	-11.512000	23.325233	0.000515	20.723023
361.080293	-2.989300	3.817400	-11.411000	23.332753	0.000517	20.709696
362.081951	-2.991500	3.817300	-11.418000	23.351298	0.000517	20.724016
363.081114	-3.007000	3.817800	-11.479000	23.341121	0.000516	20.704332
364.082742	-3.005400	3.817100	-11.471000	23.383773	0.000517	20.696345
365.081706	-3.005200	3.817400	-11.471000	23.387207	0.000516	20.706901
366.083058	-2.985000	3.817200	-11.393000	23.367989	0.000516	20.726046
367.082909	-2.997100	3.817000	-11.438000	23.345606	0.000517	20.684643
368.084458	-2.994800	3.816000	-11.428000	23.344256	0.000518	20.705103
369.082353	-2.984100	3.816800	-11.389000	23.331034	0.000519	20.716982
370.087583	-3.002900	3.817200	-11.461000	23.363199	0.000517	20.718874
371.084641	-2.982200	3.817200	-11.383000	23.357423	0.000516	20.714033
372.085581	-2.996000	3.816000	-11.431000	23.359394	0.000519	20.712216
373.091095	-2.986000	3.815000	-11.390000	23.391682	0.000519	20.721344
374.086350	-3.006800	3.814700	-11.469000	23.403036	0.000519	20.727187
375.089334	-3.029700	3.815400	-11.558000	23.380530	0.000521	20.735298
376.083103	-3.005200	3.814300	-11.462000	23.376495	0.000521	20.722243
377.086590	-3.010300	3.814400	-11.480000	23.392431	0.000520	20.739165
378.086075	-3.026400	3.814100	-11.542000	23.378811	0.000520	20.736419
379.086226	-2.999600	3.814900	-11.442000	23.371990	0.000519	20.738592
380.088574	-3.019200	3.812900	-11.511000	23.374952	0.000518	20.713110
381.086442	-2.976600	3.813500	-11.350000	23.411921	0.000520	20.732147
382.083036	-3.018300	3.812000	-11.504000	23.424171	0.000520	20.745848
383.086704	-2.987500	3.814000	-11.393000	23.412699	0.000520	20.740039
384.086835	-2.999500	3.813600	-11.438000	23.444217	0.000522	20.713782
385.083475	-3.004000	3.811500	-11.449000	23.461069	0.000523	20.737313
386.088148	-2.997900	3.811300	-11.424000	23.463587	0.000521	20.722292
387.083646	-2.999600	3.812700	-11.436000	23.457054	0.000522	20.727124
388.086970	-3.012400	3.810900	-11.479000	23.452131	0.000522	20.725034
389.089124	-2.999700	3.812300	-11.435000	23.431070	0.000521	20.710087
390.087609	-2.997000	3.810900	-11.420000	23.447425	0.000523	20.732171
391.093286	-3.013700	3.811900	-11.487000	23.479266	0.000525	20.720465
392.087285	-3.005800	3.811000	-11.454000	23.503189	0.000524	20.735437
393.088352	-2.987000	3.811400	-11.384000	23.516035	0.000522	20.726501
394.093835	-3.010200	3.810300	-11.468000	23.498755	0.000525	20.721508
395.085641	-3.018400	3.810700	-11.501000	23.516301	0.000524	20.726768
396.090031	-3.008000	3.808900	-11.455000	23.557704	0.000522	20.739349
397.090153	-3.005300	3.809100	-11.447000	23.559345	0.000524	20.752374
398.091542	-3.008800	3.810500	-11.464000	23.556453	0.000525	20.730034
399.084357	-3.012400	3.809100	-11.474000	23.559764	0.000524	20.721973
400.089668	-3.025900	3.807500	-11.521000	23.555803	0.000524	20.739340
401.092383	-2.993000	3.809300	-11.400000	23.569890	0.000527	20.735917
402.090877	-2.996900	3.809000	-11.414000	23.576240	0.000527	20.726636
403.091824	-3.008000	3.807700	-11.452000	23.614030	0.000527	20.737967
404.091076	-3.017300	3.807900	-11.488000	23.614001	0.000526	20.754533
405.092739	-2.970500	3.808500	-11.312000	23.625199	0.000528	20.742526
406.096149	-2.983600	3.807700	-11.360000	23.639886	0.000526	20.745870
407.098013	-3.002700	3.806400	-11.428000	23.616834	0.000525	20.741252
408.093997	-3.015200	3.806800	-11.477000	23.595352	0.000527	20.735838
409.092236	-3.002500	3.807500	-11.431000	23.603261	0.000527	20.733809
410.097110	-3.010800	3.805200	-11.456000	23.610301	0.000528	20.762679
411.093246	-3.019700	3.805900	-11.492000	23.611942	0.000526	20.747254
412.097318	-2.996500	3.805700	-11.402000	23.617519	0.000528	20.757587
413.095370	-2.994800	3.804800	-11.393000	23.626033	0.000525	20.757113
414.096613	-2.984800	3.804700	-11.355000	23.644873	0.000526	20.749447
415.096672	-3.022900	3.804100	-11.498000	23.625531	0.000526	20.775102
416.097183	-3.004100	3.805000	-11.429000	23.651120	0.000527	20.741011
417.100328	-3.001600	3.805700	-11.422000	23.654077	0.000527	20.757252
418.096823	-3.007800	3.804200	-11.442000	23.656688	0.000527	20.760818
419.098463	-3.003500	3.804800	-11.426000	23.659580	0.000528	20.760872
420.097703	-3.002200	3.802300	-11.414000	23.661171	0.000527	20.758674
421.097726	-3.008500	3.803800	-11.443000	23.665053	0.000527	20.740755
422.098271	-2.991200	3.803500	-11.375000	23.678350	0.000529	20.762146
423.099341	-2.994400	3.802700	-11.386000	23.708288	0.000527	20.753281
424.097350	-2.978600	3.803200	-11.327000	23.724816	0.000529	20.743298
425.099831	-3.018900	3.803100	-11.481000	23.730935	0.000528	20.753701
426.098231	-2.982800	3.802600	-11.341000	23.742837	0.000527	20.769901
427.097759	-2.991600	3.802900	-11.376000	23.721481	0.000528	20.762241
428.103423	-2.996000	3.801500	-11.388000	23.728950	0.000529	20.747917
429.099140	-3.001500	3.801800	-11.410000	23.740049	0.000528	20.768054
430.098803	-3.000400	3.801400	-11.404000	23.724068	0.000530	20.755350
431.099930	-3.001900	3.801100	-11.409000	23.718545	0.000528	20.773522
432.100281	-3.002900	3.800000	-11.410000	23.709062	0.000529	20.771600
433.101373	-2.991700	3.800400	-11.369000	23.707840	0.000530	20.767056
434.107265	-2.984300	3.801100	-11.343000	23.716826	0.000530	20.779385
435.102249	-3.025700	3.798900	-11.494000	23.711299	0.000529	20.768627
436.104588	-2.999900	3.800100	-11.398000	23.686582	0.000529	20.767555
437.107459	-3.005400	3.800500	-11.421000	23.707219	0.000529	20.778762
438.102973	-3.017600	3.798700	-11.463000	23.724565	0.000529	20.765807
439.109584	-2.980100	3.800000	-11.324000	23.746448	0.000531	20.785850
440.117321	-3.008600	3.797300	-11.423000	23.756453	0.000530	20.768854
441.105853	-3.000800	3.797500	-11.394000	23.810788	0.000533	20.770227
442.108957	-2.983200	3.799500	-11.333000	23.790103	0.000531	20.763713
443.105278	-2.989100	3.798200	-11.352000	23.774896	0.000531	20.760793
444.108185	-3.000200	3.796400	-11.389000	23.808024	0.000530	20.757499
445.106061	-2.994100	3.797600	-11.369000	23.784601	0.000530	20.764834
446.107080	-2.994900	3.796800	-11.370000	23.797197	0.000532	20.765609
447.108022	-2.976700	3.795200	-11.296000	23.780325	0.000530	20.768133
448.109298	-2.981000	3.798300	-11.322000	23.778379	0.000530	20.763811
449.108933	-2.988100	3.796300	-11.343000	23.787813	0.000531	20.773270
450.114138	-2.997800	3.796100	-11.378000	23.824600	0.000532	20.777439
451.107631	-3.000900	3.795400	-11.389000	23.816438	0.000531	20.765935
452.105577	-2.990300	3.795700	-11.350000	23.816413	0.000531	20.787722
453.109635	-2.999600	3.794200	-11.380000	23.835102	0.000531	20.788443
454.106995	-3.021600	3.795500	-11.467000	23.844835	0.000532	20.788245
455.108883	-2.997900	3.795200	-11.377000	23.851579	0.000533	20.790266
456.105523	-3.021000	3.793200	-11.457000	23.832713	0.000533	20.786048
457.105459	-2.996300	3.793000	-11.364000	23.863977	0.000532	20.778041
458.106326	-2.996000	3.793000	-11.363000	23.869828	0.000531	20.791021
459.105342	-3.034700	3.791800	-11.506000	23.845712	0.000534	20.775374
460.106256	-3.004300	3.793900	-11.397000	23.853327	0.000533	20.779216
461.108594	-3.013300	3.791600	-11.423000	23.848726	0.000533	20.779819
462.109633	-3.018000	3.791600	-11.441000	23.853701	0.000532	20.796661
463.109658	-3.007100	3.792300	-11.402000	23.877670	0.000533	20.778021
464.110067	-3.012300	3.791900	-11.421000	23.842057	0.000534	20.782140
465.108782	-2.990400	3.792200	-11.339000	23.895806	0.000535	20.792414
466.114979	-2.991200	3.791200	-11.340000	23.908159	0.000534	20.781093
467.109010	-2.981100	3.792800	-11.306000	23.916690	0.000533	20.796286
468.112350	-2.965700	3.791700	-11.244000	23.892481	0.000533	20.806149
469.110115	-2.991200	3.791400	-11.339000	23.909755	0.000535	20.786960
470.110745	-3.011700	3.789400	-11.411000	23.881453	0.000534	20.803625
471.113401	-2.995200	3.789900	-11.352000	23.891712	0.000537	20.795895
472.110887	-2.977800	3.790300	-11.286000	23.908105	0.000536	20.788625
473.111609	-2.989300	3.789000	-11.325000	23.901411	0.000536	20.780490
474.108674	-2.989800	3.790300	-11.331000	23.892550	0.000535	20.790097
475.111451	-3.005900	3.789800	-11.391000	23.914725	0.000535	20.811385
476.116044	-2.960800	3.789700	-11.219000	23.927438	0.000535	20.786675
477.112163	-2.978000	3.789300	-11.284000	23.931526	0.000536	20.811162
478.115980	-2.989300	3.789500	-11.327000	23.959916	0.000536	20.789371
479.114608	-2.986700	3.788000	-11.313000	23.928856	0.000535	20.789045
480.113709	-3.009000	3.788300	-11.398000	23.916188	0.000535	20.813326
481.114333	-3.005000	3.787300	-11.380000	23.899717	0.000537	20.806767
482.116450	-3.006600	3.787300	-11.385000	23.907303	0.000533	20.807735
483.112523	-2.999200	3.786100	-11.355000	23.935797	0.000536	20.795531
484.117491	-3.013500	3.785900	-11.408000	23.936102	0.000536	20.804845
485.118243	-3.001000	3.787100	-11.364000	23.948189	0.000537	20.821234
486.115901	-3.015200	3.786000	-11.414000	23.946593	0.000535	20.806357
487.117857	-2.983100	3.786800	-11.296000	23.943436	0.000535	20.797976
488.118078	-3.008500	3.785200	-11.387000	23.968196	0.000535	20.803364
489.117970	-3.008300	3.785700	-11.388000	23.966806	0.000537	20.814299
490.118943	-2.999000	3.784200	-11.348000	23.943736	0.000535	20.793535
491.121442	-3.022700	3.783600	-11.435000	23.980119	0.000536	20.795407
492.117208	-2.996000	3.784900	-11.338000	24.001046	0.000536	20.799798
493.118857	-3.013300	3.784800	-11.403000	24.037354	0.000537	20.811079
494.120382	-3.005100	3.784500	-11.372000	24.041338	0.000537	20.801324
495.119849	-2.979800	3.782900	-11.272000	24.008212	0.000538	20.816942
496.122015	-2.994000	3.782800	-11.325000	24.024736	0.000538	20.813124
497.121248	-2.992600	3.783000	-11.321000	24.060496	0.000537	20.803468
498.122739	-2.984900	3.783000	-11.290000	24.070153	0.000538	20.806041
499.121758	-2.968000	3.783400	-11.228000	24.104592	0.000539	20.819717
500.119855	-2.973800	3.783000	-11.249000	24.088567	0.000537	20.810758
501.128504	-2.993300	3.782600	-11.322000	24.114318	0.000534	20.814299
502.123680	-2.981600	3.782100	-11.276000	24.092275	0.000534	20.813054
503.124327	-2.985100	3.781700	-11.288000	24.108871	0.000535	20.824483
504.123613	-3.004500	3.781600	-11.361000	24.090158	0.000538	20.831793
505.121308	-2.988400	3.781600	-11.300000	24.082593	0.000536	20.828000
506.123055	-2.989800	3.780600	-11.302000	24.088995	0.000538	20.817351
507.123836	-2.978500	3.781100	-11.261000	24.096682	0.000535	20.827431
508.126187	-2.981600	3.781400	-11.274000	24.125368	0.000539	20.806890
509.128447	-2.965100	3.781400	-11.211000	24.128485	0.000538	20.815232
510.124450	-2.987600	3.780800	-11.294000	24.124629	0.000537	20.831753
511.126020	-3.000000	3.778900	-11.336000	24.116189	0.000538	20.833719
512.131916	-3.015200	3.778500	-11.392000	24.117686	0.000535	20.819573
513.128742	-3.011400	3.777900	-11.376000	24.116366	0.000538	20.806870
514.129298	-2.985700	3.778700	-11.281000	24.119380	0.000537	20.834074
515.127458	-2.976700	3.779100	-11.248000	24.134660	0.000536	20.845132
516.126826	-2.984300	3.779100	-11.277000	24.136423	0.000539	20.808969
517.126722	-3.002500	3.778200	-11.343000	24.114977	0.000535	20.836296
518.125459	-2.988700	3.778300	-11.291000	24.103832	0.000538	20.828912
519.131814	-2.984600	3.776600	-11.271000	24.098105	0.000538	20.840238
520.130085	-2.998300	3.777400	-11.325000	24.100095	0.000536	20.831328
521.137364	-2.997400	3.776600	-11.319000	24.099474	0.000535	20.850619
522.127852	-2.986900	3.777400	-11.281000	24.107162	0.000537	20.855958
523.128391	-2.989900	3.777200	-11.292000	24.141077	0.000537	20.826912
524.134464	-3.003100	3.776000	-11.338000	24.147420	0.000538	20.842757
525.128573	-3.010100	3.774700	-11.361000	24.215129	0.000539	20.832908
526.127775	-3.008900	3.774800	-11.356000	24.209126	0.000539	20.835896
527.129659	-3.002900	3.774700	-11.334000	24.216542	0.000538	20.864196
528.126930	-3.004000	3.773900	-11.336000	24.206586	0.000538	20.835245
529.131883	-3.015900	3.773700	-11.380000	24.192178	0.000538	20.827905
530.134146	-3.001100	3.776700	-11.334000	24.175011	0.000538	20.845300
531.139394	-3.004200	3.774500	-11.338000	24.175583	0.000537	20.848718
532.134866	-2.984200	3.774800	-11.264000	24.191134	0.000539	20.844876
533.135698	-3.022400	3.774200	-11.407000	24.209890	0.000540	20.850886
534.131332	-3.000500	3.774100	-11.324000	24.227681	0.000539	20.847395
535.132597	-3.012300	3.773300	-11.365000	24.236884	0.000539	20.856625
536.132099	-3.004200	3.773600	-11.335000	24.199663	0.000537	20.849163
537.136430	-3.008600	3.772200	-11.348000	24.208472	0.000538	20.846145
538.133781	-3.007100	3.772600	-11.344000	24.221359	0.000540	20.850062
539.131102	-3.001200	3.772200	-11.320000	24.182916	0.000537	20.868400
540.130740	-2.996500	3.772800	-11.305000	24.201204	0.000538	20.850709
541.134357	-2.992000	3.771700	-11.285000	24.200131	0.000536	20.862434
542.129725	-2.972800	3.772900	-11.215000	24.210083	0.000538	20.852976
543.128719	-3.017500	3.770500	-11.377000	24.236653	0.000538	20.869195
544.129729	-3.006300	3.771900	-11.339000	24.217893	0.000537	20.862232
545.130178	-3.021100	3.770600	-11.391000	24.203263	0.000538	20.854670
546.130401	-3.033500	3.768900	-11.432000	24.203514	0.000538	20.862508
547.129486	-2.999800	3.771100	-11.311000	24.225476	0.000538	20.859881
548.129532	-3.004500	3.770700	-11.328000	24.206691	0.000538	20.865220
549.131682	-2.997500	3.770000	-11.300000	24.235403	0.000539	20.866519
550.130876	-3.020300	3.768900	-11.383000	24.205125	0.000540	20.862701
551.132840	-3.022100	3.768200	-11.387000	24.239834	0.000537	20.849154
552.132708	-2.995100	3.769000	-11.288000	24.243311	0.000537	20.846003
553.129657	-3.007100	3.768200	-11.330000	24.238786	0.000542	20.845257
554.132973	-3.020200	3.768900	-11.381000	24.231572	0.000540	20.858883
555.137699	-3.007800	3.768600	-11.334000	24.230400	0.000538	20.859131
556.134040	-2.983000	3.768600	-11.241000	24.228332	0.000537	20.856108
557.135566	-3.008200	3.767700	-11.333000	24.282821	0.000539	20.856710
558.134943	-3.028200	3.766000	-11.403000	24.277346	0.000540	20.855960
559.135426	-2.990700	3.766400	-11.263000	24.273342	0.000537	20.866168
560.135517	-2.990400	3.766200	-11.261000	24.239151	0.000538	20.867907
561.134229	-2.988400	3.766200	-11.253000	24.242066	0.000537	20.849495
562.134251	-2.988200	3.766600	-11.254000	24.270600	0.000537	20.849668
563.136193	-2.972800	3.766200	-11.195000	24.290872	0.000539	20.837287
564.135273	-3.016000	3.764700	-11.353000	24.309558	0.000539	20.830900
565.138492	-2.990300	3.765000	-11.257000	24.316150	0.000538	20.845100
566.137078	-2.995300	3.765600	-11.278000	24.268360	0.000537	20.848843
567.147533	-3.004900	3.765000	-11.312000	24.290054	0.000540	20.832673
568.138064	-2.995800	3.765400	-11.280000	24.334137	0.000540	20.835642
569.139164	-2.976600	3.765800	-11.207000	24.356874	0.000537	20.843751
570.137018	-3.005900	3.764100	-11.314000	24.361349	0.000537	20.830224
571.134396	-2.996400	3.765000	-11.281000	24.369310	0.000536	20.838210
572.139298	-3.007700	3.763900	-11.319000	24.385681	0.000537	20.851313
573.142661	-3.007800	3.763500	-11.318000	24.337765	0.000538	20.839282
574.139697	-2.976900	3.763900	-11.203000	24.334732	0.000538	20.829602
575.139312	-2.993900	3.762700	-11.264000	24.363762	0.000537	20.835963
576.141430	-2.987900	3.761300	-11.238000	24.358316	0.000536	20.823388
577.138030	-2.997000	3.762300	-11.275000	24.314087	0.000536	20.821694
578.144201	-2.982400	3.761500	-11.218000	24.311300	0.000535	20.843080
579.139507	-2.999700	3.761500	-11.283000	24.310330	0.000535	20.803701
580.134475	-2.983400	3.761100	-11.221000	24.318991	0.000536	20.810492
581.139115	-2.999600	3.761500	-11.282000	24.301778	0.000535	20.820726
582.133870	-3.005500	3.761500	-11.304000	24.324692	0.000536	20.816685
583.139469	-3.001100	3.760600	-11.284000	24.353081	0.000536	20.818611
584.140227	-3.002600	3.759000	-11.285000	24.336316	0.000540	20.808906
585.139978	-2.989600	3.760700	-11.242000	24.311290	0.000537	20.842120
586.139915	-3.008000	3.759500	-11.308000	24.297385	0.000536	20.813474
587.135879	-3.003300	3.759400	-11.290000	24.313234	0.000536	20.832218
588.139071	-2.993400	3.759100	-11.252000	24.309453	0.000536	20.810881
589.142428	-3.004100	3.758800	-11.291000	24.358245	0.000536	20.810041
590.140429	-2.986600	3.760100	-11.228000	24.368294	0.000536	20.823441
591.137275	-2.982800	3.759500	-11.212000	24.399218	0.000537	20.816531
592.138425	-3.020300	3.758700	-11.351000	24.402226	0.000536	20.812436
593.140758	-2.995600	3.758300	-11.257000	24.438598	0.000535	20.807675
594.143295	-2.998000	3.757300	-11.264000	24.428624	0.000535	20.784866
595.141383	-2.989000	3.757100	-11.229000	24.364394	0.000534	20.813839
596.142292	-2.985600	3.756600	-11.215000	24.371813	0.000535	20.795203
597.145933	-3.011700	3.756800	-11.313000	24.376811	0.000535	20.810648
598.140176	-2.998300	3.755500	-11.259000	24.395697	0.000536	20.784075
599.149498	-3.020400	3.755100	-11.341000	24.413652	0.000532	20.792605
600.143652	-2.989400	3.756100	-11.227000	24.411343	0.000535	20.786969
601.142918	-2.994100	3.755900	-11.244000	24.419481	0.000536	20.775219
602.140270	-2.999400	3.755800	-11.265000	24.413558	0.000534	20.805313
603.143587	-3.017000	3.753800	-11.325000	24.377687	0.000536	20.819113
604.154900	-2.999600	3.755200	-11.263000	24.356644	0.000536	20.788046
605.146331	-2.998300	3.755300	-11.258000	24.378386	0.000535	20.798477
606.144200	-2.996900	3.755400	-11.253000	24.376347	0.000535	20.781734
607.148518	-2.986700	3.754600	-11.213000	24.390083	0.000535	20.786505
608.145004	-2.998400	3.754700	-11.257000	24.404435	0.000537	20.784781
609.147491	-3.006200	3.752800	-11.281000	24.451151	0.000536	20.796087
610.148065	-2.993200	3.753400	-11.233000	24.483978	0.000536	20.786347
611.147440	-3.010300	3.752700	-11.296000	24.463789	0.000534	20.775574
612.149390	-2.992500	3.752700	-11.229000	24.441423	0.000535	20.809086
613.146501	-2.978300	3.752900	-11.176000	24.461125	0.000537	20.786653
614.149564	-2.991700	3.753600	-11.229000	24.483313	0.000536	20.772403
615.149640	-2.993500	3.751600	-11.229000	24.488689	0.000535	20.795341
616.146519	-2.981300	3.753600	-11.190000	24.519851	0.000534	20.792466
617.149266	-2.996200	3.750900	-11.238000	24.547979	0.000537	20.812154
618.149581	-2.992800	3.751600	-11.227000	24.557209	0.000533	20.784905
619.149742	-2.993200	3.751000	-11.226000	24.531641	0.000535	20.779165
620.148416	-3.000500	3.750600	-11.253000	24.503857	0.000536	20.774522
621.148469	-2.999500	3.751800	-11.253000	24.466866	0.000534	20.789093
622.146407	-3.000000	3.751900	-11.254000	24.486017	0.000536	20.780805
623.150252	-2.991700	3.751000	-11.220000	24.507362	0.000534	20.782781
624.155638	-2.989400	3.749900	-11.210000	24.533600	0.000533	20.801520
625.150408	-2.995700	3.750600	-11.234000	24.526586	0.000533	20.781205
626.149971	-2.981200	3.749800	-11.178000	24.519423	0.000532	20.775916
627.152838	-2.977300	3.750600	-11.165000	24.496812	0.000532	20.790214
628.153110	-2.997400	3.750100	-11.239000	24.496886	0.000534	20.779857
629.151428	-2.960600	3.750100	-11.101000	24.515441	0.000533	20.773342
630.152442	-2.999000	3.749000	-11.242000	24.490097	0.000532	20.763088
631.149405	-2.985500	3.748400	-11.189000	24.508401	0.000532	20.784298
632.154103	-2.955000	3.749300	-11.078000	24.518547	0.000532	20.785468
633.152974	-2.982700	3.748200	-11.179000	24.499023	0.000534	20.776311
634.151379	-2.988900	3.747700	-11.200000	24.485766	0.000533	20.769174
635.148726	-2.989300	3.747700	-11.202000	24.481113	0.000532	20.802439
636.149365	-2.988900	3.748200	-11.202000	24.473128	0.000532	20.795850
637.150029	-3.023500	3.745900	-11.325000	24.516312	0.000531	20.783700
638.150011	-2.997100	3.746700	-11.228000	24.525365	0.000531	20.768601
639.151285	-2.994500	3.746900	-11.220000	24.536653	0.000532	20.773763
640.157513	-3.005900	3.745700	-11.257000	24.562797	0.000534	20.789563
641.154936	-2.979100	3.747200	-11.163000	24.588488	0.000532	20.778830
642.159983	-2.994400	3.746400	-11.217000	24.585455	0.000531	20.759192
643.149845	-2.993000	3.744600	-11.206000	24.564589	0.000532	20.782826
644.157174	-2.990000	3.746100	-11.199000	24.564318	0.000532	20.765958
645.155064	-3.003100	3.744600	-11.245000	24.560385	0.000530	20.773392
646.155449	-2.997700	3.745400	-11.226000	24.593834	0.000531	20.791306
647.155219	-2.999900	3.743700	-11.229000	24.592042	0.000531	20.788086
648.155206	-2.993600	3.743800	-11.207000	24.599607	0.000532	20.772444
649.156063	-3.013500	3.743400	-11.280000	24.594483	0.000529	20.772518
650.155303	-2.983900	3.744500	-11.173000	24.564358	0.000531	20.790181
651.158435	-2.998400	3.742800	-11.222000	24.578067	0.000529	20.793504
652.155169	-3.024600	3.743100	-11.320000	24.576694	0.000532	20.755142
653.160190	-2.989100	3.743400	-11.189000	24.590949	0.000529	20.766601
654.157793	-3.020300	3.742400	-11.302000	24.604279	0.000529	20.763854
655.159502	-2.989100	3.743100	-11.188000	24.641959	0.000528	20.754722
656.157619	-3.007900	3.740500	-11.250000	24.641260	0.000529	20.768720
657.159822	-2.993300	3.741700	-11.199000	24.629476	0.000529	20.781077
658.161894	-2.997500	3.740800	-11.212000	24.617407	0.000529	20.779398
659.155439	-2.999700	3.739800	-11.216000	24.596102	0.000530	20.772246
660.156211	-2.975400	3.741600	-11.131000	24.592145	0.000528	20.771594
661.163458	-2.987100	3.740900	-11.173000	24.548176	0.000529	20.760668
662.159116	-3.002600	3.739200	-11.225000	24.538646	0.000529	20.767702
663.158426	-2.971400	3.741900	-11.118000	24.499673	0.000526	20.752780
664.160911	-3.021200	3.739000	-11.295000	24.521761	0.000529	20.774468
665.161165	-2.978700	3.739900	-11.139000	24.562083	0.000529	20.777940
666.161821	-3.001600	3.739700	-11.223000	24.583673	0.000528	20.767835
667.160871	-2.992800	3.738500	-11.188000	24.576087	0.000528	20.756430
668.160118	-2.971700	3.740300	-11.115000	24.587207	0.000527	20.746250
669.156786	-2.991300	3.738000	-11.181000	24.590618	0.000527	20.756311
670.161684	-2.974800	3.738900	-11.122000	24.596584	0.000528	20.740011
671.161873	-3.001300	3.737900	-11.218000	24.574202	0.000528	20.766392
672.161241	-3.002100	3.737500	-11.219000	24.553536	0.000526	20.750873
673.162572	-3.019800	3.736200	-11.281000	24.587738	0.000527	20.750102
674.165740	-3.028200	3.737700	-11.317000	24.593236	0.000528	20.759412
675.162699	-3.021200	3.738200	-11.293000	24.583189	0.000529	20.752176
676.160488	-2.997600	3.737500	-11.202000	24.572247	0.000527	20.765853
677.164562	-3.025500	3.736600	-11.304000	24.572798	0.000528	20.767829
678.165259	-2.981400	3.737000	-11.141000	24.596726	0.000525	20.763388
679.169404	-2.991100	3.736300	-11.175000	24.590760	0.000526	20.749815
680.166151	-3.015600	3.734500	-11.261000	24.589618	0.000529	20.740608
681.166411	-2.967600	3.736100	-11.087000	24.524230	0.000525	20.759402
682.169871	-3.001400	3.735700	-11.211000	24.542760	0.000526	20.753810
683.167280	-2.997800	3.734400	-11.193000	24.552511	0.000524	20.743680
684.166005	-2.986400	3.734700	-11.152000	24.541918	0.000525	20.743482
685.164046	-2.970000	3.735800	-11.094000	24.562415	0.000527	20.733228
686.168366	-2.999300	3.735500	-11.204000	24.628770	0.000525	20.744332
687.171150	-2.997800	3.734700	-11.194000	24.663516	0.000525	20.779198
688.164675	-3.022900	3.732400	-11.282000	24.647971	0.000527	20.737994
689.172618	-3.014700	3.732800	-11.253000	24.655187	0.000526	20.753296
690.169250	-3.010600	3.734600	-11.243000	24.628051	0.000527	20.727014
691.169561	-2.988800	3.733500	-11.158000	24.637822	0.000526	20.744406
692.177078	-2.984500	3.733500	-11.142000	24.653568	0.000525	20.745033
693.169259	-3.004000	3.732300	-11.210000	24.659957	0.000523	20.742909
694.171525	-3.001100	3.732700	-11.201000	24.589425	0.000527	20.755588
695.170918	-2.979700	3.732400	-11.121000	24.569631	0.000525	20.754220
696.171681	-3.000500	3.731900	-11.197000	24.553510	0.000525	20.743734
697.169047	-2.998300	3.732800	-11.191000	24.584099	0.000524	20.756883
698.168838	-3.019300	3.731100	-11.264000	24.611763	0.000526	20.741017
699.170015	-2.986200	3.732200	-11.144000	24.610016	0.000526	20.738316
700.171947	-3.018700	3.730800	-11.261000	24.642823	0.000528	20.721447
701.171689	-3.002200	3.730800	-11.199000	24.628696	0.000522	20.746154
702.172342	-3.011200	3.730600	-11.232000	24.665204	0.000523	20.739639
703.169405	-3.006500	3.730400	-11.215000	24.660553	0.000524	20.741610
704.169353	-3.000600	3.729600	-11.189000	24.668413	0.000523	20.734799
705.180108	-2.993600	3.730400	-11.167000	24.674704	0.000522	20.751543
706.174034	-3.003900	3.729500	-11.202000	24.641228	0.000522	20.728383
707.173973	-3.012900	3.728600	-11.233000	24.620121	0.000522	20.747033
708.175997	-2.989700	3.729300	-11.148000	24.644339	0.000522	20.712537
709.170767	-3.014800	3.728300	-11.238000	24.702208	0.000520	20.737891
710.174258	-3.029000	3.728600	-11.293000	24.708449	0.000523	20.761698
711.174184	-3.001900	3.728300	-11.191000	24.703030	0.000520	20.732551
712.171772	-3.006100	3.728700	-11.207000	24.683854	0.000520	20.725162
713.174501	-3.025700	3.727200	-11.277000	24.697212	0.000520	20.740938
714.174643	-2.995800	3.727700	-11.166000	24.645161	0.000519	20.736122
715.174750	-3.010000	3.727200	-11.219000	24.621332	0.000520	20.741610
716.176075	-3.003700	3.727200	-11.195000	24.610414	0.000518	20.749622
717.172303	-3.011300	3.726400	-11.222000	24.669531	0.000518	20.744455
718.173083	-3.002600	3.726800	-11.189000	24.697734	0.000519	20.716330
719.172506	-2.983500	3.726500	-11.116000	24.696567	0.000519	20.734601
720.176457	-3.028600	3.724100	-11.278000	24.733245	0.000520	20.719250
721.177535	-3.045800	3.726000	-11.347000	24.670180	0.000521	20.746530
722.171989	-3.012700	3.725600	-11.222000	24.678361	0.000520	20.725340
723.174226	-3.004200	3.726500	-11.195000	24.669752	0.000520	20.729504
724.180597	-3.003200	3.725800	-11.188000	24.682239	0.000519	20.730655
725.176303	-3.020300	3.724200	-11.247000	24.668841	0.000517	20.737599
726.180998	-3.006300	3.725600	-11.199000	24.712332	0.000518	20.725765
727.177729	-3.005600	3.723400	-11.190000	24.715241	0.000519	20.735322
728.176252	-3.016600	3.724100	-11.233000	24.707209	0.000516	20.726313
729.176612	-3.000600	3.724900	-11.176000	24.681619	0.000517	20.722919
730.177602	-3.027200	3.722300	-11.267000	24.673660	0.000519	20.735796
731.179186	-2.999900	3.723800	-11.170000	24.731902	0.000516	20.699882
732.183731	-3.034300	3.722200	-11.293000	24.745958	0.000517	20.723947
733.179902	-2.997500	3.722800	-11.159000	24.771817	0.000517	20.718602
734.180802	-2.979600	3.724700	-11.097000	24.760684	0.000516	20.730664
735.181674	-2.988200	3.722500	-11.123000	24.723323	0.000516	20.731578
736.180706	-3.002000	3.722200	-11.173000	24.734240	0.000514	20.704125
737.180421	-3.004100	3.721500	-11.179000	24.733147	0.000516	20.712512
738.178987	-2.997600	3.721400	-11.154000	24.741726	0.000514	20.733924
739.180022	-3.015400	3.722100	-11.221000	24.730139	0.000514	20.708071
740.179073	-3.003900	3.722000	-11.180000	24.736311	0.000516	20.711894
741.179255	-2.982600	3.721900	-11.100000	24.758218	0.000516	20.720128
742.182981	-2.986900	3.721700	-11.116000	24.781916	0.000515	20.733954
743.180084	-2.980000	3.721900	-11.091000	24.812528	0.000516	20.698291
744.182017	-2.998200	3.719700	-11.151000	24.805091	0.000515	20.729711
745.181588	-2.984200	3.720500	-11.102000	24.819664	0.000515	20.705453
746.178571	-2.979600	3.720700	-11.085000	24.828493	0.000515	20.702934
747.180505	-3.010800	3.718800	-11.196000	24.841967	0.000513	20.726891
748.185130	-3.000300	3.719500	-11.158000	24.834413	0.000514	20.718834
749.181087	-2.973300	3.720600	-11.061000	24.853837	0.000515	20.729794
750.182827	-2.986900	3.720200	-11.112000	24.865122	0.000516	20.739698
751.183445	-3.003300	3.719300	-11.169000	24.828493	0.000515	20.701986
752.182671	-3.001000	3.718800	-11.159000	24.780100	0.000516	20.707948
753.186172	-3.002700	3.718400	-11.164000	24.787639	0.000514	20.703186
754.181947	-2.986300	3.718300	-11.102000	24.775778	0.000515	20.720207
755.179615	-3.018700	3.718300	-11.223000	24.736267	0.000513	20.684346
756.182812	-3.007500	3.717500	-11.179000	24.748699	0.000512	20.697772
757.179663	-3.016200	3.716000	-11.208000	24.739796	0.000513	20.700217
758.185702	-2.984900	3.718300	-11.098000	24.752528	0.000511	20.711099
759.180721	-3.011100	3.716200	-11.188000	24.771728	0.000511	20.725626
760.185105	-2.994400	3.716000	-11.126000	24.795819	0.000514	20.705705
761.185746	-3.000500	3.716200	-11.150000	24.765610	0.000513	20.712373
762.184579	-2.968800	3.716900	-11.034000	24.801021	0.000511	20.702865
763.186926	-3.006800	3.714400	-11.168000	24.799185	0.000513	20.713351
764.186212	-3.011700	3.715900	-11.190000	24.774764	0.000511	20.712551
765.182903	-3.034900	3.715500	-11.275000	24.793235	0.000511	20.681773
766.187260	-2.971600	3.717200	-11.045000	24.774115	0.000510	20.684870
767.184927	-3.009100	3.716300	-11.183000	24.822705	0.000511	20.708031
768.186877	-3.000400	3.715000	-11.145000	24.789957	0.000510	20.704090
769.191535	-2.979900	3.714600	-11.069000	24.794382	0.000508	20.699995
770.186312	-2.981900	3.716200	-11.081000	24.801316	0.000510	20.684668
771.190781	-3.012300	3.715100	-11.190000	24.756086	0.000511	20.675786
772.195219	-3.013800	3.714500	-11.194000	24.739249	0.000508	20.705359
773.189513	-3.003900	3.714000	-11.156000	24.764694	0.000508	20.701970
774.195719	-2.982200	3.713100	-11.073000	24.764640	0.000507	20.709503
775.194308	-2.980300	3.715100	-11.071000	24.774493	0.000508	20.699476
776.193470	-2.980900	3.714300	-11.071000	24.841204	0.000508	20.688189
777.195470	-2.993000	3.714500	-11.117000	24.806941	0.000509	20.711178
778.200832	-3.019500	3.711900	-11.207000	24.777821	0.000508	20.706135
779.195534	-3.014100	3.712200	-11.188000	24.735272	0.000506	20.705161
780.199456	-3.013300	3.712500	-11.186000	24.724183	0.000509	20.713949
781.193079	-3.004000	3.713300	-11.153000	24.744097	0.000505	20.701689
782.194546	-2.995300	3.711200	-11.116000	24.715452	0.000507	20.713722
783.198601	-2.999000	3.710600	-11.127000	24.758971	0.000505	20.694329
784.200323	-2.988300	3.712200	-11.092000	24.773814	0.000506	20.712072
785.197186	-2.998000	3.710800	-11.124000	24.802143	0.000506	20.700197
786.197426	-3.006000	3.712300	-11.158000	24.790006	0.000505	20.702716
787.196195	-2.986000	3.710000	-11.077000	24.820490	0.000504	20.717189
788.198203	-2.979200	3.712100	-11.058000	24.823526	0.000504	20.685621
789.194015	-3.013200	3.709100	-11.176000	24.740942	0.000506	20.722232
790.197601	-3.005400	3.710300	-11.150000	24.745342	0.000503	20.706258
791.195580	-3.005500	3.709000	-11.146000	24.734229	0.000505	20.699372
792.199544	-2.991800	3.710100	-11.099000	24.774164	0.000503	20.708629
793.201150	-3.007400	3.708700	-11.151000	24.755786	0.000505	20.696824
794.198474	-3.023800	3.707700	-11.210000	24.766107	0.000500	20.692482
795.199916	-3.019000	3.707200	-11.191000	24.804402	0.000505	20.702939
796.197377	-3.013800	3.708300	-11.175000	24.801542	0.000504	20.701017
797.198826	-3.006300	3.709000	-11.150000	24.775906	0.000502	20.677184
798.201208	-3.012700	3.708200	-11.171000	24.764493	0.000502	20.695603
799.200461	-2.977400	3.707700	-11.039000	24.800647	0.000501	20.707231
800.197403	-2.979300	3.707900	-11.046000	24.784460	0.000502	20.693830
801.201765	-3.014100	3.707100	-11.172000	24.772702	0.000502	20.720439
802.199932	-3.015500	3.707000	-11.177000	24.765511	0.000503	20.696626
803.200581	-3.004100	3.706000	-11.133000	24.761564	0.000501	20.722064
804.203834	-3.013100	3.706500	-11.166000	24.796099	0.000501	20.705512
805.201501	-2.976600	3.706700	-11.032000	24.830146	0.000503	20.702222
806.213253	-2.999100	3.706300	-11.115000	24.851627	0.000499	20.708135
807.198853	-3.009000	3.705800	-11.150000	24.826017	0.000499	20.699026
808.202127	-3.009700	3.705800	-11.153000	24.851381	0.000500	20.707414
809.202436	-2.988600	3.705300	-11.073000	24.846415	0.000500	20.694368
810.202734	-2.990800	3.705300	-11.081000	24.855687	0.000499	20.698932
811.203779	-2.984500	3.706600	-11.062000	24.839378	0.000498	20.714333
812.202139	-2.985900	3.706500	-11.067000	24.837143	0.000499	20.707823
813.202288	-2.994200	3.704200	-11.090000	24.822748	0.000499	20.700013
814.199333	-2.983600	3.705100	-11.054000	24.795001	0.000499	20.699193
815.202543	-3.011700	3.703500	-11.153000	24.809893	0.000498	20.704182
816.200546	-3.005800	3.702800	-11.128000	24.833073	0.000499	20.713221
817.206730	-3.000100	3.704400	-11.113000	24.840706	0.000498	20.706183
818.208086	-3.006000	3.703800	-11.133000	24.873757	0.000499	20.700947
819.204294	-3.001100	3.703200	-11.113000	24.903377	0.000497	20.688000
820.206778	-3.005500	3.702000	-11.125000	24.838850	0.000498	20.701949
821.203915	-3.003900	3.701900	-11.119000	24.865484	0.000498	20.708291
822.208110	-3.004000	3.702800	-11.122000	24.879583	0.000497	20.679291
823.205532	-3.017700	3.701700	-11.169000	24.885483	0.000497	20.716984
824.205105	-3.001500	3.702400	-11.112000	24.897146	0.000497	20.705455
825.207295	-3.005800	3.701800	-11.126000	24.908189	0.000495	20.704685
826.204200	-2.989200	3.702300	-11.066000	24.898322	0.000495	20.713274
827.206318	-3.022500	3.700600	-11.184000	24.928232	0.000494	20.689239
828.209684	-2.997600	3.701300	-11.094000	24.919433	0.000495	20.716445
829.204881	-3.016800	3.701300	-11.165000	24.871944	0.000495	20.704818
830.203636	-2.993000	3.700900	-11.076000	24.881344	0.000495	20.707139
831.208233	-2.990800	3.700200	-11.065000	24.906235	0.000494	20.716001
832.205178	-3.002600	3.702100	-11.115000	24.856679	0.000496	20.709886
833.209136	-3.013200	3.699100	-11.145000	24.910240	0.000495	20.708641
834.213477	-3.006000	3.700400	-11.122000	24.912336	0.000495	20.730660
835.206002	-3.005900	3.699600	-11.119000	24.923074	0.000492	20.709668
836.205509	-3.004700	3.698400	-11.112000	24.884562	0.000495	20.693773
837.207552	-3.012800	3.698400	-11.141000	24.860669	0.000492	20.697294
838.210014	-2.992100	3.698200	-11.064000	24.857091	0.000492	20.693229
839.207147	-2.994200	3.698900	-11.074000	24.837249	0.000493	20.709351
840.209035	-2.990400	3.698300	-11.058000	24.835807	0.000493	20.720707
841.208624	-2.976300	3.698100	-11.005000	24.836850	0.000492	20.713693
842.209333	-2.975500	3.698800	-11.005000	24.852746	0.000492	20.709257
843.205824	-2.998800	3.697400	-11.087000	24.875177	0.000492	20.688620
844.213046	-2.995900	3.697200	-11.075000	24.918369	0.000491	20.716800
845.209140	-2.997000	3.697600	-11.081000	24.926921	0.000491	20.709262
846.208929	-3.007400	3.696600	-11.116000	24.926375	0.000492	20.712507
847.208132	-2.994300	3.696600	-11.067000	24.904796	0.000492	20.698909
848.208638	-3.000600	3.697000	-11.092000	24.869842	0.000492	20.709346
849.213353	-3.007300	3.696100	-11.115000	24.853700	0.000490	20.710215
850.210425	-3.025500	3.695900	-11.181000	24.877922	0.000489	20.741165
851.211196	-3.023900	3.694700	-11.171000	24.893064	0.000491	20.719852
852.211859	-3.004800	3.696800	-11.107000	24.904107	0.000492	20.709598
853.209626	-3.023800	3.693200	-11.167000	24.930567	0.000489	20.701067
854.211420	-2.990400	3.696300	-11.052000	24.956368	0.000489	20.726016
855.210415	-3.019300	3.694600	-11.154000	24.949065	0.000490	20.709676
856.213958	-3.009300	3.693800	-11.115000	24.926512	0.000488	20.716439
857.213879	-2.973700	3.695100	-10.987000	24.935316	0.000490	20.724801
858.212425	-3.007400	3.694200	-11.109000	24.941113	0.000489	20.738206
859.217428	-3.006400	3.695000	-11.108000	24.942702	0.000488	20.722257
860.213813	-3.002000	3.693300	-11.087000	24.948095	0.000486	20.709178
861.209084	-3.028500	3.693500	-11.184000	24.975942	0.000488	20.735233
862.213042	-3.011500	3.694200	-11.124000	24.996087	0.000488	20.731271
863.214798	-2.996900	3.693100	-11.067000	25.005185	0.000488	20.736137
864.216004	-2.999000	3.692600	-11.072000	25.008024	0.000487	20.738038
865.216668	-2.991100	3.693700	-11.046000	25.021275	0.000487	20.722415
866.217555	-3.019600	3.691700	-11.146000	25.033208	0.000488	20.740557
867.216682	-3.001700	3.693200	-11.084000	24.994699	0.000487	20.732249
868.221111	-3.012500	3.692600	-11.123000	24.960116	0.000487	20.729305
869.219337	-3.005200	3.691700	-11.094000	24.963551	0.000487	20.734175
870.218310	-3.027600	3.689800	-11.170000	24.993562	0.000486	20.704554
871.219359	-2.978000	3.690100	-10.989000	24.974539	0.000486	20.747102
872.220747	-3.028200	3.689100	-11.170000	24.929838	0.000485	20.732580
873.217465	-2.980700	3.691200	-11.001000	24.954256	0.000485	20.730535
874.217484	-2.999900	3.689600	-11.067000	24.969928	0.000484	20.726351
875.222225	-2.998200	3.690000	-11.062000	24.972433	0.000484	20.727443
876.221004	-2.991200	3.690900	-11.039000	24.964333	0.000485	20.744918
877.217282	-2.983900	3.690700	-11.011000	24.969603	0.000484	20.732664
878.220775	-3.006200	3.688700	-11.088000	24.980148	0.000484	20.743249
879.217172	-3.009200	3.690100	-11.103000	25.007172	0.000482	20.750460
880.222410	-3.006000	3.689800	-11.090000	25.013613	0.000481	20.727052
881.222037	-2.986800	3.688800	-11.016000	25.018342	0.000484	20.742705
882.222833	-3.003000	3.690100	-11.079000	25.035893	0.000481	20.728554
883.220837	-2.981800	3.689400	-11.000000	25.018691	0.000483	20.731201
884.226494	-2.997200	3.688800	-11.055000	25.049444	0.000482	20.757804
885.223175	-3.018600	3.687400	-11.129000	25.053075	0.000481	20.761924
886.220410	-3.011500	3.686900	-11.102000	25.093348	0.000481	20.726010
887.222629	-3.009900	3.687400	-11.098000	25.100492	0.000480	20.726543
888.220270	-3.002200	3.686800	-11.067000	25.082193	0.000482	20.749901
889.223171	-3.008300	3.686500	-11.089000	25.056013	0.000480	20.746380
890.224001	-3.023600	3.685900	-11.144000	25.047318	0.000479	20.750455
891.224563	-2.985700	3.686900	-11.007000	24.997670	0.000481	20.733335
892.227246	-3.000300	3.686200	-11.058000	24.966070	0.000479	20.738126
893.225193	-2.974300	3.687300	-10.965000	24.931441	0.000479	20.741776
894.226226	-2.996300	3.685200	-11.040000	24.955632	0.000478	20.764635
895.227308	-2.982600	3.685900	-10.993000	24.971974	0.000480	20.727931
896.226821	-3.012200	3.684600	-11.098000	24.992036	0.000476	20.743801
897.227357	-2.999300	3.683800	-11.048000	24.995397	0.000481	20.759977
898.228022	-2.999200	3.685600	-11.053000	25.015089	0.000478	20.758881
899.227928	-2.996100	3.683700	-11.035000	25.048430	0.000476	20.767692
900.224835	-2.986200	3.683800	-10.999000	25.049005	0.000479	20.755942
901.229499	-2.964700	3.684900	-10.924000	25.000730	0.000477	20.734984
902.228273	-2.989000	3.684800	-11.013000	24.950682	0.000477	20.757769
903.229016	-2.977400	3.684700	-10.970000	24.941268	0.000477	20.753062
904.227791	-2.997900	3.683700	-11.042000	24.975330	0.000478	20.743153
905.228632	-3.007400	3.683900	-11.078000	24.973765	0.000475	20.737315
906.229510	-2.993000	3.683300	-11.023000	24.976304	0.000475	20.752666
907.230261	-2.994700	3.682900	-11.028000	24.999628	0.000475	20.755215
908.230287	-3.001200	3.683400	-11.054000	24.984812	0.000477	20.754568
909.231742	-2.982300	3.682200	-10.980000	24.994333	0.000474	20.752745
910.231551	-2.986600	3.682300	-10.997000	25.001099	0.000475	20.739622
911.235707	-2.978200	3.682900	-10.968000	24.948590	0.000474	20.751402
912.229963	-2.980400	3.681100	-10.971000	24.948742	0.000473	20.763883
913.235590	-2.994600	3.680800	-11.022000	24.942104	0.000474	20.769074
914.235522	-2.993400	3.681800	-11.020000	24.963067	0.000473	20.763562
915.236460	-2.988500	3.679900	-10.997000	25.008101	0.000471	20.740012
916.238465	-3.001400	3.680600	-11.046000	25.032836	0.000475	20.752039
917.232859	-2.994200	3.680400	-11.018000	25.038062	0.000474	20.789053
918.241362	-2.983900	3.680000	-10.980000	25.030760	0.000473	20.772240
919.236453	-2.989700	3.680600	-11.004000	25.033786	0.000470	20.769588
920.236681	-3.000500	3.679900	-11.040000	25.058953	0.000473	20.756444
921.233915	-2.993900	3.678900	-11.014000	24.995637	0.000471	20.763063
922.240196	-3.005000	3.678500	-11.053000	25.000710	0.000471	20.756775
923.243085	-2.983800	3.679100	-10.977000	24.989673	0.000470	20.752335
924.238006	-2.987200	3.678900	-10.989000	25.013370	0.000471	20.771855
925.237651	-3.001600	3.678300	-11.040000	25.023890	0.000473	20.746378
926.240663	-2.976500	3.679500	-10.950000	25.019295	0.000470	20.774957
927.239173	-2.991800	3.678000	-11.003000	25.045009	0.000470	20.766629
928.236713	-2.999400	3.677500	-11.030000	25.005832	0.000470	20.754804
929.241337	-2.991900	3.678500	-11.005000	24.996911	0.000470	20.761023
930.238681	-2.991700	3.678200	-11.003000	25.031350	0.000470	20.757185
931.242875	-2.987000	3.677300	-10.983000	25.030434	0.000470	20.773336
932.240821	-2.994000	3.677300	-11.008000	25.055548	0.000469	20.755871
933.242291	-2.998100	3.677000	-11.022000	25.052045	0.000468	20.775114
934.245975	-2.994700	3.675600	-11.006000	25.060178	0.000466	20.764787
935.242931	-3.010400	3.676100	-11.065000	25.094664	0.000468	20.766688
936.243156	-3.013300	3.675100	-11.073000	25.127934	0.000468	20.760257
937.240510	-2.995000	3.675000	-11.006000	25.132682	0.000467	20.766920
938.240659	-2.991500	3.676300	-10.997000	25.136618	0.000468	20.777510
939.245707	-3.009800	3.675100	-11.060000	25.138429	0.000467	20.780750
940.247618	-2.980800	3.675100	-10.953000	25.082876	0.000466	20.761966
941.243566	-2.995400	3.674500	-11.005000	25.088549	0.000467	20.786628
942.241400	-3.018700	3.674300	-11.091000	25.123782	0.000467	20.783590
943.244322	-2.986600	3.674700	-10.974000	25.128038	0.000466	20.759413
944.243591	-2.988400	3.674400	-10.979000	25.123615	0.000466	20.780577
945.245014	-2.998200	3.672700	-11.011000	25.096598	0.000465	20.784751
946.242749	-3.008700	3.672300	-11.048000	25.097774	0.000467	20.774552
947.241266	-2.975000	3.674100	-10.930000	25.112938	0.000464	20.771282
948.244633	-3.001400	3.672300	-11.020000	25.133996	0.000465	20.779619
949.244293	-2.998700	3.672300	-11.011000	25.155880	0.000465	20.769820
950.250197	-2.993400	3.672200	-10.992000	25.162620	0.000463	20.765681
951.242640	-2.989400	3.672700	-10.978000	25.110646	0.000465	20.773248
952.241698	-2.989800	3.672700	-10.980000	25.089445	0.000461	20.778518
953.245475	-2.982000	3.672600	-10.951000	25.084598	0.000463	20.766067
954.248415	-3.017900	3.669800	-11.074000	25.087767	0.000463	20.775886
955.244081	-2.992300	3.670500	-10.983000	25.076057	0.000460	20.768872
956.250111	-3.000100	3.670000	-11.009000	25.095777	0.000463	20.785349
957.253284	-2.978200	3.670600	-10.930000	25.075595	0.000462	20.761770
958.247636	-2.988800	3.670100	-10.968000	25.091585	0.000461	20.787305
959.248175	-2.992200	3.669500	-10.979000	25.103325	0.000459	20.792452
960.258307	-2.978900	3.669200	-10.929000	25.084584	0.000460	20.760837
961.249295	-3.015000	3.669200	-11.062000	25.139325	0.000460	20.799668
962.248532	-3.002700	3.669300	-11.016000	25.097347	0.000459	20.791193
963.250164	-2.985000	3.670100	-10.954000	25.090587	0.000461	20.783933
964.250449	-3.012300	3.668600	-11.051000	25.101156	0.000461	20.792645
965.249784	-2.992000	3.668800	-10.976000	25.077893	0.000458	20.780673
966.248632	-2.985100	3.669000	-10.952000	25.117899	0.000458	20.788116
967.249763	-2.992200	3.667700	-10.973000	25.167025	0.000459	20.788596
968.247063	-2.997300	3.668400	-10.995000	25.127479	0.000459	20.800578
969.250217	-2.991100	3.667100	-10.968000	25.081466	0.000460	20.807019
970.252054	-2.994300	3.667900	-10.982000	25.096286	0.000459	20.797239
971.249793	-2.981900	3.667200	-10.934000	25.100266	0.000456	20.802658
972.248454	-3.018700	3.666600	-11.067000	25.124035	0.000458	20.794276
973.251040	-2.980700	3.666700	-10.928000	25.154741	0.000457	20.805187
974.249517	-2.999200	3.666800	-10.996000	25.148276	0.000458	20.800119
975.249947	-2.991700	3.664900	-10.963000	25.176024	0.000457	20.801423
976.252485	-2.996900	3.664700	-10.982000	25.199546	0.000456	20.789476
977.256357	-3.012100	3.665400	-11.039000	25.224498	0.000456	20.791767
978.254035	-3.004800	3.666000	-11.014000	25.242179	0.000457	20.800036
979.252254	-3.014400	3.664200	-11.045000	25.209764	0.000453	20.787881
980.254214	-3.017300	3.664700	-11.057000	25.167312	0.000455	20.797418
981.256530	-3.019600	3.664200	-11.064000	25.166387	0.000452	20.799334
982.254738	-3.012600	3.662900	-11.034000	25.138176	0.000455	20.806101
983.259303	-3.019400	3.663100	-11.059000	25.120134	0.000455	20.802214
984.255674	-3.017400	3.663500	-11.054000	25.145118	0.000455	20.815441
985.256287	-3.023800	3.662700	-11.075000	25.145290	0.000454	20.813717
986.254941	-2.985000	3.663200	-10.934000	25.163588	0.000454	20.797947
987.257439	-3.009300	3.661300	-11.017000	25.144326	0.000453	20.805637
988.257275	-2.992800	3.662200	-10.959000	25.106447	0.000452	20.800328
989.257741	-2.992100	3.662100	-10.957000	25.087106	0.000452	20.806516
990.256936	-2.970400	3.662600	-10.878000	25.078781	0.000453	20.815703
991.257854	-2.983000	3.662000	-10.922000	25.088056	0.000451	20.810789
992.259547	-2.998100	3.662400	-10.980000	25.070781	0.000451	20.826638
993.262284	-2.974300	3.662800	-10.893000	25.069413	0.000452	20.798239
994.264255	-2.993800	3.661600	-10.961000	25.089606	0.000451	20.809026
995.273240	-3.008400	3.659800	-11.008000	25.101838	0.000451	20.811822
996.259092	-2.999000	3.660400	-10.976000	25.100027	0.000449	20.800521
997.257149	-2.980800	3.659700	-10.908000	25.103953	0.000449	20.816316
998.258699	-2.981100	3.659200	-10.908000	25.158453	0.000449	20.823137
999.260902	-2.991600	3.659400	-10.947000	25.146615	0.000449	20.788020
1000.260142	-3.002400	3.659100	-10.985000	25.146975	0.000448	20.822994
1001.260817	-2.997600	3.659200	-10.968000	25.168504	0.000450	20.818055
1002.261464	-2.977800	3.659900	-10.897000	25.136736	0.000447	20.812242
1003.259971	-2.987500	3.658100	-10.927000	25.143005	0.000446	20.818535
1004.258702	-3.000400	3.658400	-10.976000	25.133362	0.000448	20.820234
1005.260323	-3.000100	3.657400	-10.970000	25.133539	0.000446	20.819938
1006.260271	-2.984200	3.659000	-10.919000	25.136550	0.000447	20.835288
1007.260723	-2.996300	3.657200	-10.957000	25.181124	0.000446	20.803698
1008.255859	-2.962400	3.657300	-10.833000	25.177149	0.000448	20.820570
1009.259616	-3.009800	3.656500	-11.005000	25.176156	0.000444	20.839486
1010.265591	-3.005300	3.657200	-10.990000	25.152496	0.000447	20.823322
1011.261008	-3.013900	3.657100	-11.021000	25.165175	0.000446	20.839842
1012.263813	-2.998900	3.656200	-10.964000	25.178252	0.000446	20.839694
1013.264658	-2.994000	3.657500	-10.950000	25.175123	0.000446	20.830864
1014.264404	-2.985600	3.656100	-10.915000	25.155488	0.000444	20.841497
1015.264235	-2.999700	3.656600	-10.968000	25.140881	0.000442	20.818774
1016.263619	-3.005500	3.655800	-10.986000	25.147695	0.000444	20.839364
1017.264834	-2.982500	3.655600	-10.902000	25.140684	0.000441	20.815731
1018.264819	-2.989400	3.655100	-10.926000	25.121816	0.000444	20.818127
1019.268971	-2.995600	3.654600	-10.946000	25.122894	0.000444	20.826795
1020.265627	-2.985200	3.654400	-10.908000	25.172438	0.000443	20.814418
1021.266624	-3.006100	3.653400	-10.982000	25.164911	0.000442	20.804017
1022.262323	-3.001500	3.653900	-10.966000	25.152262	0.000445	20.828776
1023.266009	-3.004300	3.651800	-10.970000	25.205440	0.000443	20.813885
1024.266901	-2.997500	3.652900	-10.949000	25.198386	0.000442	20.817234
1025.263235	-2.995400	3.652400	-10.940000	25.218222	0.000440	20.817709
1026.269076	-2.997600	3.652600	-10.948000	25.207365	0.000438	20.805386
1027.266442	-3.009300	3.651800	-10.988000	25.246968	0.000440	20.805791
1028.266643	-3.009900	3.652400	-10.992000	25.210026	0.000440	20.806162
1029.267758	-3.003700	3.652000	-10.968000	25.179180	0.000440	20.806962
1030.265716	-3.000500	3.652100	-10.958000	25.178944	0.000438	20.810044
1031.270919	-2.990900	3.650500	-10.918000	25.164076	0.000438	20.804601
1032.269506	-3.018300	3.649800	-11.015000	25.178098	0.000439	20.815359
1033.268049	-3.011800	3.650600	-10.994000	25.168411	0.000439	20.833609
1034.263802	-2.993400	3.651600	-10.930000	25.143526	0.000439	20.801515
1035.263052	-3.007100	3.650800	-10.978000	25.137342	0.000437	20.797204
1036.263894	-3.025800	3.649900	-11.043000	25.113972	0.000437	20.803614
1037.271115	-3.017700	3.649200	-11.011000	25.153426	0.000439	20.796280
1038.268035	-2.985600	3.649700	-10.895000	25.210402	0.000439	20.798478
1039.267489	-3.014000	3.648900	-10.997000	25.225668	0.000438	20.796261
1040.267673	-3.000500	3.648400	-10.947000	25.242773	0.000437	20.794942
1041.271316	-3.006200	3.648400	-10.967000	25.221600	0.000438	20.795021
1042.270213	-2.971100	3.649100	-10.840000	25.261541	0.000437	20.808095
1043.265185	-3.003800	3.647400	-10.955000	25.230922	0.000436	20.797743
1044.269678	-2.981800	3.646900	-10.873000	25.261246	0.000438	20.774608
1045.265150	-3.005600	3.645700	-10.956000	25.254738	0.000434	20.807429
1046.273974	-2.977700	3.646400	-10.857000	25.213748	0.000437	20.788561
1047.265931	-3.001100	3.646800	-10.943000	25.204352	0.000435	20.783869
1048.266580	-3.002900	3.646600	-10.949000	25.204302	0.000436	20.770543
1049.265677	-3.008200	3.645100	-10.965000	25.242562	0.000435	20.798524
1050.268786	-3.025900	3.644600	-11.028000	25.271292	0.000435	20.766676
1051.266493	-3.020400	3.643900	-11.004000	25.274726	0.000434	20.789090
1052.270091	-3.012400	3.645000	-10.979000	25.294934	0.000435	20.801319
1053.270653	-3.007000	3.645500	-10.961000	25.313824	0.000433	20.794681
1054.267375	-3.009000	3.644700	-10.967000	25.316731	0.000434	20.782901
1055.271215	-3.007600	3.644900	-10.961000	25.295805	0.000436	20.770425
1056.270998	-2.976100	3.644900	-10.846000	25.273118	0.000432	20.774199
1057.268786	-3.015900	3.642900	-10.985000	25.270505	0.000431	20.777266
1058.268972	-2.987000	3.645300	-10.888000	25.250990	0.000431	20.772371
1059.271479	-3.000300	3.643700	-10.931000	25.268764	0.000432	20.792587
1060.272898	-2.998900	3.643200	-10.925000	25.272419	0.000431	20.766385
1061.272988	-2.991200	3.642000	-10.893000	25.291112	0.000431	20.782783
1062.272899	-2.979800	3.643800	-10.856000	25.337864	0.000432	20.759549
1063.274879	-3.013800	3.641800	-10.974000	25.349896	0.000431	20.767363
1064.272463	-3.006800	3.641200	-10.948000	25.303298	0.000430	20.768939
1065.272883	-3.020600	3.642700	-11.002000	25.293159	0.000430	20.766820
1066.273042	-3.006800	3.641900	-10.949000	25.255280	0.000430	20.770515
1067.271067	-3.001000	3.642000	-10.929000	25.210439	0.000429	20.771014
1068.275168	-3.009100	3.640600	-10.954000	25.218369	0.000427	20.803158
1069.273175	-3.024000	3.641000	-11.009000	25.184812	0.000429	20.794124
1070.273095	-3.018500	3.640600	-10.988000	25.182573	0.000429	20.785239
1071.275937	-2.992100	3.639500	-10.888000	25.227348	0.000429	20.769972
1072.276146	-2.995600	3.640000	-10.903000	25.269803	0.000427	20.770871
1073.275417	-2.996400	3.639300	-10.904000	25.247557	0.000428	20.749484
1074.274948	-3.016400	3.639400	-10.977000	25.312286	0.000428	20.771326
1075.276501	-3.000200	3.639100	-10.917000	25.323374	0.000426	20.766337
1076.272198	-2.996200	3.638500	-10.901000	25.350046	0.000426	20.774626
1077.278655	-2.973000	3.639400	-10.819000	25.385069	0.000424	20.742461
1078.288202	-3.012900	3.636700	-10.956000	25.367346	0.000425	20.767814
1079.276901	-3.000800	3.637800	-10.914000	25.307427	0.000425	20.772611
1080.279579	-3.003000	3.636100	-10.919000	25.250461	0.000426	20.741494
1081.277458	-2.993900	3.637700	-10.890000	25.224958	0.000423	20.780375
1082.278259	-3.006100	3.637700	-10.935000	25.221805	0.000424	20.755398
1083.278740	-2.999800	3.637900	-10.911000	25.237292	0.000424	20.769999
1084.276637	-2.995800	3.636200	-10.892000	25.271970	0.000423	20.760718
1085.277178	-2.997900	3.636200	-10.900000	25.285370	0.000424	20.766586
1086.279501	-3.007300	3.635700	-10.933000	25.278237	0.000424	20.742354
1087.285714	-3.013100	3.635300	-10.953000	25.248269	0.000423	20.759682
1088.281148	-3.011800	3.634800	-10.946000	25.273550	0.000422	20.757089
1089.294716	-3.014900	3.633700	-10.953000	25.269550	0.000421	20.755444
1090.284478	-3.008600	3.634200	-10.933000	25.303607	0.000420	20.760240
1091.289006	-2.985100	3.633300	-10.844000	25.252953	0.000420	20.752530
1092.279444	-3.007900	3.633400	-10.927000	25.283876	0.000418	20.748016
1093.282691	-3.000600	3.633700	-10.903000	25.236753	0.000419	20.746698
1094.280390	-3.011600	3.633000	-10.940000	25.247217	0.000417	20.748194
1095.280414	-3.006000	3.632100	-10.917000	25.288063	0.000417	20.747953
1096.281179	-3.016200	3.631900	-10.954000	25.311228	0.000420	20.742762
1097.280613	-3.008800	3.632500	-10.928000	25.287572	0.000417	20.754098
1098.280903	-3.005500	3.631900	-10.915000	25.264884	0.000419	20.750759
1099.282347	-3.009700	3.631300	-10.928000	25.268540	0.000418	20.773396
1100.283059	-3.008100	3.631400	-10.923000	25.255862	0.000416	20.766832
1101.284441	-3.019100	3.630600	-10.960000	25.257265	0.000415	20.754489
1102.287484	-2.979300	3.631600	-10.818000	25.252425	0.000416	20.732085
1103.284406	-2.977300	3.631100	-10.811000	25.274646	0.000416	20.731161
1104.286150	-2.976000	3.630000	-10.802000	25.274627	0.000415	20.738255
1105.286573	-2.987500	3.630000	-10.844000	25.290462	0.000417	20.753206
1106.290106	-2.983200	3.629700	-10.828000	25.292982	0.000415	20.737243
1107.281085	-3.019900	3.628500	-10.957000	25.288701	0.000415	20.744326
1108.284652	-3.020800	3.629500	-10.963000	25.270161	0.000413	20.747522
1109.279851	-2.990900	3.629100	-10.853000	25.258119	0.000415	20.733535
1110.283288	-3.021000	3.627200	-10.958000	25.255217	0.000415	20.755752
1111.285569	-2.986100	3.628400	-10.834000	25.219619	0.000413	20.729969
1112.285650	-2.994300	3.628100	-10.862000	25.200285	0.000411	20.734266
1113.286454	-3.001200	3.628700	-10.889000	25.189698	0.000412	20.754458
1114.287180	-2.987800	3.628100	-10.839000	25.224598	0.000413	20.733071
1115.287237	-2.996800	3.627200	-10.870000	25.260024	0.000412	20.737344
1116.282766	-2.974700	3.627800	-10.791000	25.293254	0.000411	20.742733
1117.292246	-2.992600	3.626900	-10.853000	25.258687	0.000412	20.742165
1118.283581	-3.008300	3.626000	-10.906000	25.304850	0.000410	20.757695
1119.285468	-3.002100	3.624600	-10.880000	25.301299	0.000413	20.754129
1120.290580	-3.000400	3.625400	-10.877000	25.326677	0.000409	20.726030
1121.283384	-3.002500	3.626300	-10.887000	25.300330	0.000409	20.734664
1122.289375	-2.977100	3.626100	-10.794000	25.295342	0.000408	20.728707
1123.285379	-2.999000	3.624100	-10.867000	25.270018	0.000408	20.736947
1124.285258	-2.996600	3.625400	-10.863000	25.256052	0.000409	20.721027
1125.289503	-3.001000	3.623900	-10.875000	25.289067	0.000406	20.752753
1126.287633	-2.988800	3.624900	-10.833000	25.266054	0.000408	20.730596
1127.282180	-3.004800	3.623700	-10.888000	25.304454	0.000404	20.714622
1128.289751	-3.008700	3.623600	-10.902000	25.349366	0.000407	20.728422
1129.285591	-2.999100	3.622800	-10.864000	25.340497	0.000407	20.744648
1130.282011	-2.999200	3.622400	-10.863000	25.353154	0.000404	20.726062
1131.288321	-3.004300	3.621600	-10.879000	25.327556	0.000406	20.748724
1132.286319	-2.988600	3.621700	-10.823000	25.319833	0.000405	20.745712
1133.289896	-2.998500	3.620500	-10.855000	25.275988	0.000404	20.730612
1134.287489	-3.006700	3.620800	-10.886000	25.263960	0.000404	20.737977
1135.287744	-2.994300	3.620900	-10.841000	25.290068	0.000405	20.720567
1136.288966	-2.994500	3.619800	-10.838000	25.213733	0.000403	20.733542
1137.287627	-2.984800	3.620700	-10.807000	25.251668	0.000404	20.721841
1138.288290	-2.986600	3.620600	-10.811000	25.239001	0.000406	20.725720
1139.288379	-2.994400	3.620000	-10.839000	25.174194	0.000403	20.746479
1140.288734	-2.997400	3.619200	-10.848000	25.197397	0.000402	20.719986
1141.286232	-2.990500	3.619200	-10.823000	25.219520	0.000403	20.713747
1142.289056	-3.010300	3.618700	-10.892000	25.292255	0.000404	20.721340
1143.289053	-3.022600	3.618600	-10.937000	25.299216	0.000401	20.719794
1144.293917	-3.026100	3.618200	-10.948000	25.305956	0.000401	20.732251
1145.291367	-3.000400	3.619300	-10.858000	25.247554	0.000402	20.724823
1146.292591	-2.986800	3.619100	-10.808000	25.220088	0.000401	20.730440
1147.292583	-2.987100	3.618500	-10.808000	25.257005	0.000400	20.712500
1148.292039	-2.985800	3.617800	-10.801000	25.273466	0.000402	20.720019
1149.294981	-2.994400	3.616200	-10.827000	25.312221	0.000399	20.720997
1150.289790	-3.007200	3.616100	-10.874000	25.339812	0.000399	20.718829
1151.293983	-3.003300	3.616800	-10.862000	25.346705	0.000401	20.727647
1152.290493	-2.995200	3.616900	-10.833000	25.337064	0.000399	20.715595
1153.296186	-2.999600	3.616400	-10.847000	25.315120	0.000398	20.711579
1154.294677	-3.007600	3.615000	-10.871000	25.359215	0.000397	20.729303
1155.292420	-3.004100	3.616200	-10.862000	25.387583	0.000397	20.726493
1156.295450	-2.978800	3.615900	-10.770000	25.355025	0.000396	20.710870
1157.299834	-2.994700	3.614400	-10.824000	25.349383	0.000398	20.716110
1158.291641	-2.998000	3.615000	-10.837000	25.356919	0.000397	20.711824
1159.295574	-2.999800	3.613600	-10.839000	25.361672	0.000393	20.717070
1160.296318	-2.988800	3.613500	-10.799000	25.392917	0.000395	20.699130
1161.298567	-3.013500	3.613100	-10.887000	25.390862	0.000395	20.727889
1162.297485	-3.012100	3.612800	-10.881000	25.349735	0.000395	20.714094
1163.297297	-2.977400	3.612800	-10.756000	25.355058	0.000395	20.705687
1164.297556	-3.006400	3.611600	-10.857000	25.377651	0.000396	20.708458
1165.301833	-3.007500	3.612000	-10.862000	25.364956	0.000393	20.708513
1166.299551	-2.986400	3.611700	-10.784000	25.339033	0.000394	20.727530
1167.295555	-3.004100	3.611500	-10.848000	25.322043	0.000393	20.700987
1168.300770	-2.999900	3.610600	-10.830000	25.343496	0.000394	20.707354
1169.298702	-2.998100	3.611700	-10.828000	25.371007	0.000393	20.719332
1170.301468	-2.986100	3.610800	-10.781000	25.366444	0.000393	20.703369
1171.299039	-2.996300	3.609200	-10.813000	25.328843	0.000392	20.708289
1172.295956	-3.032000	3.608900	-10.941000	25.327806	0.000391	20.727163
1173.302152	-2.995000	3.610000	-10.811000	25.353410	0.000393	20.713042
1174.298736	-2.999100	3.610400	-10.827000	25.356642	0.000395	20.689258
1175.300131	-2.990400	3.608800	-10.791000	25.390243	0.000392	20.711145
1176.297209	-3.007100	3.607900	-10.848000	25.347031	0.000391	20.706162
1177.296943	-3.020500	3.607400	-10.895000	25.314207	0.000390	20.713034
1178.295431	-2.985000	3.608700	-10.770000	25.307074	0.000387	20.683585
1179.295085	-2.995900	3.607500	-10.807000	25.289227	0.000389	20.689374
1180.296186	-3.007000	3.607100	-10.846000	25.282837	0.000389	20.702399
1181.299694	-2.992300	3.607900	-10.795000	25.309392	0.000387	20.675480
1182.296017	-2.982900	3.605800	-10.755000	25.302082	0.000387	20.684262
1183.297700	-2.984800	3.607700	-10.768000	25.253592	0.000388	20.692477
1184.301498	-3.007100	3.605500	-10.841000	25.290429	0.000387	20.689632
1185.296121	-3.004600	3.605200	-10.831000	25.293961	0.000386	20.700292
1186.307363	-2.981900	3.606300	-10.753000	25.301266	0.000385	20.698143
1187.299525	-3.005000	3.605600	-10.834000	25.342553	0.000386	20.689810
1188.301065	-3.005700	3.605600	-10.837000	25.345135	0.000387	20.702361
1189.302119	-3.000900	3.604700	-10.816000	25.329287	0.000383	20.691663
1190.301875	-3.002300	3.605000	-10.822000	25.369499	0.000383	20.684150
1191.298622	-2.976100	3.605900	-10.730000	25.321804	0.000384	20.673718
1192.306878	-2.999600	3.603800	-10.809000	25.302620	0.000384	20.678164
1193.305473	-3.009200	3.604000	-10.844000	25.355977	0.000385	20.676735
1194.301390	-3.015100	3.602900	-10.862000	25.340399	0.000384	20.701399
1195.305713	-2.994800	3.603200	-10.790000	25.353174	0.000386	20.680085
1196.304230	-2.985400	3.602100	-10.753000	25.385162	0.000382	20.690868
1197.306728	-3.000600	3.602600	-10.809000	25.375712	0.000383	20.684698
1198.304481	-3.005900	3.602200	-10.827000	25.360729	0.000383	20.676292
1199.304871	-2.992200	3.602200	-10.777000	25.397445	0.000380	20.665741
1200.306299	-2.990800	3.601000	-10.769000	25.390007	0.000383	20.705218
1201.309142	-3.014700	3.601100	-10.855000	25.376263	0.000380	20.689046
1202.308676	-2.999300	3.600800	-10.799000	25.342741	0.000380	20.686680
1203.310822	-3.010500	3.600000	-10.836000	25.320675	0.000381	20.695819
1204.301057	-2.993600	3.601800	-10.781000	25.312395	0.000378	20.688928
1205.301119	-2.994300	3.600800	-10.780000	25.363918	0.000380	20.680916
1206.308927	-2.989600	3.601400	-10.766000	25.391705	0.000379	20.686532
1207.304720	-3.004200	3.599100	-10.812000	25.405129	0.000378	20.688632
1208.305436	-2.992800	3.600800	-10.775000	25.366855	0.000378	20.694298
1209.306140	-3.006600	3.598900	-10.820000	25.344439	0.000378	20.688860
1210.307307	-2.993300	3.598600	-10.771000	25.360323	0.000377	20.686790
1211.306163	-2.962900	3.600300	-10.666000	25.373551	0.000377	20.673044
1212.304134	-2.984300	3.598100	-10.737000	25.351872	0.000378	20.699169
1213.313351	-2.991700	3.598300	-10.765000	25.311192	0.000379	20.689142
1214.308942	-2.982500	3.597800	-10.729000	25.338803	0.000377	20.667551
1215.305658	-2.970500	3.598800	-10.689000	25.356281	0.000374	20.656650
1216.309715	-2.990800	3.595900	-10.754000	25.354662	0.000376	20.659292
1217.311983	-2.988500	3.597300	-10.749000	25.352503	0.000375	20.664237
1218.315251	-2.996400	3.597000	-10.777000	25.359390	0.000372	20.669256
1219.313452	-3.002900	3.595200	-10.794000	25.374157	0.000374	20.675550
1220.310912	-3.013600	3.594600	-10.832000	25.433428	0.000372	20.668683
1221.307894	-2.992400	3.594600	-10.756000	25.433458	0.000374	20.663972
1222.312612	-2.980100	3.596100	-10.716000	25.470589	0.000372	20.687035
1223.309731	-3.028200	3.593000	-10.880000	25.485330	0.000375	20.692830
1224.315809	-3.016000	3.594300	-10.839000	25.507123	0.000373	20.654967
1225.311168	-3.011700	3.593000	-10.821000	25.499225	0.000374	20.673590
1226.311304	-3.012500	3.593100	-10.824000	25.490486	0.000371	20.665288
1227.316289	-2.997400	3.592900	-10.769000	25.499323	0.000372	20.644762
1228.317054	-3.024000	3.592700	-10.863000	25.469956	0.000372	20.690193
1229.316710	-3.001000	3.592000	-10.779000	25.484219	0.000372	20.662788
1230.315002	-3.002800	3.592700	-10.787000	25.457851	0.000370	20.669975
1231.314729	-3.002200	3.591700	-10.782000	25.408676	0.000371	20.664216
1232.310241	-3.001600	3.592200	-10.781000	25.395203	0.000370	20.654006
1233.314760	-2.990600	3.592600	-10.743000	25.368464	0.000370	20.668884
1234.314823	-2.989300	3.591900	-10.737000	25.379153	0.000370	20.667763
1235.319476	-3.002400	3.590700	-10.779000	25.377816	0.000370	20.664049
1236.313850	-3.023500	3.589900	-10.853000	25.400960	0.000368	20.683972
1237.314131	-3.008900	3.589100	-10.798000	25.404694	0.000369	20.673496
1238.316483	-3.018000	3.589600	-10.832000	25.411299	0.000370	20.678232
1239.317027	-3.004900	3.588700	-10.783000	25.422613	0.000369	20.653080
1240.320708	-3.015600	3.588100	-10.819000	25.448013	0.000369	20.658672
1241.316897	-3.006800	3.588200	-10.788000	25.462804	0.000367	20.664042
1242.318361	-2.991900	3.588200	-10.734000	25.443070	0.000365	20.654656
1243.314554	-2.993900	3.587700	-10.741000	25.459149	0.000366	20.647094
1244.317691	-3.021300	3.586300	-10.835000	25.485400	0.000365	20.669190
1245.321091	-3.012100	3.587200	-10.804000	25.513184	0.000367	20.648251
1246.317182	-3.027200	3.587200	-10.859000	25.478293	0.000367	20.669165
1247.318004	-3.008600	3.586800	-10.791000	25.456395	0.000364	20.655709
1248.316185	-3.002600	3.586400	-10.766000	25.449073	0.000363	20.645984
1249.316723	-3.003300	3.586100	-10.770000	25.450912	0.000363	20.655893
1250.315805	-3.020400	3.585200	-10.827000	25.413536	0.000364	20.643964
1251.318074	-3.012800	3.584800	-10.799000	25.397309	0.000364	20.644265
1252.314952	-3.017800	3.584600	-10.817000	25.382897	0.000362	20.673894
1253.319748	-2.993200	3.584900	-10.730000	25.404318	0.000362	20.643243
1254.318191	-2.994200	3.584400	-10.731000	25.452684	0.000363	20.660043
1255.321845	-3.018000	3.583000	-10.813000	25.446294	0.000363	20.658843
1256.325724	-2.994600	3.584900	-10.734000	25.491304	0.000364	20.679861
1257.321491	-3.029600	3.581900	-10.851000	25.491053	0.000362	20.658744
1258.325082	-3.003700	3.582700	-10.760000	25.466456	0.000363	20.652062
1259.325677	-3.022800	3.582000	-10.827000	25.431583	0.000361	20.654027
1260.323617	-2.980400	3.583300	-10.678000	25.398437	0.000360	20.672902
1261.327239	-2.996800	3.582500	-10.735000	25.380070	0.000361	20.667261
1262.324787	-3.013500	3.581100	-10.790000	25.364137	0.000358	20.651735
1263.321507	-2.998700	3.580700	-10.737000	25.362800	0.000359	20.663196
1264.325541	-3.001300	3.582800	-10.753000	25.366596	0.000357	20.684080
1265.322038	-3.011500	3.582500	-10.788000	25.397394	0.000359	20.662371
1266.324407	-3.022400	3.580500	-10.820000	25.423709	0.000358	20.654654
1267.325202	-3.017000	3.580100	-10.800000	25.402091	0.000357	20.673727
1268.324077	-2.996800	3.579700	-10.727000	25.400454	0.000357	20.664495
1269.325163	-3.017800	3.579100	-10.800000	25.442927	0.000357	20.668739
1270.323979	-2.995800	3.579800	-10.724000	25.399258	0.000356	20.675150
1271.324914	-2.994500	3.578700	-10.716000	25.393818	0.000354	20.650244
1272.321911	-3.005300	3.579700	-10.757000	25.400055	0.000357	20.677373
1273.322008	-2.999600	3.578300	-10.734000	25.437580	0.000354	20.667636
1274.322661	-2.973000	3.578900	-10.639000	25.428578	0.000352	20.666183
1275.325390	-2.980000	3.578400	-10.663000	25.361978	0.000355	20.669958
1276.326572	-2.973600	3.578500	-10.640000	25.360610	0.000355	20.660049
1277.327300	-3.003700	3.577700	-10.746000	25.346512	0.000355	20.653953
1278.340109	-3.004300	3.576700	-10.744000	25.368166	0.000354	20.669533
1279.326502	-3.020300	3.575800	-10.799000	25.402214	0.000353	20.666737
1280.327673	-2.979200	3.577300	-10.656000	25.434373	0.000352	20.659674
1281.324221	-3.019200	3.574500	-10.791000	25.435685	0.000355	20.661466
1282.328809	-3.010900	3.575200	-10.763000	25.407629	0.000354	20.671701
1283.324447	-3.006200	3.577100	-10.753000	25.428480	0.000350	20.679363
1284.323793	-3.013300	3.575900	-10.773000	25.390759	0.000351	20.671830
1285.323951	-3.010300	3.574300	-10.758000	25.409794	0.000351	20.649690
1286.332186	-2.998800	3.574900	-10.719000	25.407930	0.000351	20.670106
1287.328679	-2.989800	3.574200	-10.685000	25.358722	0.000351	20.684234
1288.331190	-2.991700	3.574700	-10.694000	25.405244	0.000351	20.699180
1289.326455	-2.988300	3.573800	-10.678000	25.389618	0.000350	20.675901
1290.328073	-2.992700	3.573600	-10.694000	25.378653	0.000349	20.677219
1291.327348	-2.982800	3.572800	-10.656000	25.391850	0.000350	20.674823
1292.326356	-2.981200	3.572800	-10.650000	25.410364	0.000349	20.684406
1293.329293	-3.021700	3.572600	-10.794000	25.416834	0.000350	20.673832
1294.329254	-2.993300	3.572600	-10.693000	25.414571	0.000346	20.678672
1295.325973	-3.000900	3.573000	-10.721000	25.443915	0.000348	20.679215
1296.324420	-3.006500	3.571800	-10.736000	25.430448	0.000344	20.663319
1297.328497	-2.998300	3.570300	-10.704000	25.439021	0.000346	20.683310
1298.327281	-2.989100	3.571400	-10.674000	25.431245	0.000346	20.682614
1299.330456	-2.993100	3.570300	-10.685000	25.420636	0.000344	20.686660
1300.330294	-2.989700	3.570200	-10.672000	25.398491	0.000345	20.687657
1301.327921	-3.007600	3.570000	-10.736000	25.385564	0.000347	20.682263
1302.331635	-2.970400	3.570100	-10.604000	25.395008	0.000344	20.692221
1303.326908	-2.994200	3.570000	-10.688000	25.411315	0.000343	20.684412
1304.332405	-3.008700	3.569200	-10.738000	25.403213	0.000343	20.672483
1305.330146	-3.008100	3.569400	-10.736000	25.408954	0.000344	20.697215
1306.333190	-3.009200	3.569200	-10.739000	25.407267	0.000343	20.673234
1307.328627	-2.995600	3.569000	-10.690000	25.396081	0.000343	20.672908
1308.327716	-2.989500	3.567700	-10.665000	25.405053	0.000342	20.690453
1309.336028	-2.996500	3.568200	-10.691000	25.432765	0.000340	20.671811
1310.337337	-2.980200	3.567300	-10.630000	25.482718	0.000343	20.709174
1311.331688	-3.005600	3.568100	-10.724000	25.479762	0.000342	20.686290
1312.329910	-3.002500	3.566100	-10.705000	25.444748	0.000344	20.694277
1313.336386	-2.986900	3.565900	-10.650000	25.454222	0.000341	20.685772
1314.331266	-3.015000	3.565500	-10.749000	25.406132	0.000342	20.692959
1315.334789	-2.990600	3.565900	-10.663000	25.425050	0.000340	20.700102
1316.329887	-3.000100	3.564900	-10.694000	25.419531	0.000340	20.692663
1317.333115	-2.996300	3.564400	-10.678000	25.435015	0.000339	20.677390
1318.332313	-2.991700	3.564500	-10.663000	25.458275	0.000339	20.708810
1319.333348	-3.000200	3.564700	-10.694000	25.456460	0.000339	20.702246
1320.336523	-3.013400	3.563000	-10.735000	25.445201	0.000340	20.697103
1321.334495	-2.984900	3.563800	-10.637000	25.446899	0.000338	20.690747
1322.335030	-3.021100	3.562800	-10.763000	25.456839	0.000338	20.699308
1323.331684	-3.008100	3.563300	-10.718000	25.484122	0.000338	20.703945
1324.333687	-3.020400	3.562800	-10.760000	25.510421	0.000337	20.686258
1325.331323	-3.025600	3.562500	-10.778000	25.498789	0.000337	20.694017
1326.335306	-2.999200	3.562800	-10.685000	25.452694	0.000338	20.693247
1327.334054	-3.011300	3.561100	-10.723000	25.382710	0.000334	20.698365
1328.335180	-2.998500	3.562100	-10.681000	25.400998	0.000337	20.707720
1329.335837	-3.001700	3.561100	-10.688000	25.441429	0.000336	20.702325
1330.333727	-3.005700	3.561900	-10.705000	25.456919	0.000337	20.710294
1331.339779	-3.025400	3.559000	-10.766000	25.464725	0.000337	20.711494
1332.330705	-3.020700	3.560800	-10.755000	25.476327	0.000337	20.695169
1333.335754	-3.005400	3.559600	-10.697000	25.461420	0.000336	20.702959
1334.338358	-3.003600	3.558800	-10.689000	25.433689	0.000335	20.700243
1335.330470	-3.023500	3.557800	-10.755000	25.439184	0.000333	20.699596
1336.341182	-2.968200	3.560500	-10.567000	25.504614	0.000335	20.704609
1337.336029	-2.993500	3.558700	-10.653000	25.490976	0.000334	20.702767
1338.334222	-2.994400	3.558200	-10.654000	25.452405	0.000334	20.718564
1339.336188	-2.991200	3.557900	-10.641000	25.428102	0.000334	20.716919
1340.336235	-2.995900	3.557300	-10.657000	25.426440	0.000333	20.713353
1341.332700	-3.000600	3.557200	-10.673000	25.467447	0.000332	20.721340
1342.334420	-3.005500	3.557400	-10.691000	25.472291	0.000331	20.701074
1343.336236	-3.001500	3.556400	-10.673000	25.490436	0.000333	20.694164
1344.336460	-2.994900	3.556000	-10.649000	25.486205	0.000331	20.706037
1345.336133	-3.003700	3.556200	-10.681000	25.463295	0.000333	20.701523
1346.338094	-3.011900	3.555800	-10.709000	25.469758	0.000331	20.706117
1347.338557	-3.003700	3.556700	-10.682000	25.453533	0.000331	20.706893
1348.338716	-3.000700	3.554700	-10.666000	25.459720	0.000331	20.730652
1349.338673	-2.983600	3.555200	-10.607000	25.421700	0.000330	20.704799
1350.335778	-2.983700	3.555200	-10.607000	25.419835	0.000329	20.701030
1351.349082	-3.000000	3.554100	-10.661000	25.388891	0.000329	20.721168
1352.341480	-2.983200	3.553200	-10.599000	25.391154	0.000331	20.719173
1353.337329	-2.991400	3.552900	-10.627000	25.375988	0.000328	20.702995
1354.337476	-2.989900	3.552700	-10.622000	25.411882	0.000330	20.703001
1355.339862	-3.003600	3.552700	-10.670000	25.468691	0.000329	20.717849
1356.338065	-2.997100	3.553500	-10.650000	25.481740	0.000328	20.711037
1357.339343	-2.985700	3.553900	-10.610000	25.527338	0.000329	20.734069
1358.341123	-3.011100	3.552100	-10.695000	25.557702	0.000327	20.743227
1359.335996	-2.991900	3.551700	-10.626000	25.594871	0.000327	20.717966
1360.338617	-3.000500	3.551300	-10.655000	25.509635	0.000326	20.727672
1361.342300	-3.009600	3.550500	-10.685000	25.502559	0.000328	20.707762
1362.341366	-3.021200	3.549600	-10.722000	25.506980	0.000325	20.726427
1363.347407	-3.003400	3.550700	-10.664000	25.523358	0.000327	20.713951
1364.339924	-2.995700	3.549900	-10.633000	25.477577	0.000326	20.722031
1365.341359	-3.014600	3.550100	-10.701000	25.458641	0.000324	20.710127
1366.340495	-3.006300	3.549200	-10.669000	25.428372	0.000323	20.721932
1367.341610	-3.013900	3.548100	-10.693000	25.429164	0.000324	20.708975
1368.340606	-2.971900	3.548600	-10.545000	25.411466	0.000323	20.736250
1369.343136	-2.986800	3.547300	-10.595000	25.369759	0.000322	20.718078
1370.341402	-2.973600	3.549000	-10.553000	25.375297	0.000324	20.745925
1371.341938	-2.969600	3.549000	-10.538000	25.402728	0.000323	20.718467
1372.341547	-2.976700	3.548200	-10.561000	25.443883	0.000321	20.739879
1373.337245	-3.012900	3.546000	-10.683000	25.520300	0.000322	20.728424
1374.342875	-3.007200	3.545800	-10.662000	25.540805	0.000322	20.719144
1375.339579	-2.990400	3.547200	-10.606000	25.594720	0.000323	20.746739
1376.343434	-2.990300	3.546200	-10.604000	25.561169	0.000321	20.713042
1377.345857	-2.964400	3.545400	-10.509000	25.508239	0.000322	20.728641
1378.340422	-2.980200	3.545800	-10.566000	25.465119	0.000321	20.728013
1379.350056	-2.996800	3.546000	-10.626000	25.411707	0.000322	20.735545
1380.344908	-2.996400	3.545900	-10.624000	25.454401	0.000319	20.728155
1381.346038	-2.975100	3.546100	-10.549000	25.495259	0.000321	20.746426
1382.346766	-2.989300	3.544900	-10.594000	25.544510	0.000319	20.739461
1383.349289	-3.012000	3.544300	-10.674000	25.511227	0.000318	20.740650
1384.347180	-2.984400	3.544800	-10.579000	25.508621	0.000317	20.765535
1385.350057	-2.984800	3.544300	-10.578000	25.471614	0.000319	20.755399
1386.345497	-2.991300	3.543600	-10.599000	25.448969	0.000319	20.769643
1387.347039	-3.029100	3.542000	-10.727000	25.485296	0.000317	20.751120
1388.350611	-3.005000	3.542500	-10.645000	25.514079	0.000316	20.740669
1389.350368	-3.006000	3.542500	-10.648000	25.502441	0.000319	20.747475
1390.351329	-2.992600	3.541800	-10.598000	25.529771	0.000318	20.750739
1391.353167	-2.987800	3.541900	-10.582000	25.570921	0.000314	20.755080
1392.352579	-2.979000	3.541600	-10.549000	25.569253	0.000315	20.743922
1393.350706	-2.995200	3.540700	-10.604000	25.562122	0.000316	20.746244
1394.353164	-2.977800	3.540900	-10.542000	25.535131	0.000315	20.758967
1395.354268	-3.006300	3.540600	-10.643000	25.557567	0.000315	20.752101
1396.356517	-2.987000	3.540200	-10.573000	25.513731	0.000315	20.751226
1397.357733	-2.993100	3.538500	-10.590000	25.464670	0.000315	20.780194
1398.354893	-2.986400	3.539500	-10.570000	25.491902	0.000313	20.773876
1399.350769	-3.017200	3.539100	-10.678000	25.516455	0.000314	20.755858
1400.351250	-2.971100	3.540400	-10.518000	25.549726	0.000314	20.764141
1401.355790	-2.988200	3.538800	-10.574000	25.548904	0.000316	20.753832
1402.352025	-3.014200	3.536500	-10.658000	25.572923	0.000311	20.771790
1403.355469	-2.985300	3.537800	-10.560000	25.566362	0.000315	20.764253
1404.356134	-2.981500	3.537200	-10.546000	25.512219	0.000314	20.782899
1405.355850	-2.998500	3.536400	-10.603000	25.505529	0.000313	20.767172
1406.361542	-2.981400	3.536900	-10.544000	25.475807	0.000313	20.772886
1407.358659	-3.001500	3.535200	-10.610000	25.470264	0.000312	20.758785
1408.356840	-2.990100	3.536000	-10.572000	25.458699	0.000311	20.768509
1409.359835	-2.988200	3.535200	-10.562000	25.490212	0.000311	20.774075
1410.357055	-3.006300	3.534200	-10.623000	25.510913	0.000311	20.755035
1411.356642	-2.990000	3.535400	-10.570000	25.537790	0.000311	20.782500
1412.361506	-2.981200	3.535300	-10.538000	25.531879	0.000309	20.778935
1413.357944	-2.997500	3.534600	-10.594000	25.531057	0.000309	20.778584
1414.358062	-2.986500	3.533600	-10.553000	25.548644	0.000309	20.774434
1415.358168	-2.990500	3.533400	-10.565000	25.562139	0.000308	20.771866
1416.354758	-2.995600	3.532800	-10.582000	25.576721	0.000310	20.781294
1417.358776	-2.993200	3.532600	-10.573000	25.581295	0.000308	20.766921
1418.354851	-3.001800	3.531900	-10.601000	25.611234	0.000308	20.771860
1419.357889	-2.994100	3.532800	-10.577000	25.624699	0.000308	20.761675
1420.357327	-2.991500	3.531500	-10.564000	25.605790	0.000306	20.775875
1421.361953	-3.006900	3.531000	-10.616000	25.635282	0.000308	20.776097
1422.360974	-2.982000	3.530500	-10.527000	25.615871	0.000307	20.777939
1423.359133	-3.009600	3.530800	-10.626000	25.592737	0.000308	20.781732
1424.360240	-2.997100	3.531800	-10.584000	25.561871	0.000307	20.783925
1425.359918	-2.999800	3.529200	-10.586000	25.561896	0.000305	20.784424
1426.360086	-2.987400	3.529000	-10.541000	25.507949	0.000307	20.776714
1427.359115	-2.996100	3.529600	-10.574000	25.538087	0.000304	20.775686
1428.365195	-3.009700	3.530300	-10.624000	25.502149	0.000303	20.800287
1429.360695	-2.985300	3.529000	-10.534000	25.530276	0.000304	20.801033
1430.359902	-2.996200	3.527800	-10.569000	25.569684	0.000303	20.805522
1431.359366	-2.984800	3.529200	-10.534000	25.604283	0.000302	20.788587
1432.362938	-3.001300	3.528400	-10.589000	25.619685	0.000303	20.783667
1433.361140	-2.993700	3.527900	-10.560000	25.619330	0.000302	20.794216
1434.360432	-2.997200	3.528600	-10.575000	25.574558	0.000303	20.792399
1435.359905	-3.007600	3.526100	-10.605000	25.544858	0.000300	20.800978
1436.358437	-2.996400	3.525700	-10.564000	25.510391	0.000300	20.796710
1437.361668	-2.993000	3.526000	-10.552000	25.535991	0.000300	20.803927
1438.364594	-3.007400	3.526300	-10.604000	25.536231	0.000301	20.809383
1439.361898	-3.013700	3.526800	-10.627000	25.606368	0.000302	20.815337
1440.364229	-2.995000	3.525700	-10.557000	25.628718	0.000299	20.775669
1441.366953	-2.986300	3.525600	-10.528000	25.666731	0.000299	20.821908
1442.363471	-2.992300	3.523700	-10.543000	25.666147	0.000300	20.812788
1443.369825	-2.997300	3.523800	-10.562000	25.685846	0.000299	20.802227
1444.360723	-2.988800	3.524600	-10.532000	25.694589	0.000299	20.810535
1445.362051	-3.018300	3.522600	-10.631000	25.624941	0.000301	20.790368
1446.363647	-3.016700	3.522600	-10.625000	25.563148	0.000298	20.811286
1447.362182	-3.004400	3.522500	-10.581000	25.596442	0.000300	20.815799
1448.363945	-2.989500	3.522800	-10.530000	25.607699	0.000301	20.797708
1449.366316	-2.999700	3.520700	-10.560000	25.564957	0.000296	20.770903
1450.365246	-2.990200	3.521700	-10.530000	25.536905	0.000296	20.786353
1451.368512	-3.001600	3.521900	-10.570000	25.513690	0.000297	20.813774
1452.370454	-3.013400	3.521700	-10.611000	25.473862	0.000296	20.815029
1453.362841	-3.007800	3.521700	-10.591000	25.523507	0.000297	20.799925
1454.366459	-3.009600	3.519900	-10.592000	25.568139	0.000296	20.794487
1455.364864	-2.978900	3.519600	-10.483000	25.615420	0.000297	20.815418
1456.368246	-3.014000	3.518900	-10.605000	25.650833	0.000298	20.830597
1457.370636	-3.016400	3.519700	-10.616000	25.648614	0.000295	20.810825
1458.367352	-3.004100	3.519100	-10.571000	25.687099	0.000296	20.822925
1459.369755	-2.992000	3.519400	-10.529000	25.673727	0.000297	20.814711
1460.368323	-2.998800	3.519000	-10.551000	25.692316	0.000295	20.834803
1461.369542	-2.997600	3.517500	-10.543000	25.684463	0.000295	20.825967
1462.366050	-3.001800	3.517700	-10.559000	25.703787	0.000294	20.835420
1463.366144	-2.998900	3.517100	-10.547000	25.698674	0.000294	20.816059
1464.369573	-2.974500	3.518600	-10.465000	25.637745	0.000295	20.819348
1465.372269	-2.969600	3.519200	-10.449000	25.638604	0.000294	20.833961
1466.369401	-3.012300	3.515800	-10.589000	25.610657	0.000295	20.831972
1467.369083	-3.007400	3.515400	-10.572000	25.548356	0.000292	20.824879
1468.369912	-2.990800	3.516600	-10.517000	25.564531	0.000293	20.831166
1469.369721	-3.004700	3.514300	-10.559000	25.559037	0.000294	20.830390
1470.372381	-2.980200	3.515000	-10.474000	25.544745	0.000292	20.839270
1471.368210	-2.980500	3.516300	-10.479000	25.549510	0.000292	20.818926
1472.367654	-3.016000	3.514200	-10.598000	25.577365	0.000294	20.835995
1473.369298	-2.967700	3.514800	-10.430000	25.631181	0.000292	20.835041
1474.369582	-2.994400	3.514800	-10.524000	25.689671	0.000292	20.835940
1475.373657	-2.980800	3.513300	-10.472000	25.705637	0.000291	20.836803
1476.373333	-2.981500	3.514000	-10.475000	25.690206	0.000292	20.839796
1477.370180	-2.976200	3.513600	-10.457000	25.644782	0.000291	20.842062
1478.371179	-2.990700	3.511300	-10.500000	25.618221	0.000291	20.846206
1479.373620	-3.011600	3.511400	-10.574000	25.633825	0.000289	20.850498
1480.372017	-2.988300	3.511200	-10.492000	25.620232	0.000289	20.838743
1481.370346	-2.988200	3.511900	-10.493000	25.626236	0.000287	20.839083
1482.370607	-2.989400	3.512600	-10.500000	25.626880	0.000290	20.843049
1483.371285	-2.972900	3.510200	-10.435000	25.616395	0.000287	20.863812
1484.372619	-2.972900	3.510900	-10.435000	25.641840	0.000288	20.849064
1485.371461	-2.999400	3.509300	-10.524000	25.637468	0.000287	20.852734
1486.378501	-2.995300	3.509400	-10.511000	25.586027	0.000287	20.839952
1487.373583	-2.993500	3.508700	-10.502000	25.628334	0.000287	20.847828
1488.374156	-2.996600	3.508300	-10.511000	25.578123	0.000286	20.842920
1489.372393	-3.014400	3.508400	-10.575000	25.533240	0.000287	20.856165
1490.371472	-3.000800	3.508500	-10.528000	25.536226	0.000284	20.849207
1491.373724	-3.023200	3.506400	-10.599000	25.559361	0.000285	20.851577
1492.376693	-2.990000	3.507700	-10.487000	25.527305	0.000285	20.848782
1493.375185	-3.003800	3.507100	-10.534000	25.520375	0.000286	20.845142
1494.374060	-2.999100	3.508100	-10.520000	25.537569	0.000285	20.842969
1495.374548	-2.999200	3.505800	-10.514000	25.543486	0.000285	20.836583
1496.374193	-3.000600	3.506700	-10.522000	25.583219	0.000282	20.837606
1497.376702	-2.971900	3.505900	-10.418000	25.589326	0.000285	20.845636
1498.373608	-2.994300	3.505400	-10.496000	25.617904	0.000282	20.828345
1499.372472	-3.010500	3.504100	-10.548000	25.619001	0.000283	20.843671
1500.374268	-3.007300	3.505100	-10.540000	25.622980	0.000283	20.839606
1501.374464	-3.007700	3.504600	-10.540000	25.617689	0.000282	20.819120
1502.377335	-3.009100	3.504200	-10.544000	25.646020	0.000280	20.824341
1503.376414	-2.995800	3.503600	-10.495000	25.634469	0.000282	20.828386
1504.377042	-3.012500	3.503100	-10.553000	25.653396	0.000282	20.827007
1505.377983	-3.001900	3.502900	-10.515000	25.648258	0.000281	20.829433
1506.379221	-2.965400	3.502500	-10.386000	25.652482	0.000281	20.831779
1507.376477	-2.980500	3.502400	-10.438000	25.676589	0.000281	20.822327
1508.377982	-2.990300	3.501800	-10.470000	25.665406	0.000281	20.824845
1509.378810	-3.014500	3.501000	-10.553000	25.671470	0.000278	20.827616
1510.379161	-2.999800	3.501600	-10.503000	25.686080	0.000279	20.824272
1511.383982	-2.999300	3.502100	-10.503000	25.665333	0.000280	20.809599
1512.376841	-2.992300	3.501900	-10.478000	25.649538	0.000280	20.817917
1513.383358	-3.024300	3.500700	-10.587000	25.654254	0.000279	20.816489
1514.380363	-3.018900	3.499000	-10.562000	25.648569	0.000276	20.815521
1515.387175	-3.009000	3.498900	-10.527000	25.611966	0.000279	20.821907
1516.380919	-3.019500	3.499400	-10.565000	25.599844	0.000279	20.811630
1517.379853	-3.006800	3.498200	-10.518000	25.555666	0.000276	20.799979
1518.385230	-2.999100	3.498900	-10.492000	25.582130	0.000279	20.799055
1519.382359	-2.996200	3.499600	-10.484000	25.608348	0.000277	20.787453
1520.383135	-2.985100	3.498900	-10.443000	25.570897	0.000277	20.809111
1521.386091	-3.013400	3.496800	-10.536000	25.511432	0.000276	20.795859
1522.383930	-3.019400	3.496300	-10.556000	25.528533	0.000276	20.812559
1523.387669	-3.030200	3.497400	-10.597000	25.589316	0.000274	20.802478
1524.383722	-2.999700	3.498100	-10.493000	25.591284	0.000275	20.807774
1525.384261	-3.016900	3.497600	-10.551000	25.607906	0.000275	20.812614
1526.390408	-2.990300	3.496500	-10.455000	25.616355	0.000277	20.800711
1527.385221	-3.013400	3.496000	-10.534000	25.617673	0.000275	20.799664
1528.383531	-3.023900	3.495000	-10.568000	25.632412	0.000273	20.822053
1529.385579	-2.988600	3.496200	-10.448000	25.626949	0.000275	20.808506
1530.391926	-3.000000	3.494300	-10.482000	25.604140	0.000275	20.814522
1531.386237	-2.989900	3.495000	-10.449000	25.600633	0.000275	20.785870
1532.385997	-2.986800	3.495700	-10.440000	25.624288	0.000273	20.797773
1533.386128	-2.978100	3.494300	-10.406000	25.647721	0.000272	20.792384
1534.387307	-3.000300	3.493400	-10.480000	25.711310	0.000274	20.805044
1535.385397	-3.009200	3.493600	-10.512000	25.718140	0.000271	20.791516
1536.392361	-2.989200	3.491700	-10.437000	25.714388	0.000272	20.797704
1537.387364	-2.983900	3.492300	-10.420000	25.677346	0.000272	20.790844
1538.386034	-2.988200	3.492700	-10.436000	25.662932	0.000274	20.801972
1539.386922	-3.016300	3.492600	-10.534000	25.613299	0.000272	20.793374
1540.386954	-2.987100	3.491000	-10.426000	25.641969	0.000271	20.789452
1541.388677	-3.008100	3.490400	-10.499000	25.659737	0.000270	20.783115
1542.390929	-3.000200	3.490300	-10.471000	25.662545	0.000271	20.790677
1543.389270	-2.998200	3.489600	-10.462000	25.666444	0.000271	20.775153
1544.393339	-3.018500	3.488700	-10.529000	25.666695	0.000271	20.794372
1545.395276	-2.997800	3.489500	-10.460000	25.652306	0.000269	20.783713
1546.392732	-2.982400	3.490200	-10.408000	25.630841	0.000271	20.779698
1547.394619	-3.005300	3.488300	-10.483000	25.567896	0.000269	20.780492
1548.394189	-3.019100	3.489000	-10.533000	25.612030	0.000268	20.789255
1549.390635	-3.003900	3.486600	-10.473000	25.658615	0.000269	20.800007
1550.392498	-3.007600	3.486900	-10.487000	25.697964	0.000268	20.778363
1551.397285	-3.004900	3.487000	-10.477000	25.700232	0.000270	20.791546
1552.394413	-2.997900	3.486600	-10.452000	25.705921	0.000268	20.774975
1553.397861	-2.980100	3.488700	-10.395000	25.731879	0.000269	20.791565
1554.396946	-2.979800	3.488400	-10.394000	25.730690	0.000268	20.784680
1555.400873	-2.989600	3.486500	-10.422000	25.717865	0.000267	20.788394
1556.392790	-3.007400	3.485500	-10.481000	25.720667	0.000267	20.774613
1557.394154	-2.993000	3.486200	-10.433000	25.678254	0.000265	20.766152
1558.399811	-3.001500	3.485500	-10.461000	25.652363	0.000266	20.786615
1559.397804	-3.008600	3.485600	-10.486000	25.630788	0.000264	20.780119
1560.394601	-2.984100	3.484400	-10.397000	25.654816	0.000265	20.772957
1561.395437	-3.009100	3.484500	-10.484000	25.706494	0.000265	20.779818
1562.396271	-3.006200	3.485100	-10.476000	25.752859	0.000265	20.769016
1563.395110	-3.017600	3.483700	-10.511000	25.746043	0.000263	20.771178
1564.400250	-3.007400	3.484100	-10.477000	25.755484	0.000266	20.759798
1565.394962	-3.005600	3.484200	-10.471000	25.750243	0.000262	20.774922
1566.396641	-2.989200	3.482400	-10.409000	25.733568	0.000264	20.780933
1567.397791	-3.010600	3.482800	-10.485000	25.708297	0.000263	20.772620
1568.397439	-2.992300	3.481600	-10.417000	25.675822	0.000264	20.766080
1569.396039	-3.025000	3.480600	-10.529000	25.683774	0.000260	20.763161
1570.397965	-2.999300	3.481900	-10.442000	25.740624	0.000261	20.786598
1571.397861	-2.979500	3.481200	-10.372000	25.747552	0.000261	20.765582
1572.394096	-2.985600	3.481900	-10.395000	25.774704	0.000262	20.776260
1573.397587	-2.983200	3.481000	-10.384000	25.739871	0.000260	20.782048
1574.398792	-2.973000	3.481200	-10.348000	25.697410	0.000259	20.771641
1575.398541	-3.008000	3.479100	-10.464000	25.710952	0.000259	20.765329
1576.402101	-3.002700	3.479500	-10.446000	25.738204	0.000259	20.783693
1577.401625	-3.008000	3.480000	-10.466000	25.715550	0.000258	20.764258
1578.401652	-3.019100	3.478000	-10.500000	25.663794	0.000258	20.755895
1579.399376	-3.030300	3.479100	-10.542000	25.635812	0.000259	20.772362
1580.404909	-3.008900	3.478100	-10.464000	25.622181	0.000258	20.762465
1581.399067	-2.994400	3.477600	-10.413000	25.655572	0.000257	20.765656
1582.404446	-2.969900	3.479400	-10.333000	25.642880	0.000257	20.762865
1583.402691	-2.972700	3.479000	-10.341000	25.641985	0.000257	20.758647
1584.401978	-2.998200	3.477400	-10.425000	25.651653	0.000257	20.769306
1585.399443	-2.981400	3.477500	-10.367000	25.619477	0.000257	20.774922
1586.404551	-2.995600	3.475900	-10.411000	25.609434	0.000256	20.755353
1587.409234	-3.019600	3.475700	-10.494000	25.676128	0.000258	20.759275
1588.404890	-2.999800	3.476100	-10.427000	25.690744	0.000255	20.749772
1589.406505	-3.014900	3.474800	-10.475000	25.636723	0.000257	20.765691
1590.407692	-2.994500	3.475100	-10.406000	25.659463	0.000255	20.750123
1591.405847	-3.004000	3.474900	-10.437000	25.698346	0.000253	20.762624
1592.409719	-2.986700	3.475400	-10.379000	25.717701	0.000253	20.760728
1593.407402	-2.994200	3.474400	-10.403000	25.685354	0.000254	20.760007
1594.408581	-3.001700	3.473800	-10.427000	25.702944	0.000253	20.764398
1595.410035	-2.991400	3.473500	-10.389000	25.722623	0.000255	20.754766
1596.408708	-3.004300	3.473800	-10.436000	25.711790	0.000255	20.745782
1597.409136	-2.992000	3.474200	-10.393000	25.723426	0.000253	20.755098
1598.408836	-2.991900	3.472900	-10.389000	25.698602	0.000251	20.770943
1599.406278	-3.014800	3.471500	-10.466000	25.691276	0.000251	20.768326
1600.413698	-2.997800	3.472300	-10.409000	25.646796	0.000253	20.778179
1601.411241	-2.977400	3.472200	-10.338000	25.673337	0.000252	20.726598
1602.411788	-3.005200	3.471900	-10.434000	25.687524	0.000249	20.771195
1603.416170	-3.009600	3.470200	-10.443000	25.648395	0.000250	20.764138
1604.408412	-3.012500	3.470100	-10.453000	25.688351	0.000248	20.766810
1605.412233	-3.030000	3.470200	-10.514000	25.742731	0.000250	20.748410
1606.415402	-3.017600	3.469700	-10.469000	25.728005	0.000250	20.751162
1607.411742	-3.015100	3.471000	-10.464000	25.688198	0.000249	20.759544
1608.412285	-2.989900	3.469700	-10.373000	25.661767	0.000249	20.764291
1609.410001	-2.983400	3.468500	-10.347000	25.636145	0.000249	20.754205
1610.415985	-2.969400	3.469700	-10.302000	25.624122	0.000249	20.757776
1611.412799	-2.978200	3.469100	-10.331000	25.567620	0.000246	20.744653
1612.414197	-3.000700	3.468500	-10.407000	25.557062	0.000247	20.745429
1613.416891	-2.975200	3.468700	-10.319000	25.632723	0.000248	20.736068
1614.411839	-2.997600	3.468900	-10.397000	25.620823	0.000248	20.744505
1615.414237	-3.003000	3.466700	-10.410000	25.625972	0.000248	20.754893
1616.414115	-3.016400	3.466700	-10.456000	25.655488	0.000248	20.756562
1617.410729	-3.000400	3.467100	-10.401000	25.676756	0.000247	20.741413
1618.411914	-3.011500	3.465200	-10.435000	25.692341	0.000246	20.749006
1619.412185	-3.000500	3.466100	-10.399000	25.707894	0.000246	20.756094
1620.412206	-3.000400	3.465700	-10.397000	25.687399	0.000247	20.748310
1621.412684	-3.012600	3.465000	-10.437000	25.674775	0.000245	20.748907
1622.415610	-2.989000	3.465300	-10.357000	25.675474	0.000248	20.742496
1623.411980	-3.014300	3.463800	-10.439000	25.671004	0.000247	20.736584
1624.413880	-3.006900	3.464200	-10.416000	25.675769	0.000244	20.746111
1625.416806	-2.999100	3.465300	-10.391000	25.646848	0.000244	20.747411
1626.411738	-2.992800	3.464200	-10.367000	25.655873	0.000247	20.746517
1627.414618	-2.987800	3.463400	-10.347000	25.624788	0.000244	20.742798
1628.417601	-3.009000	3.464300	-10.423000	25.677196	0.000242	20.740433
1629.415228	-3.002400	3.462500	-10.395000	25.690384	0.000246	20.734238
1630.416986	-2.982000	3.463800	-10.328000	25.725121	0.000244	20.738782
1631.414798	-2.974900	3.464500	-10.305000	25.743084	0.000244	20.733117
1632.414246	-3.001300	3.461300	-10.388000	25.735727	0.000245	20.747540
1633.421167	-3.002000	3.461300	-10.390000	25.719383	0.000243	20.738708
1634.415461	-3.007100	3.461200	-10.407000	25.700672	0.000244	20.731294
1635.414961	-2.998900	3.461500	-10.379000	25.735905	0.000242	20.741554
1636.415407	-2.976500	3.461400	-10.302000	25.784624	0.000243	20.721737
1637.411206	-2.987400	3.461500	-10.341000	25.805068	0.000240	20.736584
1638.411930	-3.011500	3.459300	-10.416000	25.804596	0.000240	20.737058
1639.413249	-3.013600	3.458700	-10.422000	25.788468	0.000241	20.736979
1640.415828	-2.983000	3.458800	-10.317000	25.795057	0.000240	20.732692
1641.420448	-3.026700	3.458100	-10.466000	25.794162	0.000241	20.734638
1642.416316	-2.984000	3.458700	-10.320000	25.785396	0.000240	20.725832
1643.415515	-3.007000	3.458900	-10.400000	25.818561	0.000241	20.730697
1644.420138	-3.001000	3.458300	-10.378000	25.805963	0.000239	20.728474
1645.416810	-3.010400	3.456500	-10.404000	25.806907	0.000239	20.733216
1646.416230	-2.995700	3.457400	-10.356000	25.818800	0.000238	20.712919
1647.417325	-3.012300	3.457800	-10.415000	25.817237	0.000236	20.731738
1648.414608	-2.974000	3.457600	-10.282000	25.760967	0.000236	20.710301
1649.416496	-3.009000	3.457600	-10.403000	25.719554	0.000239	20.731294
1650.419464	-2.999100	3.456700	-10.366000	25.674683	0.000238	20.728424
1651.422716	-3.008700	3.455600	-10.396000	25.674333	0.000237	20.728074
1652.418927	-3.022500	3.455200	-10.443000	25.711603	0.000236	20.711452
1653.416851	-2.992100	3.455800	-10.339000	25.720346	0.000235	20.703638
1654.422876	-3.010700	3.456000	-10.404000	25.717966	0.000234	20.725431
1655.420063	-2.985500	3.455500	-10.315000	25.727585	0.000235	20.701900
1656.421759	-2.976100	3.453400	-10.276000	25.758361	0.000236	20.739928
1657.417446	-2.998700	3.454100	-10.357000	25.790367	0.000234	20.718971
1658.421651	-2.997000	3.454400	-10.352000	25.815562	0.000235	20.692120
1659.424266	-2.983700	3.453500	-10.304000	25.829870	0.000235	20.706968
1660.422333	-2.981400	3.454200	-10.297000	25.793377	0.000233	20.712511
1661.422027	-2.971600	3.453500	-10.262000	25.732532	0.000235	20.712560
1662.418498	-2.997800	3.453700	-10.353000	25.712411	0.000233	20.704677
1663.422747	-2.954300	3.453600	-10.202000	25.658913	0.000233	20.712111
1664.423128	-2.991700	3.452400	-10.328000	25.667741	0.000233	20.720504
1665.422548	-2.999400	3.452900	-10.355000	25.659096	0.000233	20.720830
1666.421445	-2.989800	3.452300	-10.321000	25.707150	0.000233	20.707928
1667.427582	-3.005100	3.451200	-10.370000	25.690756	0.000231	20.708057
1668.425958	-3.000600	3.451000	-10.355000	25.719902	0.000233	20.702243
1669.426069	-2.979400	3.451000	-10.280000	25.753497	0.000232	20.699952
1670.424262	-2.990200	3.451300	-10.319000	25.759363	0.000231	20.714855
1671.422138	-2.996300	3.449200	-10.334000	25.764163	0.000230	20.709244
1672.427122	-2.978800	3.450300	-10.276000	25.714248	0.000229	20.706522
1673.424469	-2.977200	3.450100	-10.270000	25.705879	0.000229	20.696219
1674.426163	-2.980500	3.449100	-10.279000	25.703372	0.000231	20.702710
1675.423196	-2.991800	3.448900	-10.317000	25.710600	0.000228	20.719454
1676.424067	-3.011500	3.448200	-10.382000	25.748671	0.000228	20.712175
1677.427646	-2.998600	3.447300	-10.335000	25.733939	0.000228	20.695479
1678.426084	-2.981000	3.447100	-10.275000	25.711880	0.000229	20.706515
1679.427208	-2.996500	3.446500	-10.326000	25.724184	0.000226	20.700381
1680.424278	-2.972000	3.448200	-10.247000	25.727488	0.000226	20.713658
1681.431098	-3.004000	3.447600	-10.356000	25.761348	0.000227	20.679387
1682.430054	-3.000700	3.446800	-10.342000	25.753476	0.000227	20.690921
1683.434011	-3.015500	3.446600	-10.392000	25.705632	0.000226	20.692177
1684.430521	-2.998500	3.447500	-10.336000	25.680257	0.000229	20.698459
1685.429022	-3.023400	3.445500	-10.416000	25.610717	0.000226	20.695472
1686.430338	-2.998700	3.444700	-10.329000	25.572407	0.000228	20.683074
1687.431247	-3.007500	3.445500	-10.361000	25.614720	0.000228	20.702338
1688.430490	-2.999800	3.443900	-10.330000	25.645284	0.000229	20.684670
1689.426646	-2.990800	3.445100	-10.301000	25.639398	0.000227	20.684922
1690.429405	-3.018200	3.443900	-10.393000	25.641158	0.000226	20.678628
1691.429955	-3.014100	3.443400	-10.376000	25.624542	0.000227	20.687545
1692.430222	-3.002500	3.443400	-10.338000	25.660544	0.000225	20.693359
1693.430626	-2.995100	3.444600	-10.316000	25.666056	0.000225	20.679928
1694.433222	-3.001900	3.442300	-10.332000	25.725243	0.000226	20.697177
1695.431837	-2.993000	3.442700	-10.303000	25.721939	0.000226	20.691012
1696.431531	-3.011400	3.441200	-10.362000	25.673585	0.000223	20.692232
1697.435431	-3.019000	3.442000	-10.391000	25.663702	0.000223	20.689891
1698.428878	-3.013800	3.442100	-10.373000	25.629558	0.000222	20.687367
1699.434379	-2.982400	3.441600	-10.263000	25.637136	0.000223	20.675062
1700.432653	-3.018300	3.440400	-10.383000	25.615891	0.000223	20.693556
1701.433623	-3.000800	3.441600	-10.327000	25.567238	0.000224	20.667450
1702.433621	-3.008500	3.439600	-10.347000	25.636118	0.000224	20.696327
1703.430409	-3.004200	3.439600	-10.332000	25.656118	0.000225	20.687964
1704.436558	-3.007300	3.439700	-10.344000	25.685737	0.000222	20.671244
1705.435549	-3.002600	3.439900	-10.327000	25.739356	0.000222	20.686221
1706.446388	-3.006400	3.438900	-10.338000	25.752524	0.000224	20.684749
1707.435002	-3.000100	3.438400	-10.314000	25.732324	0.000222	20.680106
1708.434564	-2.998000	3.439000	-10.309000	25.715232	0.000222	20.672420
1709.433817	-2.992900	3.437600	-10.288000	25.735156	0.000221	20.683899
1710.432313	-2.986200	3.437700	-10.264000	25.757343	0.000220	20.657344
1711.434504	-2.986300	3.437600	-10.265000	25.777966	0.000223	20.676639
1712.436059	-3.015500	3.436800	-10.363000	25.822533	0.000220	20.650754
1713.440338	-2.997500	3.437600	-10.304000	25.829913	0.000218	20.661963
1714.431082	-2.997500	3.436100	-10.298000	25.812399	0.000219	20.678036
1715.436036	-2.987900	3.436300	-10.267000	25.786168	0.000219	20.669230
1716.437354	-2.986300	3.436100	-10.260000	25.785322	0.000218	20.668854
1717.435657	-2.990300	3.434700	-10.270000	25.772424	0.000218	20.653051
1718.439330	-2.983900	3.435700	-10.251000	25.792225	0.000216	20.653975
1719.435151	-2.988700	3.434500	-10.264000	25.793199	0.000217	20.670603
1720.436566	-3.005000	3.434800	-10.320000	25.766544	0.000218	20.668484
1721.437789	-3.005800	3.434500	-10.322000	25.797049	0.000217	20.662141
1722.441006	-2.973800	3.434700	-10.212000	25.829569	0.000217	20.682483
1723.436720	-3.010000	3.433800	-10.335000	25.731833	0.000216	20.675819
1724.438605	-2.982000	3.432800	-10.236000	25.738491	0.000216	20.652632
1725.435992	-2.995600	3.432600	-10.282000	25.768162	0.000218	20.657780
1726.437909	-3.002700	3.431400	-10.303000	25.752505	0.000215	20.643000
1727.436240	-2.996800	3.433300	-10.288000	25.724108	0.000216	20.659998
1728.436687	-2.990100	3.431700	-10.259000	25.705447	0.000214	20.669230
1729.435980	-2.999900	3.431200	-10.292000	25.676508	0.000214	20.679046
1730.436454	-2.972300	3.433200	-10.203000	25.696581	0.000215	20.668860
1731.435729	-2.976200	3.432300	-10.214000	25.683369	0.000215	20.684040
1732.437775	-2.990400	3.430300	-10.257000	25.673351	0.000214	20.657854
1733.437983	-2.992400	3.430800	-10.265000	25.660954	0.000214	20.661525
1734.437110	-3.010000	3.429800	-10.323000	25.687268	0.000211	20.644330
1735.441831	-2.989700	3.430300	-10.255000	25.681903	0.000213	20.665497
1736.438813	-2.994000	3.428800	-10.265000	25.693135	0.000213	20.654965
1737.442974	-2.995800	3.429000	-10.271000	25.705949	0.000214	20.661198
1738.443265	-2.995500	3.428500	-10.269000	25.668838	0.000212	20.666599
1739.438077	-3.009700	3.429000	-10.318000	25.688463	0.000212	20.663550
1740.442754	-3.015700	3.427100	-10.334000	25.725334	0.000212	20.674507
1741.440719	-2.977700	3.427600	-10.206000	25.739673	0.000211	20.646707
1742.440521	-3.003600	3.427400	-10.294000	25.743542	0.000211	20.654387
1743.442543	-2.998100	3.427900	-10.276000	25.746325	0.000211	20.674254
1744.439221	-2.990400	3.426300	-10.245000	25.757581	0.000209	20.676077
1745.443048	-2.979100	3.427400	-10.209000	25.785530	0.000210	20.671434
1746.443847	-3.000800	3.425600	-10.277000	25.823616	0.000210	20.654688
1747.448244	-3.009200	3.424600	-10.305000	25.828557	0.000209	20.660127
1748.446270	-2.981200	3.426300	-10.214000	25.845525	0.000210	20.655360
1749.445833	-2.992400	3.425900	-10.251000	25.828214	0.000210	20.683966
1750.443303	-3.001900	3.425100	-10.281000	25.807415	0.000208	20.640783
1751.447792	-3.018600	3.424300	-10.335000	25.768206	0.000209	20.650711
1752.449667	-3.023800	3.424200	-10.353000	25.774091	0.000207	20.644294
1753.451633	-3.028300	3.423300	-10.365000	25.813502	0.000208	20.656382
1754.448009	-3.000400	3.424400	-10.273000	25.774250	0.000207	20.645876
1755.448622	-3.011800	3.422600	-10.307000	25.782116	0.000207	20.668953
1756.450859	-2.988500	3.424000	-10.231000	25.762639	0.000206	20.643222
1757.452252	-3.003700	3.423800	-10.283000	25.708224	0.000206	20.665855
1758.450678	-2.994000	3.422700	-10.247000	25.644769	0.000207	20.665658
1759.448061	-3.007100	3.421100	-10.286000	25.677294	0.000204	20.640001
1760.454282	-2.997400	3.419900	-10.250000	25.719529	0.000207	20.647336
1761.452084	-2.992500	3.421700	-10.238000	25.720572	0.000208	20.646961
1762.452952	-2.966400	3.421700	-10.149000	25.693069	0.000203	20.668651
1763.454361	-3.019100	3.420500	-10.326000	25.721270	0.000204	20.648611
1764.454484	-2.997700	3.420300	-10.252000	25.774882	0.000205	20.647460
1765.454666	-3.017800	3.419300	-10.317000	25.770983	0.000204	20.659666
1766.455621	-3.007000	3.420500	-10.285000	25.783330	0.000203	20.666853
1767.456046	-3.012300	3.419600	-10.300000	25.822876	0.000203	20.658213
1768.455404	-3.000300	3.419200	-10.258000	25.850780	0.000202	20.657794
1769.454897	-3.007700	3.418800	-10.282000	25.836589	0.000202	20.653970
1770.455635	-3.005300	3.418000	-10.271000	25.827829	0.000200	20.666508
1771.458783	-3.002600	3.417900	-10.262000	25.808991	0.000202	20.642841
1772.456429	-3.017900	3.418200	-10.315000	25.763676	0.000202	20.648531
1773.457377	-3.007800	3.416300	-10.275000	25.763480	0.000201	20.649757
1774.456056	-3.019100	3.416600	-10.314000	25.786143	0.000202	20.664463
1775.452997	-2.999800	3.417000	-10.250000	25.800820	0.000201	20.669723
1776.456713	-3.003000	3.415700	-10.256000	25.845342	0.000202	20.680309
1777.452830	-3.002000	3.417000	-10.256000	25.851331	0.000203	20.664038
1778.458138	-3.007500	3.416500	-10.274000	25.850633	0.000200	20.640574
1779.456658	-2.991900	3.416800	-10.221000	25.810088	0.000199	20.650582
1780.457623	-3.008200	3.414900	-10.272000	25.821392	0.000199	20.665258
1781.458364	-2.995600	3.414900	-10.228000	25.814588	0.000198	20.669802
1782.453668	-3.015800	3.413600	-10.294000	25.832825	0.000198	20.678165
1783.457001	-2.980800	3.414400	-10.176000	25.803633	0.000198	20.656900
1784.456594	-3.010100	3.412400	-10.271000	25.775636	0.000197	20.668607
1785.457095	-2.999700	3.415100	-10.243000	25.770468	0.000199	20.670055
1786.457193	-2.991500	3.412600	-10.208000	25.772037	0.000198	20.656931
1787.460906	-3.000200	3.412700	-10.238000	25.825057	0.000198	20.652816
1788.459206	-3.009700	3.411400	-10.266000	25.807371	0.000197	20.662553
1789.464966	-3.004300	3.412700	-10.252000	25.813158	0.000198	20.665521
1790.461441	-2.994300	3.412700	-10.217000	25.849577	0.000199	20.663224
1791.459738	-3.000300	3.411700	-10.235000	25.877652	0.000196	20.675781
1792.459242	-3.010000	3.411900	-10.269000	25.915313	0.000195	20.659560
1793.457805	-3.006800	3.409900	-10.252000	25.847615	0.000196	20.676902
1794.465500	-3.009100	3.410200	-10.261000	25.850227	0.000196	20.674783
1795.461841	-2.997800	3.411300	-10.226000	25.835270	0.000197	20.661654
1796.461777	-3.008800	3.411300	-10.263000	25.813759	0.000195	20.676083
1797.461753	-3.020800	3.409400	-10.298000	25.835594	0.000194	20.663877
1798.463584	-2.987900	3.411100	-10.190000	25.874943	0.000195	20.667369
1799.461336	-3.017200	3.409600	-10.287000	25.888734	0.000194	20.653247
1800.458313	-2.987400	3.410100	-10.186000	25.924458	0.000194	20.677283
1801.460487	-2.993500	3.408800	-10.204000	25.893080	0.000193	20.668046
1802.456834	-3.010300	3.408700	-10.260000	25.840854	0.000193	20.676274
1803.465824	-3.022200	3.408900	-10.302000	25.841859	0.000193	20.670170
1804.463787	-3.007900	3.408100	-10.250000	25.864932	0.000194	20.699516
1805.466224	-2.966700	3.408800	-10.112000	25.868438	0.000192	20.676483
1806.460425	-3.022300	3.405900	-10.293000	25.843422	0.000192	20.685019
1807.462896	-3.022200	3.405800	-10.291000	25.823297	0.000191	20.680449
1808.460763	-2.980900	3.407600	-10.157000	25.841883	0.000192	20.678731
1809.460723	-3.012300	3.405800	-10.258000	25.817510	0.000191	20.682697
1810.462557	-2.991200	3.405400	-10.186000	25.845040	0.000188	20.661037
1811.465581	-2.970100	3.407200	-10.119000	25.830206	0.000192	20.679328
1812.462893	-2.977600	3.405400	-10.138000	25.858881	0.000189	20.679211
1813.465716	-3.015600	3.404600	-10.266000	25.857711	0.000190	20.668076
1814.476131	-2.994500	3.405900	-10.198000	25.840896	0.000188	20.684378
1815.469429	-2.997100	3.405400	-10.205000	25.821489	0.000189	20.683374
1816.466727	-2.987900	3.405400	-10.175000	25.864423	0.000190	20.701375
1817.468925	-3.005000	3.403900	-10.228000	25.842104	0.000190	20.688437
1818.466515	-3.003300	3.404900	-10.225000	25.869137	0.000189	20.682401
1819.470550	-2.988300	3.402900	-10.168000	25.825963	0.000188	20.672695
1820.468264	-2.999600	3.402000	-10.204000	25.799033	0.000186	20.684051
1821.471345	-3.000800	3.403300	-10.212000	25.837194	0.000188	20.676390
1822.471214	-3.016300	3.402100	-10.261000	25.867353	0.000186	20.680134
1823.471932	-2.999800	3.403400	-10.208000	25.872569	0.000188	20.685849
1824.472492	-3.016600	3.400600	-10.257000	25.892767	0.000187	20.690019
1825.471975	-3.014200	3.402000	-10.253000	25.898081	0.000187	20.686822
1826.473468	-2.986400	3.400800	-10.155000	25.924095	0.000184	20.700155
1827.475302	-2.977200	3.401700	-10.127000	25.858764	0.000186	20.690948
1828.472734	-2.993100	3.401100	-10.179000	25.882732	0.000186	20.701750
1829.471946	-2.998100	3.400200	-10.193000	25.864570	0.000185	20.682555
1830.474118	-2.974900	3.401400	-10.118000	25.892925	0.000185	20.684013
1831.473389	-2.983700	3.400800	-10.146000	25.926848	0.000184	20.693437
1832.472605	-3.008500	3.398700	-10.225000	25.893460	0.000184	20.698776
1833.474147	-2.994400	3.399300	-10.179000	25.896985	0.000184	20.685720
1834.473660	-2.989700	3.398500	-10.159000	25.897934	0.000183	20.693787
1835.472848	-2.969900	3.398800	-10.093000	25.885196	0.000183	20.700906
1836.473671	-3.009600	3.396200	-10.220000	25.862142	0.000183	20.689125
1837.472865	-3.011800	3.396800	-10.230000	25.857496	0.000184	20.678293
1838.472162	-3.009000	3.396800	-10.220000	25.859580	0.000183	20.705045
1839.474447	-3.013700	3.397400	-10.238000	25.872526	0.000182	20.699558
1840.477131	-2.992400	3.397300	-10.165000	25.847608	0.000183	20.698234
1841.473751	-3.008600	3.397400	-10.221000	25.834367	0.000181	20.693941
1842.475563	-3.001500	3.396500	-10.194000	25.854516	0.000182	20.712761
1843.474430	-2.995300	3.395800	-10.170000	25.828684	0.000181	20.698664
1844.474944	-2.977800	3.396300	-10.113000	25.816933	0.000180	20.696817
1845.479279	-2.985100	3.396400	-10.137000	25.811293	0.000181	20.703480
1846.474936	-2.988800	3.396400	-10.151000	25.798205	0.000183	20.681322
1847.481806	-2.982300	3.395300	-10.125000	25.803937	0.000178	20.714109
1848.481779	-2.987500	3.393800	-10.138000	25.810526	0.000180	20.689907
1849.477560	-3.017900	3.392700	-10.237000	25.885202	0.000179	20.697592
1850.477230	-3.002900	3.394900	-10.194000	25.868786	0.000180	20.687265
1851.481031	-2.998300	3.393100	-10.172000	25.859144	0.000179	20.693226
1852.474161	-3.000100	3.393100	-10.179000	25.831099	0.000179	20.712471
1853.478219	-2.985000	3.392700	-10.125000	25.825367	0.000179	20.706238
1854.481970	-2.989400	3.393300	-10.143000	25.847650	0.000180	20.713449
1855.478287	-2.988800	3.392700	-10.139000	25.862184	0.000178	20.702444
1856.477467	-2.984600	3.391300	-10.121000	25.911044	0.000180	20.693207
1857.480806	-3.009600	3.390500	-10.203000	25.916836	0.000178	20.714675
1858.485487	-3.021900	3.391600	-10.248000	25.904019	0.000178	20.717920
1859.483149	-2.993700	3.390900	-10.150000	25.895499	0.000178	20.706041
1860.479863	-3.004500	3.390800	-10.187000	25.892569	0.000176	20.697407
1861.482628	-2.981900	3.391200	-10.111000	25.879353	0.000178	20.723487
1862.481162	-2.979200	3.390300	-10.099000	25.918331	0.000176	20.707167
1863.484597	-2.997000	3.389600	-10.158000	25.895824	0.000176	20.730076
1864.483658	-2.990500	3.388000	-10.131000	25.903056	0.000176	20.725962
1865.480485	-2.976900	3.389800	-10.090000	25.958700	0.000176	20.716429
1866.486419	-2.998300	3.389200	-10.161000	25.989579	0.000175	20.721848
1867.480780	-3.003600	3.387100	-10.172000	25.975985	0.000176	20.707716
1868.484961	-2.988900	3.387700	-10.124000	25.958154	0.000177	20.712562
1869.481571	-2.990300	3.388800	-10.133000	25.931449	0.000175	20.708491
1870.495945	-2.999100	3.388000	-10.160000	25.922413	0.000172	20.716959
1871.484071	-3.026100	3.386400	-10.247000	25.861919	0.000174	20.718301
1872.486742	-3.012300	3.385900	-10.198000	25.854330	0.000173	20.715418
1873.485720	-3.025200	3.385600	-10.241000	25.895712	0.000174	20.710049
1874.486141	-3.032600	3.385900	-10.266000	25.867515	0.000173	20.725346
1875.486249	-2.987000	3.386200	-10.114000	25.878249	0.000175	20.731861
1876.488495	-3.017200	3.384500	-10.210000	25.914892	0.000171	20.709876
1877.488912	-2.982100	3.385900	-10.096000	25.890649	0.000171	20.733413
1878.485121	-3.009000	3.385200	-10.185000	25.873829	0.000173	20.721257
1879.488410	-2.975400	3.385200	-10.071000	25.894651	0.000170	20.714673
1880.486398	-2.992400	3.384700	-10.128000	25.960384	0.000174	20.718596
1881.491691	-2.995400	3.385200	-10.140000	25.955664	0.000172	20.726183
1882.488853	-3.008300	3.382800	-10.175000	25.965551	0.000173	20.737064
1883.489434	-2.996900	3.383800	-10.140000	26.016447	0.000172	20.722290
1884.494731	-3.012100	3.384100	-10.192000	26.008106	0.000170	20.717702
1885.489407	-2.990500	3.383000	-10.115000	25.966850	0.000169	20.733627
1886.488853	-2.969900	3.383200	-10.047000	25.974273	0.000169	20.726860
1887.493730	-3.014300	3.381400	-10.190000	26.008111	0.000168	20.739520
1888.491666	-2.991200	3.382600	-10.117000	26.005004	0.000170	20.725492
1889.489069	-3.000000	3.382200	-10.145000	25.986997	0.000169	20.738695
1890.496056	-2.998000	3.381400	-10.136000	25.960641	0.000167	20.722173
1891.493079	-3.000800	3.379800	-10.141000	25.988418	0.000168	20.736804
1892.491802	-3.009500	3.379800	-10.170000	25.961743	0.000167	20.733713
1893.493132	-3.017100	3.379600	-10.196000	25.935166	0.000168	20.716020
1894.494466	-3.003200	3.380400	-10.151000	25.924330	0.000168	20.732635
1895.494284	-3.015300	3.379900	-10.191000	25.964802	0.000167	20.716870
1896.496542	-3.017000	3.378100	-10.190000	25.982442	0.000166	20.735541
1897.493753	-3.010000	3.378200	-10.168000	26.049603	0.000167	20.730947
1898.493864	-3.000200	3.379800	-10.139000	26.001944	0.000165	20.732376
1899.499384	-2.995300	3.380100	-10.124000	25.974320	0.000167	20.734968
1900.491995	-2.987000	3.377900	-10.089000	25.946150	0.000163	20.738910
1901.496095	-3.000800	3.379400	-10.140000	25.984979	0.000165	20.732400
1902.501369	-2.994400	3.378000	-10.114000	26.026215	0.000165	20.737795
1903.496638	-3.033500	3.375600	-10.239000	26.057062	0.000165	20.737967
1904.499633	-3.019200	3.376200	-10.193000	26.045190	0.000166	20.726513
1905.500649	-3.010800	3.375500	-10.162000	26.102359	0.000165	20.728004
1906.492438	-2.991100	3.375900	-10.096000	26.114934	0.000163	20.736372
1907.497486	-3.002500	3.375500	-10.134000	26.048567	0.000166	20.742709
1908.499859	-3.003400	3.376100	-10.139000	25.998635	0.000164	20.736163
1909.493825	-3.003300	3.374800	-10.134000	26.039650	0.000164	20.745603
1910.501367	-2.993500	3.374500	-10.101000	26.082864	0.000163	20.730701
1911.496159	-2.989900	3.375700	-10.092000	26.085346	0.000164	20.744101
1912.498497	-2.973600	3.374600	-10.034000	26.052012	0.000163	20.743325
1913.500829	-2.996200	3.374700	-10.111000	26.072378	0.000164	20.778962
1914.499063	-2.974100	3.372800	-10.030000	26.058019	0.000163	20.739403
1915.499035	-3.006900	3.373500	-10.143000	26.054366	0.000162	20.744268
1916.497836	-3.003200	3.372000	-10.126000	26.043010	0.000163	20.753247
1917.503259	-3.021400	3.373400	-10.192000	26.033105	0.000160	20.739027
1918.496241	-3.001700	3.372200	-10.121000	25.973782	0.000160	20.744860
1919.502726	-3.021200	3.372000	-10.186000	25.995510	0.000160	20.751517
1920.500972	-2.985400	3.372100	-10.066000	26.049354	0.000160	20.747767
1921.504594	-2.984500	3.371800	-10.062000	26.037114	0.000159	20.767713
1922.502839	-2.991700	3.371300	-10.085000	26.052057	0.000158	20.757596
1923.504060	-3.001100	3.369800	-10.112000	26.048705	0.000157	20.760866
1924.502707	-2.990800	3.370100	-10.078000	26.070633	0.000158	20.749233
1925.503620	-2.993300	3.370300	-10.087000	26.036429	0.000159	20.766550
1926.504786	-3.010200	3.370000	-10.144000	26.021174	0.000158	20.746007
1927.503935	-3.004800	3.369800	-10.124000	26.027689	0.000158	20.750181
1928.503557	-3.005700	3.370100	-10.129000	26.051249	0.000159	20.746826
1929.502303	-3.005000	3.369400	-10.124000	26.099733	0.000158	20.767092
1930.504713	-3.009300	3.368400	-10.135000	26.123475	0.000158	20.772930
1931.502767	-2.991800	3.368500	-10.077000	26.138968	0.000160	20.772850
1932.501883	-3.002000	3.367300	-10.107000	26.127318	0.000158	20.781059
1933.504668	-2.993400	3.368700	-10.084000	26.162286	0.000159	20.784427
1934.505351	-2.992200	3.367900	-10.077000	26.169934	0.000156	20.769827
1935.507570	-2.981100	3.368900	-10.043000	26.136744	0.000156	20.743114
1936.504883	-3.023900	3.366700	-10.180000	26.131927	0.000156	20.766724
1937.509788	-3.008900	3.367000	-10.129000	26.070059	0.000154	20.763356
1938.509079	-3.015100	3.364700	-10.144000	26.049939	0.000154	20.774434
1939.506594	-3.013300	3.365100	-10.139000	26.029720	0.000155	20.764551
1940.503397	-3.002000	3.365700	-10.103000	26.030535	0.000154	20.792397
1941.512149	-2.975400	3.365800	-10.013000	25.972879	0.000154	20.782834
1942.507233	-2.968000	3.366200	-9.989500	25.987608	0.000153	20.781510
1943.507468	-2.982800	3.365200	-10.036000	26.014839	0.000153	20.777575
1944.514243	-2.998800	3.364300	-10.088000	26.091835	0.000155	20.772433
1945.508983	-2.998400	3.365200	-10.089000	26.079535	0.000153	20.788050
1946.508675	-3.016900	3.364700	-10.150000	26.065580	0.000154	20.777347
1947.510604	-2.987800	3.364000	-10.050000	26.077004	0.000154	20.791671
1948.506346	-3.021800	3.362300	-10.159000	26.128214	0.000152	20.789072
1949.509862	-3.018000	3.363000	-10.149000	26.117999	0.000151	20.792558
1950.511231	-3.014900	3.364000	-10.140000	26.108659	0.000151	20.781751
1951.506803	-2.989700	3.363300	-10.054000	26.139956	0.000152	20.783801
1952.510914	-2.986100	3.362000	-10.039000	26.156295	0.000151	20.778882
1953.513714	-2.999900	3.361000	-10.081000	26.173282	0.000151	20.797374
1954.507205	-2.971100	3.362500	-9.989000	26.165664	0.000149	20.786874
1955.511240	-2.976200	3.361900	-10.005000	26.159303	0.000151	20.792810
1956.511467	-3.006800	3.360800	-10.104000	26.161933	0.000150	20.788814
1957.510571	-3.002300	3.361300	-10.091000	26.173288	0.000150	20.794060
1958.509354	-3.007800	3.361300	-10.109000	26.192009	0.000152	20.804812
1959.518584	-3.006500	3.359400	-10.100000	26.219382	0.000148	20.785852
1960.509599	-3.020200	3.358900	-10.144000	26.217887	0.000149	20.782927
1961.515355	-3.025500	3.358500	-10.160000	26.179024	0.000148	20.794134
1962.518666	-2.999700	3.358400	-10.073000	26.082257	0.000148	20.800268
1963.514667	-3.007600	3.358500	-10.100000	26.088073	0.000148	20.779559
1964.517462	-2.987400	3.358200	-10.032000	26.163226	0.000146	20.804812
1965.516258	-2.995200	3.358700	-10.059000	26.191139	0.000146	20.802515
1966.514441	-2.993500	3.359100	-10.054000	26.198119	0.000146	20.800046
1967.513104	-2.968700	3.358700	-9.969200	26.243888	0.000147	20.796727
1968.516545	-2.987400	3.357200	-10.027000	26.213843	0.000145	20.813476
1969.514667	-3.014100	3.354700	-10.111000	26.154284	0.000147	20.800095
1970.516068	-2.985900	3.356100	-10.020000	26.153169	0.000145	20.809880
1971.524561	-2.993100	3.356500	-10.046000	26.175224	0.000146	20.825878
1972.518240	-3.005900	3.355800	-10.086000	26.148199	0.000147	20.817214
1973.521998	-3.010400	3.355700	-10.101000	26.156546	0.000146	20.798574
1974.524526	-3.003100	3.355200	-10.076000	26.260432	0.000147	20.807189
1975.515884	-3.014300	3.354000	-10.109000	26.254795	0.000144	20.776867
1976.517780	-3.019000	3.353000	-10.122000	26.234579	0.000143	20.820089
1977.525251	-3.009300	3.352900	-10.089000	26.205172	0.000146	20.806659
1978.530138	-2.998300	3.354300	-10.056000	26.228764	0.000143	20.803340
1979.524075	-2.975500	3.353800	-9.978300	26.226062	0.000142	20.833341
1980.527486	-3.003700	3.353000	-10.070000	26.236742	0.000145	20.830797
1981.521845	-2.997900	3.353100	-10.052000	26.238599	0.000142	20.791413
1982.518394	-2.992000	3.353000	-10.031000	26.224891	0.000142	20.830742
1983.526017	-3.027600	3.352300	-10.148000	26.237037	0.000142	20.819240
1984.521779	-2.999700	3.353400	-10.058000	26.186230	0.000141	20.800901
1985.520112	-3.008300	3.351200	-10.081000	26.242453	0.000141	20.816622
1986.525155	-3.007100	3.351200	-10.076000	26.274017	0.000142	20.824633
1987.520849	-3.001700	3.351100	-10.059000	26.278091	0.000141	20.796486
1988.517765	-3.002000	3.351300	-10.059000	26.286363	0.000141	20.803376
1989.525151	-3.003000	3.350800	-10.062000	26.297962	0.000138	20.833050
1990.521270	-3.007200	3.351700	-10.078000	26.287380	0.000139	20.808666
1991.527202	-3.001300	3.348500	-10.049000	26.235602	0.000139	20.822540
1992.526402	-3.026900	3.348800	-10.136000	26.223836	0.000137	20.825889
1993.518650	-2.994600	3.349900	-10.031000	26.198204	0.000138	20.825735
1994.520753	-2.998000	3.349600	-10.041000	26.194429	0.000138	20.827158
1995.526142	-2.973900	3.349300	-9.958800	26.192272	0.000140	20.829257
1996.522677	-2.973700	3.348400	-9.956900	26.208517	0.000138	20.829934
1997.523859	-2.989100	3.348500	-10.008000	26.214026	0.000138	20.826462
1998.532641	-3.009300	3.348400	-10.075000	26.232777	0.000137	20.824442
1999.524428	-3.007900	3.347500	-10.067000	26.246834	0.000137	20.831930
2000.531099	-2.985900	3.348500	-9.997600	26.236006	0.000137	20.835747
2001.534049	-2.980300	3.347400	-9.975500	26.261908	0.000136	20.839965
2002.524244	-3.000400	3.346800	-10.041000	26.300101	0.000137	20.834251
2003.524424	-3.016200	3.346500	-10.092000	26.350662	0.000136	20.841443
2004.532871	-2.995000	3.347000	-10.024000	26.358230	0.000135	20.845255
2005.522874	-2.968000	3.346500	-9.930700	26.355233	0.000134	20.846510
2006.525684	-2.973500	3.346200	-9.949000	26.337250	0.000134	20.840291
2007.533785	-2.998000	3.345000	-10.027000	26.338843	0.000135	20.824823
2008.526380	-3.005700	3.344600	-10.052000	26.346765	0.000136	20.832785
2009.531560	-3.015500	3.344000	-10.083000	26.372811	0.000135	20.808702
2010.531531	-3.001000	3.342700	-10.031000	26.391492	0.000134	20.821313
2011.527799	-3.008200	3.342600	-10.054000	26.357537	0.000133	20.831283
2012.527438	-3.007500	3.342900	-10.053000	26.418131	0.000134	20.833862
2013.531310	-2.978500	3.343700	-9.958400	26.419173	0.000133	20.844392
2014.529163	-2.973000	3.343600	-9.939100	26.400627	0.000131	20.832390
2015.528800	-2.992500	3.343800	-10.005000	26.381181	0.000132	20.838450
2016.530404	-3.006500	3.342000	-10.047000	26.415822	0.000135	20.822058
2017.530847	-3.018400	3.342800	-10.089000	26.405817	0.000131	20.823856
2018.532697	-3.003000	3.340900	-10.032000	26.380145	0.000131	20.825081
2019.537411	-3.001100	3.341800	-10.028000	26.387546	0.000131	20.820666
2020.531999	-2.984500	3.340700	-9.969300	26.322140	0.000131	20.825580
2021.530075	-2.994600	3.341300	-10.005000	26.371107	0.000133	20.811731
2022.535971	-3.007200	3.340700	-10.045000	26.427763	0.000131	20.808456
2023.534029	-2.975500	3.341400	-9.941200	26.483758	0.000130	20.829176
2024.533507	-2.977900	3.341400	-9.949900	26.413021	0.000127	20.806442
2025.535112	-3.010600	3.339200	-10.053000	26.350251	0.000129	20.807365
2026.529688	-3.001400	3.340300	-10.025000	26.403507	0.000127	20.824854
2027.534925	-3.025100	3.337900	-10.095000	26.324125	0.000128	20.801971
2028.534508	-3.004700	3.338700	-10.031000	26.302771	0.000127	20.811331
2029.536097	-3.005700	3.338400	-10.033000	26.310295	0.000126	20.802297
2030.532856	-2.988100	3.339000	-9.976400	26.356512	0.000126	20.819822
2031.536298	-2.986200	3.338100	-9.967100	26.386872	0.000126	20.792962
2032.534410	-3.002500	3.336100	-10.016000	26.423228	0.000126	20.809588
2033.534487	-3.008700	3.336100	-10.036000	26.477994	0.000128	20.802045
2034.536287	-3.008900	3.335900	-10.036000	26.497910	0.000126	20.799779
2035.534440	-3.010900	3.336000	-10.043000	26.535408	0.000126	20.808073
2036.533524	-3.008600	3.335900	-10.036000	26.505690	0.000126	20.796693
2037.535407	-2.995700	3.335500	-9.991900	26.512643	0.000126	20.810320
2038.534223	-3.018500	3.334600	-10.065000	26.499907	0.000124	20.805104
2039.532719	-2.996500	3.336700	-9.997100	26.515302	0.000124	20.801613
2040.535238	-3.016800	3.335100	-10.060000	26.484896	0.000127	20.809457
2041.537470	-2.996000	3.335100	-9.991400	26.451550	0.000124	20.791587
2042.539128	-2.998700	3.334200	-9.997200	26.439653	0.000125	20.794802
2043.536768	-2.999100	3.334200	-9.998500	26.392183	0.000124	20.798300
2044.537678	-3.007200	3.334400	-10.026000	26.432012	0.000125	20.795183
2045.537756	-3.025900	3.332000	-10.082000	26.461481	0.000124	20.805363
2046.547641	-3.029000	3.331900	-10.092000	26.475854	0.000125	20.795153
2047.540277	-3.007000	3.331000	-10.016000	26.482557	0.000124	20.793355
2048.546570	-3.001800	3.333500	-10.005000	26.409908	0.000123	20.793355
2049.543083	-2.999100	3.331200	-9.989400	26.338798	0.000123	20.792062
2050.540462	-3.011100	3.330300	-10.027000	26.337579	0.000122	20.801742
2051.546813	-2.974200	3.332100	-9.909700	26.392753	0.000123	20.805510
2052.544302	-3.042600	3.330500	-10.131000	26.469544	0.000123	20.772689
2053.541847	-3.013100	3.330800	-10.035000	26.432546	0.000120	20.813738
2054.547746	-3.022600	3.330400	-10.066000	26.433588	0.000123	20.783491
2055.552009	-3.010200	3.330000	-10.023000	26.463681	0.000121	20.775805
2056.544111	-2.997900	3.329600	-9.980800	26.407734	0.000121	20.775523
2057.547246	-2.974900	3.330000	-9.905700	26.462315	0.000121	20.799088
2058.551073	-2.987900	3.329000	-9.946100	26.461323	0.000119	20.783392
2059.549435	-3.017500	3.328200	-10.042000	26.405307	0.000119	20.780196
2060.549617	-2.992200	3.328300	-9.957300	26.394824	0.000120	20.800955
2061.550185	-3.007800	3.328200	-10.009000	26.422707	0.000119	20.769710
2062.545659	-3.003500	3.327200	-9.992300	26.411716	0.000120	20.784266
2063.549462	-3.000100	3.327500	-9.982400	26.432669	0.000117	20.792050
2064.549847	-2.980400	3.328200	-9.918900	26.468442	0.000119	20.774901
2065.546187	-3.016000	3.326500	-10.032000	26.502578	0.000116	20.773651
2066.545987	-3.008000	3.326000	-10.003000	26.536542	0.000118	20.772228
2067.549017	-2.995700	3.327200	-9.965900	26.467603	0.000117	20.775479
2068.548165	-2.992200	3.325400	-9.948600	26.444089	0.000116	20.773657
2069.549075	-3.003700	3.324500	-9.985200	26.430212	0.000116	20.791951
2070.548724	-3.001000	3.324500	-9.976200	26.404162	0.000117	20.782838
2071.551795	-2.980200	3.326100	-9.910900	26.433312	0.000115	20.772308
2072.549285	-3.012700	3.323000	-10.010000	26.495110	0.000117	20.775153
2073.547020	-2.985700	3.324700	-9.926000	26.463357	0.000117	20.790178
2074.547827	-3.034700	3.322800	-10.083000	26.487544	0.000116	20.772763
2075.550124	-2.999000	3.323200	-9.965600	26.476320	0.000115	20.766698
2076.554241	-3.002300	3.322600	-9.974800	26.492236	0.000115	20.777954
2077.550107	-3.008200	3.322000	-9.992300	26.478630	0.000114	20.759062
2078.546903	-2.999400	3.321600	-9.962100	26.474930	0.000116	20.762455
2079.546659	-2.992000	3.322800	-9.940200	26.506835	0.000115	20.769395
2080.547930	-2.982700	3.322200	-9.908100	26.536308	0.000113	20.762510
2081.549561	-2.982400	3.321800	-9.906500	26.529508	0.000112	20.759468
2082.549422	-3.016300	3.320200	-10.014000	26.467191	0.000111	20.784549
2083.548532	-3.020200	3.319000	-10.023000	26.518487	0.000114	20.752183
2084.553225	-2.986600	3.321800	-9.919400	26.498729	0.000115	20.747496
2085.554076	-2.993600	3.320500	-9.939500	26.476362	0.000112	20.777171
2086.549386	-2.976400	3.321300	-9.885100	26.486513	0.000114	20.776469
2087.553532	-3.038200	3.318200	-10.080000	26.452407	0.000111	20.759731
2088.548635	-3.003300	3.317300	-9.962500	26.502343	0.000114	20.770569
2089.551971	-2.991800	3.318100	-9.926400	26.550457	0.000113	20.772940
2090.551789	-3.004500	3.317700	-9.967400	26.574042	0.000111	20.770095
2091.550890	-3.008400	3.317400	-9.978800	26.618808	0.000112	20.767681
2092.552780	-2.998800	3.317500	-9.947700	26.576504	0.000111	20.765932
2093.552398	-3.028800	3.317500	-10.047000	26.519257	0.000112	20.748215
2094.549231	-3.009900	3.317700	-9.985300	26.515134	0.000112	20.763038
2095.553504	-3.002900	3.317600	-9.961800	26.460468	0.000109	20.756454
2096.552949	-3.015000	3.315300	-9.994500	26.441029	0.000109	20.755407
2097.552339	-3.006000	3.316500	-9.968200	26.493348	0.000109	20.743984
2098.553365	-2.963700	3.316500	-9.828200	26.542039	0.000109	20.752149
2099.554944	-2.988500	3.315400	-9.907200	26.601771	0.000107	20.762882
2100.558369	-2.991700	3.316000	-9.919300	26.625287	0.000109	20.759495
2101.553946	-2.966700	3.316800	-9.838100	26.589612	0.000106	20.763461
2102.553561	-2.980800	3.314100	-9.877600	26.651051	0.000110	20.773067
2103.558538	-2.996500	3.315900	-9.935300	26.655743	0.000108	20.757395
2104.549467	-2.992400	3.314000	-9.915300	26.648870	0.000108	20.728199
2105.553594	-2.994500	3.314500	-9.923700	26.586046	0.000108	20.769360
2106.558023	-2.999300	3.313100	-9.935400	26.602555	0.000107	20.752764
2107.555154	-3.004500	3.313500	-9.954300	26.567203	0.000107	20.753737
2108.556887	-2.996100	3.312800	-9.924400	26.566982	0.000109	20.725538
2109.557051	-2.997400	3.312500	-9.928300	26.600993	0.000106	20.757358
2110.557806	-3.011500	3.313200	-9.975700	26.636619	0.000105	20.758558
2111.558460	-3.000200	3.313200	-9.939500	26.649157	0.000104	20.754568
2112.558619	-2.998500	3.311600	-9.929700	26.715059	0.000107	20.757284
2113.556608	-3.012600	3.309600	-9.969600	26.748151	0.000107	20.723223
2114.561244	-2.994700	3.310400	-9.911900	26.754729	0.000104	20.746433
2115.563302	-2.987500	3.311000	-9.891000	26.775008	0.000105	20.730785
2116.559334	-3.005100	3.309700	-9.945400	26.797964	0.000105	20.745331
2117.560390	-3.008800	3.309100	-9.955300	26.780790	0.000104	20.756039
2118.564048	-2.979200	3.310100	-9.860900	26.709656	0.000102	20.754223
2119.562159	-3.005800	3.308800	-9.944600	26.675472	0.000104	20.746882
2120.564234	-2.996300	3.309900	-9.916600	26.666731	0.000105	20.746156
2121.564922	-3.004200	3.308200	-9.937300	26.681573	0.000104	20.744481
2122.562521	-3.005000	3.307700	-9.938600	26.705705	0.000102	20.764476
2123.565555	-3.017000	3.306400	-9.974900	26.661954	0.000101	20.738034
2124.570048	-3.032600	3.306000	-10.025000	26.629146	0.000104	20.752942
2125.568211	-2.975400	3.307400	-9.839800	26.643541	0.000104	20.733273
2126.565306	-2.998700	3.307200	-9.916300	26.655302	0.000103	20.737036
2127.571007	-3.009900	3.306600	-9.951100	26.660618	0.000101	20.756606
2128.566471	-3.013000	3.305800	-9.959600	26.688936	0.000101	20.743348
2129.565807	-2.996000	3.305300	-9.901900	26.715255	0.000102	20.752265
2130.571386	-2.993400	3.305700	-9.893700	26.774329	0.000101	20.744801
2131.568910	-3.010100	3.303800	-9.944200	26.799550	0.000102	20.719898
2132.569293	-3.038000	3.302900	-10.034000	26.828139	9.839671E-5	20.752912
2133.568934	-2.988100	3.304500	-9.873100	26.790486	0.000100	20.745399
2134.565877	-2.998300	3.303600	-9.904300	26.808927	9.879274E-5	20.751612
2135.567378	-2.989700	3.304700	-9.879200	26.796243	9.902376E-5	20.766835
2136.567128	-2.992100	3.302900	-9.881400	26.786762	9.905676E-5	20.755880
2137.569762	-2.968200	3.302900	-9.803300	26.800236	9.773667E-5	20.740503
2138.570435	-2.968200	3.302600	-9.802100	26.806937	9.638357E-5	20.750085
2139.566947	-2.964100	3.302900	-9.788700	26.782739	9.895776E-5	20.734290
2140.570503	-2.965800	3.301800	-9.791500	26.740962	9.783567E-5	20.739229
2141.568781	-3.005500	3.301300	-9.921000	26.727328	9.938679E-5	20.744488
2142.569055	-2.998400	3.299900	-9.893300	26.721772	9.569052E-5	20.736057
2143.566419	-2.983300	3.302600	-9.852300	26.704298	9.635057E-5	20.710901
2144.570300	-2.996700	3.299500	-9.886900	26.683246	9.470045E-5	20.737154
2145.567027	-2.972600	3.301200	-9.812500	26.726783	9.506347E-5	20.732560
2146.570641	-3.007300	3.298400	-9.918900	26.726587	9.555851E-5	20.730940
2147.576134	-2.993000	3.299900	-9.875600	26.707318	9.476645E-5	20.731482
2148.571547	-3.029000	3.299300	-9.991900	26.769816	9.611955E-5	20.749748
2149.573608	-3.027400	3.297900	-9.983400	26.816804	9.324834E-5	20.735350
2150.574902	-3.008400	3.298500	-9.922600	26.843457	9.377638E-5	20.727061
2151.572727	-3.000600	3.297800	-9.894000	26.868818	9.677960E-5	20.721267
2152.571839	-2.996400	3.297900	-9.881300	26.860973	9.318233E-5	20.724284
2153.575082	-2.991700	3.297900	-9.865200	26.839153	9.222526E-5	20.726052
2154.572902	-3.013300	3.296700	-9.933100	26.821159	9.394139E-5	20.733565
2155.572271	-3.000500	3.295000	-9.885900	26.834639	9.314933E-5	20.727677
2156.577394	-2.974400	3.297000	-9.805600	26.880901	9.212626E-5	20.731046
2157.579044	-3.004000	3.295200	-9.897600	26.882261	9.196124E-5	20.745216
2158.577958	-2.997800	3.295500	-9.878600	26.903107	9.199425E-5	20.741521
2159.577613	-2.990700	3.296700	-9.858700	26.892237	9.143321E-5	20.728220
2160.577571	-2.996100	3.293900	-9.868500	26.852253	9.219226E-5	20.726896
2161.575191	-2.979900	3.294100	-9.815900	26.882506	9.143321E-5	20.729341
2162.575017	-2.989200	3.293100	-9.842200	26.901766	9.212626E-5	20.732112
2163.577983	-3.010500	3.293600	-9.914100	26.859032	8.928805E-5	20.735135
2164.574247	-2.981500	3.294400	-9.821700	26.756000	8.955207E-5	20.717837
2165.573327	-2.990700	3.291600	-9.843200	26.787279	9.173023E-5	20.730320
2166.576991	-2.999500	3.292300	-9.873500	26.786752	8.849599E-5	20.715091
2167.578290	-2.981100	3.292000	-9.813000	26.810362	8.955207E-5	20.723182
2168.579035	-2.990100	3.292100	-9.842700	26.847347	8.902403E-5	20.731446
2169.578034	-2.988700	3.290200	-9.832700	26.850274	9.064115E-5	20.719216
2170.575872	-3.015800	3.290000	-9.920600	26.924406	8.902403E-5	20.727850
2171.578094	-3.001600	3.290700	-9.876500	26.932103	8.734091E-5	20.730849
2172.580851	-3.011800	3.290100	-9.907500	26.974736	9.024512E-5	20.726304
2173.581205	-3.009900	3.288500	-9.896300	26.990473	8.839698E-5	20.716050
2174.584079	-2.991000	3.289200	-9.837100	26.918680	8.651585E-5	20.749594
2175.582199	-2.968300	3.289800	-9.764200	26.943622	8.796795E-5	20.698807
2176.582073	-2.974200	3.290000	-9.784100	26.949010	8.783594E-5	20.731729
2177.581972	-2.987400	3.289900	-9.827500	26.971049	8.532776E-5	20.708371
2178.581524	-3.014100	3.286800	-9.905600	26.905758	8.661485E-5	20.728065
2179.582159	-2.996800	3.287800	-9.851600	26.864904	8.704389E-5	20.726815
2180.581707	-2.994200	3.288200	-9.843700	26.858804	8.516275E-5	20.722577
2181.582087	-2.995600	3.286800	-9.844800	26.834607	8.608682E-5	20.722429
2182.581212	-2.990900	3.287200	-9.830400	26.841754	8.486573E-5	20.722503
2183.581865	-2.987700	3.286700	-9.818900	26.842281	8.509674E-5	20.700746
2184.583700	-3.017200	3.285300	-9.911200	26.810709	8.575679E-5	20.720686
2185.584168	-3.011100	3.284900	-9.890300	26.829775	8.470071E-5	20.715673
2186.582075	-3.011500	3.283900	-9.889200	26.843780	8.387565E-5	20.720273
2187.590410	-2.992800	3.285000	-9.829600	26.891304	8.433769E-5	20.723488
2188.585260	-3.005900	3.283700	-9.869600	26.945340	8.476672E-5	20.721400
2189.589006	-2.999000	3.284200	-9.848500	26.961500	8.212653E-5	20.715839
2190.587296	-2.990600	3.284600	-9.821200	26.989491	8.295159E-5	20.718856
2191.587839	-3.012400	3.282500	-9.887200	26.971678	8.272057E-5	20.703313
2192.588087	-3.018000	3.283200	-9.907100	26.995081	8.268757E-5	20.705037
2193.589591	-3.006500	3.282700	-9.867800	26.977911	8.077343E-5	20.726652
2194.587071	-3.024300	3.281000	-9.922100	27.013451	8.196151E-5	20.694112
2195.584094	-3.009800	3.281800	-9.877200	27.045744	8.169749E-5	20.697664
2196.588951	-3.006100	3.280900	-9.861900	27.039695	8.107045E-5	20.711021
2197.588378	-2.992400	3.281900	-9.819500	27.038721	8.140047E-5	20.714785
2198.588517	-2.996400	3.280200	-9.828200	27.075625	7.991536E-5	20.718707
2199.589153	-2.996000	3.280700	-9.828600	27.029322	7.780321E-5	20.690157
2200.588319	-3.026900	3.279000	-9.923700	27.010866	7.975035E-5	20.720437
2201.588494	-2.991800	3.280400	-9.813500	26.987787	7.833125E-5	20.713349
2202.589839	-3.023500	3.278000	-9.909600	26.966673	7.777021E-5	20.703495
2203.590821	-3.015000	3.278500	-9.883600	26.960047	7.899130E-5	20.684503
2204.585955	-3.000100	3.278800	-9.835900	27.002587	7.951934E-5	20.694091
2205.588633	-3.000000	3.278500	-9.835000	27.052693	7.786921E-5	20.715085
2206.589311	-2.996600	3.279200	-9.825700	27.082701	8.083943E-5	20.699744
2207.589782	-2.995400	3.278000	-9.817000	27.091236	7.915631E-5	20.698371
2208.592481	-2.995200	3.277500	-9.815700	27.102650	7.532803E-5	20.719334
2209.593129	-3.005600	3.276800	-9.847300	27.125683	7.819924E-5	20.690340
2210.590771	-2.970800	3.277600	-9.735800	27.118140	7.783621E-5	20.687495
2211.595755	-2.994000	3.276200	-9.808100	27.104076	7.796822E-5	20.694688
2212.591594	-3.023700	3.274100	-9.899100	27.054125	7.635110E-5	20.680486
2213.588853	-3.001700	3.274400	-9.827900	27.013534	7.598808E-5	20.690401
2214.592250	-3.006200	3.274600	-9.843200	26.993210	7.664813E-5	20.679919
2215.592830	-2.987000	3.274000	-9.778200	27.033563	7.678014E-5	20.684464
2216.591791	-3.001600	3.272400	-9.821700	27.011850	7.648311E-5	20.668317
2217.592964	-3.011000	3.273000	-9.853800	27.041143	7.727517E-5	20.693036
2218.592885	-2.981400	3.272900	-9.756100	27.054154	7.536103E-5	20.682412
2219.594828	-3.017500	3.270800	-9.867900	27.081120	7.456897E-5	20.689144
2220.590873	-3.001800	3.271400	-9.819200	27.097008	7.519602E-5	20.682363
2221.594181	-3.002500	3.271500	-9.821300	27.131798	7.549304E-5	20.696016
2222.591994	-2.999600	3.272200	-9.814700	27.111501	7.588907E-5	20.678446
2223.595291	-3.008300	3.270700	-9.838400	27.080494	7.453597E-5	20.664330
2224.593330	-2.998100	3.269700	-9.801100	27.133695	7.552604E-5	20.682750
2225.593819	-2.990300	3.270900	-9.780100	27.124444	7.400793E-5	20.675342
2226.590892	-2.987400	3.271000	-9.771000	27.143326	7.229181E-5	20.687221
2227.597259	-3.004600	3.269000	-9.820900	27.110870	7.262183E-5	20.660266
2228.597023	-3.029100	3.269100	-9.901100	27.131993	7.357890E-5	20.686254
2229.592535	-2.994200	3.268200	-9.784900	27.108316	7.318287E-5	20.672398
2230.596333	-2.972200	3.270200	-9.718700	27.076808	7.311687E-5	20.664890
2231.597691	-3.023700	3.266400	-9.874900	27.020285	7.377692E-5	20.678223
2232.598036	-3.006800	3.266900	-9.822100	27.006544	7.281985E-5	20.673887
2233.597654	-3.001000	3.266700	-9.803200	27.061390	7.275384E-5	20.668351
2234.598409	-3.015700	3.265800	-9.847500	27.068799	7.275384E-5	20.689081
2235.597512	-2.992100	3.266500	-9.773700	27.087988	7.440396E-5	20.689887
2236.597234	-2.965000	3.265700	-9.682200	27.115700	7.305086E-5	20.670340
2237.599306	-3.010600	3.264500	-9.827200	27.177562	7.149975E-5	20.685619
2238.595643	-3.023700	3.264200	-9.868600	27.215899	7.146675E-5	20.677712
2239.599818	-2.993100	3.264500	-9.770100	27.174641	7.130173E-5	20.680310
2240.598423	-3.021700	3.263800	-9.861400	27.194214	7.440396E-5	20.656372
2241.599724	-2.994300	3.264400	-9.773000	27.209501	7.361190E-5	20.661792
2242.599679	-3.002600	3.263200	-9.797400	27.182925	7.027866E-5	20.653077
2243.601963	-3.011600	3.263900	-9.828800	27.158209	7.093871E-5	20.658091
2244.600368	-3.015700	3.263000	-9.838900	27.083273	7.057568E-5	20.664754
2245.601370	-2.997000	3.262500	-9.777500	27.015686	7.295185E-5	20.643722
2246.602238	-2.990200	3.261200	-9.750900	27.001339	6.889256E-5	20.675291
2247.602227	-3.027600	3.260500	-9.870200	27.081516	7.054268E-5	20.671522
2248.602514	-3.003500	3.261400	-9.794500	27.116820	6.852953E-5	20.671467
2249.602119	-3.002100	3.258800	-9.782100	27.129402	6.849653E-5	20.661835
2250.605406	-3.001700	3.259700	-9.783000	27.170992	7.001464E-5	20.648187
2251.605378	-2.994700	3.258700	-9.758500	27.168935	6.852953E-5	20.666509
2252.605853	-3.000900	3.259500	-9.780500	27.141714	6.958561E-5	20.658097
2253.606322	-3.009500	3.257600	-9.802600	27.103723	6.849653E-5	20.671097
2254.607054	-2.993300	3.258500	-9.753100	27.074615	6.608735E-5	20.678334
2255.606523	-3.009200	3.257000	-9.800700	27.098586	6.744045E-5	20.652653
2256.604548	-2.979900	3.257100	-9.704600	27.142204	6.704442E-5	20.653847
2257.608017	-3.014100	3.257000	-9.815800	27.129873	6.813350E-5	20.664206
2258.605484	-2.996700	3.256100	-9.756200	27.099413	6.562532E-5	20.671978
2259.608161	-2.996500	3.256700	-9.758200	27.049284	6.786948E-5	20.675143
2260.608668	-3.018400	3.256400	-9.828500	27.103754	6.565832E-5	20.662118
2261.608969	-3.013600	3.254900	-9.808500	27.139853	6.724244E-5	20.657647
2262.609723	-2.993500	3.255400	-9.744500	27.183824	6.625236E-5	20.665838
2263.608484	-3.018700	3.254000	-9.822000	27.222131	6.585634E-5	20.671651
2264.610529	-2.991500	3.254100	-9.733100	27.151914	6.608735E-5	20.648914
2265.605004	-3.014700	3.253700	-9.807800	27.168818	6.506428E-5	20.661176
2266.605923	-3.008700	3.252900	-9.786400	27.189182	6.605435E-5	20.660320
2267.607591	-3.022700	3.254300	-9.835800	27.241979	6.734144E-5	20.650361
2268.609050	-3.010000	3.251700	-9.786900	27.232532	6.631837E-5	20.675001
2269.608856	-3.014500	3.250900	-9.798700	27.242928	6.549331E-5	20.654635
2270.605633	-3.020700	3.249800	-9.816500	27.258606	6.318314E-5	20.673727
2271.608305	-2.995000	3.252100	-9.739300	27.211001	6.466825E-5	20.636270
2272.606956	-2.999700	3.250900	-9.750700	27.207101	6.387619E-5	20.663645
2273.609564	-2.985000	3.252100	-9.706800	27.149612	6.377718E-5	20.659876
2274.605734	-2.971700	3.250200	-9.657800	27.178302	6.265510E-5	20.660282
2275.605848	-2.990900	3.249600	-9.718300	27.208821	6.397520E-5	20.672014
2276.606281	-2.986100	3.251600	-9.709200	27.201431	6.183004E-5	20.654148
2277.610017	-3.016700	3.247900	-9.798100	27.168304	6.222607E-5	20.648803
2278.607014	-2.993800	3.247700	-9.721900	27.096528	6.229207E-5	20.644892
2279.607906	-3.004500	3.248400	-9.758900	27.084245	6.074096E-5	20.650558
2280.610244	-3.013600	3.247900	-9.787400	27.037771	6.519629E-5	20.647915
2281.609920	-3.007200	3.246700	-9.762600	27.091917	6.513028E-5	20.667284
2282.610402	-2.991300	3.246300	-9.710100	27.117027	6.143401E-5	20.642748
2283.606874	-2.995700	3.245900	-9.722900	27.161868	6.249009E-5	20.640907
2284.609487	-2.991700	3.247000	-9.713200	27.252324	6.074096E-5	20.633738
2285.608794	-2.998800	3.246000	-9.733700	27.296743	5.975089E-5	20.662301
2286.612737	-2.990400	3.244100	-9.700300	27.293646	6.060895E-5	20.658711
2287.606088	-2.989100	3.244600	-9.697500	27.234080	5.958588E-5	20.655693
2288.610726	-2.980000	3.243600	-9.665200	27.264769	5.975089E-5	20.647207
2289.612317	-2.992600	3.243400	-9.704900	27.320911	6.090597E-5	20.654369
2290.610714	-3.024200	3.242800	-9.806300	27.325086	6.047694E-5	20.673269
2291.614833	-2.988900	3.243900	-9.694900	27.285816	5.922285E-5	20.644669
2292.610166	-2.998000	3.241300	-9.716600	27.212903	5.988290E-5	20.646720
2293.614435	-2.992000	3.242700	-9.701800	27.217862	5.922285E-5	20.642698
2294.623122	-3.003000	3.241000	-9.731800	27.248337	5.635164E-5	20.656284
2295.615982	-3.002400	3.242600	-9.733900	27.286636	5.592261E-5	20.672998
2296.612885	-2.999800	3.242500	-9.725400	27.269795	5.829878E-5	20.653211
2297.616665	-3.015500	3.239900	-9.769700	27.265601	5.912384E-5	20.643776
2298.619569	-3.032600	3.239900	-9.824600	27.286201	5.585660E-5	20.656438
2299.614519	-3.013000	3.240200	-9.762000	27.307884	5.631864E-5	20.685364
2300.617073	-2.969800	3.239800	-9.621200	27.265166	5.704469E-5	20.661832
2301.621845	-2.991900	3.241100	-9.695900	27.244180	5.526256E-5	20.645937
2302.620306	-2.991600	3.239300	-9.689400	27.227161	5.658266E-5	20.644939
2303.617727	-3.013300	3.237600	-9.755300	27.216282	5.529556E-5	20.648696
2304.619103	-2.986700	3.238400	-9.671500	27.235830	5.631864E-5	20.669783
2305.623908	-3.001700	3.237200	-9.716500	27.290284	5.291939E-5	20.674771
2306.620990	-2.990000	3.239400	-9.685400	27.376051	5.635164E-5	20.661000
2307.618371	-3.018800	3.234900	-9.764700	27.337426	5.466852E-5	20.661499
2308.617443	-2.989900	3.235500	-9.672500	27.309297	5.473452E-5	20.663076
2309.618259	-3.003700	3.235500	-9.717300	27.295481	5.499854E-5	20.664825
2310.617895	-3.018900	3.234600	-9.763800	27.279160	5.549358E-5	20.669271
2311.624644	-3.023800	3.233100	-9.775700	27.283500	5.737471E-5	20.694976
2312.618681	-3.020900	3.234100	-9.769700	27.292462	5.526256E-5	20.679334
2313.619878	-3.008400	3.234600	-9.730500	27.255150	5.473452E-5	20.662189
2314.623879	-2.980900	3.233900	-9.639200	27.307669	5.569159E-5	20.670447
2315.619840	-2.999700	3.232200	-9.694800	27.345353	5.615362E-5	20.683226
2316.620986	-3.010200	3.230600	-9.723900	27.400260	5.298539E-5	20.652636
2317.620570	-2.997300	3.231900	-9.686000	27.362774	5.588961E-5	20.665662
2318.619168	-2.991500	3.232000	-9.667900	27.384155	5.357944E-5	20.675319
2319.621926	-3.042600	3.231600	-9.831500	27.326431	5.423948E-5	20.681261
2320.624471	-3.022900	3.231000	-9.766000	27.394476	5.186331E-5	20.661517
2321.621431	-3.011800	3.228200	-9.722000	27.399917	4.994917E-5	20.657508
2322.622546	-2.991500	3.230700	-9.663500	27.391513	5.153329E-5	20.662330
2323.626084	-2.993300	3.228500	-9.662900	27.414871	5.433849E-5	20.668285
2324.625855	-3.004500	3.227500	-9.695800	27.351364	5.064222E-5	20.675996
2325.623310	-3.001300	3.226700	-9.683300	27.309493	5.097225E-5	20.674179
2326.623988	-3.003600	3.226700	-9.691100	27.326119	5.136827E-5	20.672411
2327.623477	-3.014000	3.227000	-9.725600	27.314010	4.991617E-5	20.652168
2328.623992	-2.986600	3.226900	-9.636600	27.295431	4.991617E-5	20.667620
2329.629146	-3.007100	3.226000	-9.699600	27.315357	5.004818E-5	20.677708
2330.624344	-3.009900	3.227300	-9.712500	27.332252	5.222634E-5	20.687592
2331.621490	-2.990100	3.226900	-9.648100	27.358844	5.278738E-5	20.684944
2332.623326	-3.002000	3.225200	-9.680900	27.405756	5.176430E-5	20.689464
2333.621454	-2.999800	3.225000	-9.673500	27.424829	5.080723E-5	20.682099
2334.625495	-3.025400	3.223000	-9.749700	27.396054	4.879409E-5	20.686342
2335.625747	-2.965000	3.225100	-9.562100	27.368944	5.107125E-5	20.700795
2336.627843	-2.983500	3.224400	-9.618800	27.342475	5.354643E-5	20.673692
2337.623217	-2.980700	3.224900	-9.611600	27.332081	5.031220E-5	20.672719
2338.628397	-3.018100	3.222600	-9.725300	27.361035	5.037820E-5	20.692839
2339.628290	-2.997000	3.222900	-9.657500	27.361359	4.988317E-5	20.685578
2340.625385	-2.995400	3.221800	-9.649800	27.372592	4.859607E-5	20.704466
2341.626938	-2.982800	3.221100	-9.607100	27.426922	4.945413E-5	20.684679
2342.634048	-3.001800	3.219700	-9.664000	27.421120	4.968515E-5	20.697808
2343.627158	-3.004800	3.220500	-9.675900	27.406032	5.011418E-5	20.711554
2344.634367	-2.995900	3.219700	-9.645100	27.444881	5.051021E-5	20.686625
2345.629464	-3.003100	3.218500	-9.665100	27.446919	5.014718E-5	20.667336
2346.629882	-3.016700	3.217700	-9.706500	27.517019	4.952014E-5	20.676697
2347.632939	-3.017200	3.217400	-9.706000	27.509570	4.720997E-5	20.691964
2348.626070	-3.004700	3.217800	-9.667900	27.478196	4.833205E-5	20.688374
2349.629190	-3.012000	3.217100	-9.688700	27.463115	4.895910E-5	20.676993
2350.628169	-3.008700	3.217800	-9.680700	27.490272	4.661593E-5	20.688195
2351.626129	-2.991700	3.217400	-9.624300	27.542112	4.968515E-5	20.693411
2352.630464	-3.022500	3.214900	-9.716200	27.594592	4.813404E-5	20.692161
2353.632534	-3.007200	3.215500	-9.668500	27.592983	4.744099E-5	20.709509
2354.627398	-2.989600	3.215100	-9.610600	27.533697	4.839806E-5	20.689686
2355.632617	-3.009100	3.213700	-9.669900	27.423495	4.602188E-5	20.703517
2356.634494	-3.009000	3.213900	-9.669100	27.393520	4.717697E-5	20.687586
2357.633407	-3.016200	3.214900	-9.695900	27.444918	4.770501E-5	20.703259
2358.629383	-3.006300	3.212400	-9.656100	27.490554	4.843106E-5	20.691798
2359.636915	-3.007000	3.212400	-9.658400	27.485272	4.787002E-5	20.722048
2360.628762	-3.005000	3.212700	-9.653400	27.473392	4.513082E-5	20.713888
2361.632196	-2.996900	3.212400	-9.626500	27.474035	4.998217E-5	20.710267
2362.633806	-2.985500	3.212200	-9.588700	27.468630	4.720997E-5	20.688232
2363.632110	-2.998400	3.210100	-9.624600	27.498346	4.704496E-5	20.699164
2364.633097	-2.969300	3.210300	-9.531400	27.548392	4.780401E-5	20.715853
2365.636127	-3.020900	3.208900	-9.692700	27.555742	4.631890E-5	20.722774
2366.633335	-3.014200	3.208600	-9.670600	27.533710	4.668193E-5	20.709140
2367.636687	-2.964900	3.210500	-9.517800	27.531922	4.546084E-5	20.706394
2368.636134	-2.990200	3.207700	-9.590900	27.512974	4.440476E-5	20.713882
2369.641467	-2.979100	3.208000	-9.556500	27.540833	4.447077E-5	20.696867
2370.635338	-3.009800	3.206200	-9.649000	27.529297	4.552685E-5	20.711339
2371.639266	-3.005300	3.206000	-9.634200	27.559335	4.522982E-5	20.715483
2372.638173	-2.991800	3.206000	-9.590300	27.495420	4.565886E-5	20.728465
2373.637234	-3.004800	3.206300	-9.633100	27.474035	4.371171E-5	20.703628
2374.641068	-2.991900	3.205500	-9.589400	27.463666	4.602188E-5	20.685609
2375.638154	-3.016400	3.204300	-9.664300	27.459425	4.664893E-5	20.726864
2376.639300	-2.990500	3.204500	-9.581700	27.466151	4.404174E-5	20.715138
2377.640298	-2.974200	3.204200	-9.528900	27.442813	4.516382E-5	20.724850
2378.635852	-3.000000	3.202000	-9.604200	27.461763	4.526283E-5	20.700765
2379.637338	-2.980100	3.201600	-9.539700	27.504472	4.305166E-5	20.709122
2380.641437	-3.003600	3.203700	-9.620800	27.572413	4.255663E-5	20.725798
2381.639206	-2.993200	3.202300	-9.584500	27.586924	4.206159E-5	20.707680
2382.640106	-2.996400	3.200800	-9.590100	27.565002	4.324968E-5	20.716918
2383.647730	-3.002000	3.200400	-9.607100	27.568668	4.278764E-5	20.711123
2384.643372	-3.018300	3.200600	-9.659500	27.590198	4.272164E-5	20.725201
2385.639590	-3.004700	3.199200	-9.611800	27.558123	4.579087E-5	20.721851
2386.644693	-3.012500	3.199100	-9.636500	27.561275	4.258963E-5	20.713642
2387.650225	-2.991700	3.198800	-9.568700	27.597095	4.242462E-5	20.728347
2388.643103	-2.997400	3.198300	-9.585200	27.614923	4.166556E-5	20.719258
2389.645389	-3.060600	3.195600	-9.779100	27.702317	4.196258E-5	20.716635
2390.641025	-3.017300	3.197800	-9.648300	27.669731	4.100551E-5	20.725570
2391.641562	-3.011700	3.198900	-9.632800	27.647431	3.928939E-5	20.744384
2392.646457	-3.012700	3.195200	-9.625400	27.627621	3.919038E-5	20.741520
2393.643344	-3.004400	3.195000	-9.598000	27.623546	3.961941E-5	20.735048
2394.640192	-2.990200	3.194500	-9.551700	27.625804	3.823331E-5	20.743485
2395.645506	-3.001700	3.194400	-9.587700	27.626422	3.938840E-5	20.721346
2396.639950	-2.982000	3.195300	-9.527400	27.603350	4.173157E-5	20.734642
2397.649608	-3.014800	3.192100	-9.622600	27.570309	4.196258E-5	20.729370
2398.644719	-3.022900	3.193300	-9.652000	27.609648	4.041147E-5	20.740030
2399.644508	-2.983900	3.192300	-9.524300	27.649426	3.994944E-5	20.734537
2400.640671	-2.989100	3.191200	-9.538500	27.661329	4.183057E-5	20.727073
2401.646457	-3.001500	3.191700	-9.579100	27.630474	3.909137E-5	20.715465
2402.641985	-2.978300	3.190400	-9.500700	27.605144	4.126953E-5	20.719850
2403.650393	-2.993300	3.189600	-9.546800	27.618369	4.070849E-5	20.731735
2404.649399	-2.993700	3.189000	-9.545800	27.635076	3.803530E-5	20.730529
2405.646836	-2.989300	3.190000	-9.534900	27.626643	3.945440E-5	20.746700
2406.644891	-2.972200	3.188100	-9.474800	27.641019	4.047748E-5	20.742673
2407.649693	-2.984400	3.188800	-9.515300	27.657860	3.862934E-5	20.739230
2408.646081	-3.024600	3.186100	-9.636000	27.720572	3.724324E-5	20.747335
2409.647017	-2.998200	3.186500	-9.552900	27.705121	3.889336E-5	20.742217
2410.653146	-2.986400	3.186200	-9.513700	27.695874	3.526309E-5	20.758992
2411.645661	-2.998200	3.185700	-9.550800	27.668539	3.740825E-5	20.745235
2412.644419	-3.014200	3.183300	-9.594500	27.694896	3.760626E-5	20.757533
2413.645286	-3.008600	3.184700	-9.580300	27.703034	3.582413E-5	20.745808
2414.646005	-3.014400	3.182400	-9.591400	27.660596	3.615416E-5	20.750519
2415.645120	-3.034200	3.182900	-9.657100	27.717605	3.556011E-5	20.763315
2416.651848	-3.016300	3.181400	-9.595400	27.718345	3.499907E-5	20.726601
2417.649485	-2.999100	3.182600	-9.544000	27.720603	3.631917E-5	20.755427
2418.649115	-3.016000	3.179600	-9.589100	27.692130	3.440503E-5	20.753801
2419.651345	-3.011700	3.181100	-9.580100	27.628713	3.615416E-5	20.725548
2420.645005	-3.012200	3.179100	-9.575600	27.695918	3.714423E-5	20.766148
2421.647123	-3.012100	3.179500	-9.575500	27.723620	3.678120E-5	20.766050
2422.652547	-3.016800	3.179200	-9.590400	27.733686	3.565912E-5	20.754842
2423.645746	-3.002300	3.178100	-9.541300	27.702711	3.559312E-5	20.757811
2424.643643	-3.000200	3.177900	-9.533700	27.710996	3.410801E-5	20.757139
2425.651157	-2.995200	3.177600	-9.516800	27.697950	3.572513E-5	20.764400
2426.649711	-3.006500	3.176100	-9.548600	27.740626	3.394300E-5	20.764671
2427.653629	-2.996900	3.175600	-9.515200	27.738172	3.351396E-5	20.740389
2428.652831	-2.994400	3.174900	-9.505700	27.750569	3.529610E-5	20.748598
2429.649555	-3.020300	3.173900	-9.585500	27.784744	3.400900E-5	20.755489
2430.654718	-3.003100	3.174200	-9.532000	27.834507	3.384399E-5	20.758156
2431.652955	-2.996200	3.173900	-9.509000	27.824265	3.371198E-5	20.782935
2432.651438	-2.982800	3.173500	-9.464000	27.796993	3.090677E-5	20.748851
2433.651711	-3.011100	3.170600	-9.546400	27.724881	3.334895E-5	20.753568
2434.654561	-3.018100	3.171400	-9.570000	27.730859	3.252389E-5	20.758636
2435.652578	-2.987900	3.171100	-9.474000	27.710917	3.239188E-5	20.758482
2436.657117	-2.969100	3.170800	-9.413100	27.771723	3.285392E-5	20.765619
2437.657410	-3.009100	3.169400	-9.536600	27.778545	3.282091E-5	20.780546
2438.655891	-3.003500	3.168600	-9.515700	27.836324	3.308493E-5	20.755717
2439.655243	-3.008600	3.167400	-9.528700	27.836545	3.100578E-5	20.769689
2440.658006	-2.992900	3.168300	-9.481100	27.885394	3.100578E-5	20.776180
2441.652223	-3.005900	3.167300	-9.519800	27.929953	3.225987E-5	20.765077
2442.652529	-3.007000	3.165800	-9.518600	27.904336	3.133580E-5	20.779598
2443.661098	-3.006200	3.164400	-9.511800	27.890748	3.067576E-5	20.771611
2444.653112	-2.992700	3.166000	-9.474100	27.928111	3.087377E-5	20.784087
2445.657506	-3.004700	3.163200	-9.503300	27.957814	2.882762E-5	20.767990
2446.660035	-3.016500	3.162400	-9.538200	27.931360	3.008171E-5	20.766019
2447.657597	-2.976700	3.162400	-9.412200	27.970955	2.975169E-5	20.792123
2448.657470	-2.987000	3.162200	-9.444000	27.991039	2.952067E-5	20.777726
2449.661723	-3.005200	3.160600	-9.497200	28.015981	2.985070E-5	20.781494
2450.655943	-3.002400	3.160500	-9.488200	28.013277	2.816757E-5	20.787781
2451.653610	-3.009100	3.159900	-9.507400	27.995157	2.813457E-5	20.774283
2452.655055	-2.985700	3.160000	-9.434200	27.991064	2.915764E-5	20.787707
2453.658545	-2.997800	3.156800	-9.462400	27.982236	2.826658E-5	20.778348
2454.659531	-3.012500	3.155500	-9.505500	27.910057	2.981769E-5	20.785355
2455.660975	-3.011400	3.156300	-9.504100	27.889206	2.757353E-5	20.790922
2456.658386	-2.986400	3.155600	-9.423200	27.837750	2.886062E-5	20.797930
2457.660429	-2.989200	3.155300	-9.431100	27.837163	2.658346E-5	20.783588
2458.662267	-2.991900	3.153800	-9.434600	27.853829	2.968568E-5	20.789456
2459.658505	-3.020200	3.153300	-9.522200	27.870141	2.859660E-5	20.772682
2460.658491	-3.002900	3.152900	-9.466400	27.893893	2.965268E-5	20.781888
2461.657719	-3.019100	3.151000	-9.511700	27.933091	2.740852E-5	20.804272
2462.658151	-3.037500	3.149500	-9.565700	27.935055	2.780454E-5	20.797714
2463.663738	-3.005600	3.150600	-9.468700	27.909494	2.750752E-5	20.800910
2464.660096	-3.000300	3.148300	-9.444300	27.886410	2.839859E-5	20.790953
2465.660266	-3.009800	3.148700	-9.476000	27.956333	2.836559E-5	20.793527
2466.662209	-2.998500	3.149000	-9.441300	27.911702	2.589040E-5	20.798391
2467.666539	-3.012700	3.147200	-9.479800	27.889707	2.612142E-5	20.790479
2468.661468	-3.011200	3.145400	-9.470500	27.864218	2.536237E-5	20.786636
2469.661389	-2.984300	3.146100	-9.387900	27.864867	2.631944E-5	20.802462
2470.665366	-2.986100	3.144900	-9.389800	27.897000	2.707849E-5	20.810621
2471.666810	-2.995800	3.144500	-9.419700	27.945449	2.886062E-5	20.809124
2472.660424	-2.988400	3.144300	-9.396100	27.981104	2.608842E-5	20.806131
2473.666100	-3.016200	3.142500	-9.477500	27.948943	2.499934E-5	20.779450
2474.663857	-3.002200	3.141600	-9.430700	27.901540	2.612142E-5	20.808552
2475.666341	-3.006500	3.140500	-9.441300	27.883393	2.585740E-5	20.800719
2476.664346	-2.990600	3.140100	-9.390200	27.873573	2.480132E-5	20.793680
2477.665393	-3.015400	3.138800	-9.464300	27.906991	2.592341E-5	20.815461
2478.665545	-3.025900	3.137500	-9.492700	27.914731	2.615442E-5	20.795749
2479.667487	-3.022500	3.137400	-9.481800	27.886195	2.496634E-5	20.807806
2480.664438	-2.993600	3.137400	-9.390900	27.843666	2.556038E-5	20.812419
2481.664955	-2.976400	3.136000	-9.333500	27.829484	2.565939E-5	20.791033
2482.670989	-3.009000	3.134900	-9.431700	27.844089	2.496634E-5	20.789136
2483.669303	-2.983500	3.134100	-9.348900	27.861795	2.371224E-5	20.806008
2484.669254	-2.996300	3.133600	-9.387900	27.849424	2.351423E-5	20.811101
2485.672547	-3.003900	3.132000	-9.408000	27.811586	2.377825E-5	20.805737
2486.667190	-2.980000	3.130400	-9.327300	27.845838	2.130307E-5	20.814604
2487.670423	-3.015500	3.130800	-9.440100	27.793364	2.252416E-5	20.793089
2488.672317	-2.990800	3.129000	-9.357400	27.820568	2.103905E-5	20.809561
2489.668674	-2.996000	3.129400	-9.374300	27.858191	2.288718E-5	20.812338
2490.676790	-3.002600	3.127800	-9.390000	27.851491	2.193011E-5	20.818871
2491.667925	-2.992300	3.126700	-9.354800	27.838807	2.506534E-5	20.812270
2492.667926	-2.983000	3.126000	-9.324000	27.853908	2.308520E-5	20.812295
2493.670368	-2.990200	3.125400	-9.344900	27.918254	2.156709E-5	20.829167
2494.670723	-3.005200	3.124800	-9.389900	27.937324	2.176510E-5	20.802368
2495.670024	-3.011400	3.123200	-9.403000	27.979794	2.136907E-5	20.824727
2496.669356	-3.028100	3.121700	-9.451900	28.057872	2.315120E-5	20.827929
2497.672421	-2.993300	3.122700	-9.346400	28.099077	2.077503E-5	20.799233
2498.670727	-3.002600	3.121000	-9.370500	28.104215	2.133607E-5	20.820527
2499.671667	-3.024200	3.120300	-9.434900	28.119709	2.239215E-5	20.809098
2500.670959	-2.990700	3.120400	-9.331600	28.151761	2.282118E-5	20.818606
2501.667035	-3.009400	3.118700	-9.384800	28.193360	1.945493E-5	20.828242
2502.672221	-3.006900	3.116900	-9.371200	28.110741	2.090704E-5	20.834683
2503.672888	-3.015900	3.115700	-9.396000	28.129337	1.961994E-5	20.825428
2504.666551	-3.031700	3.114700	-9.440700	28.153908	2.080803E-5	20.815551
2505.670454	-3.016300	3.113600	-9.390700	28.173071	2.001597E-5	20.831524
2506.676162	-2.988200	3.114200	-9.304400	28.147491	1.915791E-5	20.835169
2507.673131	-2.990900	3.113200	-9.310700	28.109120	1.846486E-5	20.832577
2508.673095	-2.995700	3.111400	-9.319400	28.084957	1.876188E-5	20.821530
2509.675401	-3.029800	3.108100	-9.415600	28.145369	1.958694E-5	20.815015
2510.667519	-3.032900	3.107800	-9.425200	28.186992	1.826684E-5	20.818512
2511.679143	-3.009000	3.107200	-9.349000	28.230725	1.810183E-5	20.848789
2512.677495	-3.012300	3.106700	-9.357200	28.259330	2.080803E-5	20.831597
2513.669968	-3.014300	3.106900	-9.364700	28.270431	1.961994E-5	20.813377
2514.679183	-2.990100	3.106100	-9.285900	28.252296	2.001597E-5	20.829731
2515.675135	-2.984600	3.105000	-9.266800	28.255550	1.919091E-5	20.815464
2516.668918	-3.005800	3.103200	-9.326000	28.198148	1.942193E-5	20.825950
2517.677205	-2.978400	3.102900	-9.240800	28.175493	1.585767E-5	20.816418
2518.676209	-2.984000	3.102400	-9.256800	28.158390	1.853086E-5	20.823382
2519.674377	-3.011200	3.099500	-9.332600	28.209825	1.961994E-5	20.832490
2520.673463	-2.986500	3.099300	-9.254200	28.179591	1.757379E-5	20.804897
2521.674138	-3.001700	3.098800	-9.300100	28.122056	1.615469E-5	20.807668
2522.671044	-3.009500	3.097500	-9.320800	28.086339	1.697975E-5	20.821972
2523.677433	-2.994300	3.096300	-9.270500	28.085947	1.757379E-5	20.822526
2524.675903	-2.967600	3.095500	-9.185500	28.117358	1.589067E-5	20.818585
2525.673144	-2.977000	3.095300	-9.213500	28.172685	1.655072E-5	20.819755
2526.681306	-2.988500	3.092700	-9.241700	28.176287	1.816784E-5	20.811528
2527.680387	-3.003100	3.092500	-9.285700	28.154328	1.569265E-5	20.815974
2528.672996	-2.992200	3.092200	-9.250800	28.164176	1.612169E-5	20.829207
2529.675868	-2.978300	3.091300	-9.206100	28.214399	1.592367E-5	20.784939
2530.672183	-2.987500	3.090000	-9.231200	28.235347	1.648471E-5	20.789908
2531.675724	-2.984300	3.088600	-9.216700	28.210588	1.701275E-5	20.797698
2532.683284	-2.997200	3.087700	-9.253700	28.194624	1.562665E-5	20.814342
2533.679887	-2.977200	3.088700	-9.193500	28.197897	1.734278E-5	20.799145
2534.675303	-2.983700	3.085700	-9.205700	28.163007	1.730977E-5	20.786779
2535.677838	-2.969600	3.086300	-9.164200	28.115633	1.496660E-5	20.793141
2536.674912	-3.006500	3.083000	-9.267600	28.166928	1.734278E-5	20.792623
2537.679906	-2.986700	3.081800	-9.203600	28.201884	1.602268E-5	20.818806
2538.679659	-3.011800	3.081300	-9.280000	28.251536	1.394353E-5	20.782500
2539.677209	-2.980600	3.081000	-9.182600	28.289114	1.645171E-5	20.790936
2540.680377	-3.002400	3.078900	-9.243100	28.292936	1.631970E-5	20.787198
2541.682129	-2.994900	3.077100	-9.214300	28.257322	1.635270E-5	20.787851
2542.680878	-3.006000	3.075000	-9.242300	28.196495	1.800282E-5	20.791096
2543.678270	-2.998500	3.075700	-9.220800	28.223720	1.519762E-5	20.791478
2544.681439	-3.004300	3.074600	-9.235400	28.252448	1.773881E-5	20.787684
2545.681794	-2.999200	3.072700	-9.214600	28.260661	1.767280E-5	20.785049
2546.680428	-2.997700	3.072100	-9.208300	28.184385	1.691374E-5	20.782696
2547.681172	-2.984500	3.072100	-9.168100	28.166750	1.767280E-5	20.793392
2548.679383	-2.969400	3.070900	-9.118000	28.230979	1.638571E-5	20.783140
2549.680526	-2.983000	3.068700	-9.153200	28.266380	1.760680E-5	20.778478
2550.682391	-2.997200	3.067600	-9.193200	28.233096	1.562665E-5	20.782425
2551.681993	-2.971000	3.066900	-9.110300	28.177766	1.493360E-5	20.777456
2552.677510	-2.989400	3.065500	-9.161800	28.125811	1.338248E-5	20.784895
2553.681536	-2.988700	3.063700	-9.155600	28.132509	1.394353E-5	20.789267
2554.677870	-2.990500	3.063500	-9.161200	28.120666	1.473558E-5	20.773077
2555.676658	-3.002900	3.061200	-9.190900	28.136735	1.519762E-5	20.779771
2556.681500	-3.023600	3.059500	-9.249700	28.168671	1.552764E-5	20.764505
2557.681390	-3.005900	3.058100	-9.191300	28.146779	1.549464E-5	20.772813
2558.681138	-2.991700	3.058000	-9.146700	28.142320	1.410854E-5	20.774487
2559.684668	-2.991400	3.056500	-9.142000	28.109209	1.460357E-5	20.761543
2560.685387	-3.041900	3.053800	-9.287800	28.179411	1.509861E-5	20.755878
2561.681869	-3.011600	3.055000	-9.199600	28.176794	1.542864E-5	20.757036
2562.683754	-3.014900	3.053800	-9.205500	28.233854	1.440556E-5	20.769912
2563.681100	-2.992200	3.051100	-9.128600	28.324652	1.562665E-5	20.782622
2564.680562	-3.006100	3.050000	-9.166400	28.391471	1.354750E-5	20.746536
2565.684177	-3.012000	3.049700	-9.184700	28.387691	1.532963E-5	20.763594
2566.680422	-3.013000	3.047800	-9.181400	28.363529	1.410854E-5	20.774826
2567.682038	-2.997800	3.047100	-9.134000	28.330719	1.183137E-5	20.761703
2568.685077	-3.008400	3.045800	-9.162200	28.358478	1.301946E-5	20.763101
2569.685111	-3.002400	3.044800	-9.140300	28.348540	1.255742E-5	20.742663
2570.684647	-2.998100	3.043800	-9.124600	28.292532	1.265643E-5	20.769247
2571.686410	-3.038000	3.042100	-9.240500	28.342553	1.242541E-5	20.745169
2572.688621	-2.988700	3.041800	-9.090500	28.385998	1.424055E-5	20.741973
2573.682387	-3.016800	3.037800	-9.163500	28.393617	1.364650E-5	20.742533
2574.688320	-2.993100	3.038300	-9.092700	28.346455	1.417454E-5	20.747675
2575.687996	-2.992000	3.037400	-9.086700	28.356588	1.206239E-5	20.753138
2576.686050	-3.018100	3.035600	-9.160500	28.309705	1.334948E-5	20.752399
2577.686869	-2.983700	3.034700	-9.053800	28.351885	1.288745E-5	20.755041
2578.689818	-2.985100	3.033600	-9.054700	28.310604	1.400953E-5	20.758046
2579.688594	-2.980900	3.031800	-9.036200	28.258600	1.400953E-5	20.767326
2580.688367	-2.994500	3.030800	-9.075100	28.219095	1.311847E-5	20.749837
2581.689560	-3.005800	3.029000	-9.103500	28.229059	1.325048E-5	20.737108
2582.685873	-2.977000	3.028700	-9.016000	28.235310	1.387752E-5	20.749092
2583.689735	-2.983800	3.027400	-9.031700	28.293009	1.295345E-5	20.745545
2584.690086	-2.997000	3.024700	-9.064500	28.376164	1.199638E-5	20.747719
2585.689465	-3.005800	3.023900	-9.088700	28.402436	1.268943E-5	20.740508
2586.691463	-3.008300	3.023100	-9.093900	28.378971	1.245842E-5	20.748649
2587.686995	-3.007700	3.020500	-9.083500	28.333691	1.054428E-5	20.745730
2588.690746	-3.019900	3.020400	-9.119800	28.338657	1.229340E-5	20.753101
2589.687882	-3.020200	3.018800	-9.117000	28.371125	1.239241E-5	20.756870
2590.690593	-3.001900	3.017700	-9.057100	28.340370	1.216140E-5	20.749609
2591.686548	-2.998100	3.016200	-9.042500	28.356130	1.143534E-5	20.741296
2592.691219	-3.011900	3.014800	-9.079300	28.372837	1.107231E-5	20.730618
2593.692103	-3.006200	3.014400	-9.060400	28.418770	1.397653E-5	20.749369
2594.690891	-3.012700	3.012700	-9.076000	28.486964	1.397653E-5	20.735064
2595.691744	-3.021000	3.010500	-9.093800	28.447792	1.193038E-5	20.743981
2596.691550	-3.012700	3.008900	-9.064200	28.429777	1.331648E-5	20.737219
2597.696569	-3.019100	3.006900	-9.076800	28.443059	1.341549E-5	20.742534
2598.690162	-3.030400	3.005800	-9.107600	28.403512	1.483459E-5	20.742540
2599.694809	-2.967800	3.006100	-8.920100	28.443536	1.424055E-5	20.749653
2600.693755	-2.973000	3.005000	-8.933500	28.498528	1.351449E-5	20.747657
2601.693449	-3.018100	3.002300	-9.060400	28.537392	1.404253E-5	20.725630
2602.692415	-3.003400	3.001000	-9.012300	28.602565	1.193038E-5	20.741007
2603.694410	-2.979200	3.001400	-8.941100	28.610862	1.341549E-5	20.735612
2604.694540	-2.962800	3.000700	-8.890300	28.566063	1.387752E-5	20.723684
2605.694167	-2.973300	2.997100	-8.909500	28.504587	1.150135E-5	20.727206
2606.694792	-2.982400	2.995700	-8.933300	28.447248	1.400953E-5	20.756710
2607.693789	-2.990300	2.994700	-8.954200	28.454311	1.308546E-5	20.735846
2608.694426	-3.000200	2.992100	-8.975600	28.438852	1.394353E-5	20.730236
2609.692583	-2.977000	2.991800	-8.905800	28.464603	1.193038E-5	20.752375
2610.693223	-2.984100	2.990000	-8.921400	28.453284	1.344849E-5	20.724854
2611.693519	-2.983000	2.990000	-8.918500	28.429142	1.127033E-5	20.728518
2612.694616	-2.994500	2.986000	-8.940400	28.407463	1.127033E-5	20.730871
2613.694872	-2.966400	2.986100	-8.856900	28.427809	1.384452E-5	20.728124
2614.696017	-2.976000	2.984000	-8.879500	28.455100	1.028026E-5	20.739960
2615.694067	-2.991200	2.983200	-8.921800	28.513956	1.229340E-5	20.747073
2616.691588	-2.989600	2.982600	-8.916200	28.447591	1.140234E-5	20.727656
2617.696314	-2.995600	2.979900	-8.925400	28.446289	1.334948E-5	20.732983
2618.693949	-2.983200	2.979100	-8.886300	28.477958	1.160035E-5	20.731210
2619.694469	-2.986700	2.977800	-8.893100	28.553719	1.288745E-5	20.746340
2620.692577	-2.983300	2.975300	-8.875100	28.554410	1.229340E-5	20.707205
2621.693742	-2.982800	2.975200	-8.873400	28.550619	1.212839E-5	20.725199
2622.694017	-2.992900	2.973500	-8.898700	28.494597	1.130333E-5	20.707187
2623.693145	-3.020700	2.971500	-8.974700	28.500638	1.338248E-5	20.707106
2624.692343	-3.009000	2.969200	-8.932700	28.534495	1.259043E-5	20.728876
2625.692755	-2.989100	2.968100	-8.870900	28.513656	1.262343E-5	20.719743
2626.696358	-3.015800	2.966500	-8.944900	28.467985	1.136934E-5	20.731124
2627.697502	-3.007100	2.965300	-8.916000	28.461051	1.450457E-5	20.711812
2628.698980	-2.984300	2.962800	-8.840800	28.529420	1.219440E-5	20.730878
2629.696328	-3.003400	2.963600	-8.900100	28.477732	1.123733E-5	20.736672
2630.700332	-3.014400	2.959900	-8.921800	28.517380	1.077529E-5	20.714010
2631.701122	-3.004000	2.960800	-8.893100	28.550417	1.153435E-5	20.721203
2632.700825	-2.975300	2.958000	-8.799700	28.551628	1.308546E-5	20.737122
2633.711174	-3.024400	2.955400	-8.937000	28.530423	1.136934E-5	20.720981
2634.697919	-3.051900	2.953000	-9.010900	28.510477	1.272244E-5	20.744992
2635.699289	-3.005100	2.953200	-8.874300	28.538849	9.521201E-6	20.717613
2636.703674	-2.991300	2.951400	-8.827700	28.495679	1.130333E-5	20.711596
2637.699491	-2.996900	2.949600	-8.838700	28.507976	1.186437E-5	20.717342
2638.704834	-2.999500	2.948300	-8.842900	28.494499	1.051127E-5	20.721788
2639.705243	-2.994000	2.947200	-8.823200	28.604951	1.176537E-5	20.713537
2640.703624	-3.011000	2.947100	-8.872000	28.662483	1.199638E-5	20.691822
2641.701916	-3.007100	2.945100	-8.855900	28.598984	1.001624E-5	20.719381
2642.704337	-3.003900	2.942100	-8.837400	28.596477	1.037926E-5	20.715907
2643.701355	-3.008100	2.941000	-8.846100	28.622945	1.239241E-5	20.712219
2644.705445	-2.976700	2.940100	-8.750100	28.601417	1.206239E-5	20.736532
2645.714239	-3.013400	2.937100	-8.850200	28.500119	1.034626E-5	20.721758
2646.710058	-2.976800	2.936300	-8.739900	28.495289	9.752218E-6	20.713574
2647.705133	-3.016600	2.934100	-8.849400	28.527207	8.993162E-6	20.716795
2648.705042	-3.015000	2.933700	-8.843800	28.495546	9.917230E-6	20.701504
2649.703955	-2.982500	2.932100	-8.743200	28.515474	1.037926E-5	20.720625
2650.702128	-3.027000	2.929900	-8.867400	28.509806	1.193038E-5	20.722030
2651.704630	-3.002000	2.927200	-8.786000	28.526480	1.153435E-5	20.695672
2652.700580	-3.014300	2.926200	-8.819500	28.518232	1.153435E-5	20.723877
2653.702430	-3.014400	2.924900	-8.816300	28.450907	1.004924E-5	20.714400
2654.705819	-3.015600	2.922300	-8.812100	28.457824	1.120432E-5	20.698129
2655.702891	-3.003600	2.921300	-8.773400	28.538545	1.110532E-5	20.704029
2656.705648	-2.996900	2.920400	-8.751600	28.570578	1.123733E-5	20.712583
2657.706167	-3.017000	2.917000	-8.799600	28.673734	9.983235E-6	20.698413
2658.702083	-3.016300	2.916100	-8.794300	28.667620	9.191176E-6	20.704584
2659.705600	-2.993100	2.914600	-8.722900	28.661922	9.323186E-6	20.723028
2660.707562	-3.030700	2.913200	-8.827500	28.709719	1.206239E-5	20.710477
2661.707557	-3.000800	2.910900	-8.733800	28.749120	9.224179E-6	20.710336
2662.705095	-3.015300	2.910000	-8.774100	28.727540	9.224179E-6	20.698081
2663.708775	-2.998400	2.908400	-8.719700	28.717288	1.008224E-5	20.694392
2664.703222	-3.026500	2.905700	-8.793500	28.663323	8.036092E-6	20.691719
2665.707623	-3.023200	2.902800	-8.774700	28.623258	9.587206E-6	20.685506
2666.706140	-3.006600	2.902800	-8.727000	28.606243	1.397653E-5	20.695870
2667.706939	-2.980900	2.900700	-8.645900	28.553074	1.051127E-5	20.692108
2668.702860	-3.002900	2.899400	-8.705800	28.626615	9.224179E-6	20.703587
2669.706047	-3.006100	2.897500	-8.710300	28.625387	8.762145E-6	20.678640
2670.706872	-3.012800	2.894600	-8.719900	28.636068	9.686213E-6	20.694140
2671.707338	-2.993800	2.893100	-8.659600	28.706657	1.024725E-5	20.690322
2672.710445	-3.001500	2.892000	-8.680100	28.617690	8.564130E-6	20.697916
2673.703052	-3.041100	2.888200	-8.782000	28.619793	1.130333E-5	20.687705
2674.707888	-3.017200	2.887600	-8.710700	28.721239	9.917230E-6	20.699794
2675.703758	-2.996900	2.887100	-8.651000	28.827442	9.719215E-6	20.688235
2676.707587	-3.005700	2.885300	-8.670800	28.835817	1.103931E-5	20.696672
2677.707377	-3.007800	2.882100	-8.667000	28.779015	1.037926E-5	20.690661
2678.707539	-2.994700	2.881000	-8.626700	28.809862	1.179837E-5	20.699450
2679.709319	-3.003600	2.879100	-8.646900	28.872542	1.084130E-5	20.708065
2680.708025	-2.991200	2.877900	-8.607700	28.863404	1.037926E-5	20.699333
2681.709996	-2.993700	2.875200	-8.607000	28.808902	1.305246E-5	20.680463
2682.713613	-3.010700	2.872900	-8.648900	28.791175	1.014825E-5	20.683943
2683.708874	-2.985900	2.870800	-8.571400	28.752552	1.123733E-5	20.700041
2684.707496	-2.969400	2.871100	-8.524900	28.707937	8.993162E-6	20.698724
2685.708898	-2.982600	2.869100	-8.556800	28.786847	9.587206E-6	20.691913
2686.709725	-3.006500	2.864900	-8.611900	28.822767	1.090730E-5	20.690638
2687.717111	-3.008800	2.862800	-8.613100	28.898900	1.117132E-5	20.686728
2688.709297	-3.024400	2.860900	-8.651800	28.835910	1.209539E-5	20.697714
2689.709024	-3.012000	2.859700	-8.612500	28.774102	1.103931E-5	20.699463
2690.711478	-2.983000	2.858200	-8.525100	28.692323	9.653210E-6	20.674935
2691.712679	-3.015000	2.856100	-8.610400	28.674808	1.087430E-5	20.687165
2692.711890	-3.015600	2.854700	-8.607700	28.726094	1.235941E-5	20.694254
2693.716157	-3.010200	2.851700	-8.583400	28.859133	1.110532E-5	20.686494
2694.711606	-2.988300	2.850800	-8.518500	28.843258	1.199638E-5	20.686149
2695.711995	-3.002700	2.848500	-8.552200	28.826522	9.884227E-6	20.696317
2696.711640	-3.005100	2.845100	-8.549300	28.790627	1.160035E-5	20.677701
2697.709159	-2.979800	2.844000	-8.473800	28.766052	8.861152E-6	20.685189
2698.713539	-3.009200	2.840600	-8.546600	28.779751	1.064328E-5	20.677177
2699.712658	-3.010800	2.840800	-8.552500	28.847043	1.196338E-5	20.692333
2700.714482	-3.000000	2.836900	-8.510000	28.863077	1.288745E-5	20.673396
2701.713826	-2.985600	2.836100	-8.466800	28.887130	1.222740E-5	20.679136
2702.710542	-2.992800	2.831700	-8.473900	28.903450	1.202939E-5	20.668549
2703.712743	-2.968300	2.830500	-8.400700	28.904000	1.216140E-5	20.680959
2704.713375	-2.984400	2.827800	-8.438400	28.924196	1.239241E-5	20.670958
2705.711883	-3.032400	2.825300	-8.566100	28.940442	1.163336E-5	20.690172
2706.715525	-2.999300	2.824400	-8.469900	28.922735	1.037926E-5	20.677548
2707.715180	-2.990700	2.821000	-8.435300	28.907454	9.224179E-6	20.674007
2708.714742	-3.020900	2.818600	-8.514100	28.922790	9.884227E-6	20.672861
2709.714815	-2.961400	2.817000	-8.340900	28.870254	9.026164E-6	20.676834
2710.716008	-3.011000	2.814500	-8.473700	28.823827	1.051127E-5	20.677006
2711.727367	-3.001700	2.812100	-8.440600	28.870180	9.785220E-6	20.675337
2712.718270	-3.019600	2.808400	-8.479600	28.848909	9.950232E-6	20.668132
2713.710869	-2.991500	2.805700	-8.391400	28.952105	1.176537E-5	20.665410
2714.715582	-2.983600	2.804600	-8.366800	28.925431	9.422193E-6	20.653709
2715.716805	-3.001200	2.802200	-8.408500	28.909882	8.960159E-6	20.666494
2716.717711	-3.004900	2.798300	-8.407900	28.846886	1.160035E-5	20.680794
2717.718663	-2.984900	2.796400	-8.346300	28.830125	1.080830E-5	20.690938
2718.717298	-3.006800	2.792100	-8.394600	28.830620	9.092169E-6	20.670572
2719.719323	-3.007800	2.790200	-8.390600	28.895176	9.983235E-6	20.658316
2720.724467	-2.984100	2.789300	-8.322800	28.905390	1.275544E-5	20.668608
2721.719094	-2.968500	2.785600	-8.267500	28.961672	9.389191E-6	20.668885
2722.716726	-2.982300	2.782400	-8.297300	28.925011	1.153435E-5	20.682686
2723.717833	-2.989500	2.779700	-8.308200	28.864027	1.097331E-5	20.661076
2724.719484	-2.982100	2.777700	-8.282100	28.889150	1.004924E-5	20.674532
2725.718401	-3.018000	2.772800	-8.367300	28.896687	9.026164E-6	20.669323
2726.718506	-2.982500	2.772000	-8.266600	28.963494	1.080830E-5	20.681627
2727.719523	-3.007800	2.767400	-8.323400	29.063042	1.110532E-5	20.668128
2728.717436	-3.029100	2.764100	-8.371700	29.017426	1.031326E-5	20.661520
2729.729588	-3.003400	2.762700	-8.296600	29.061686	9.653210E-6	20.668658
2730.718606	-2.987000	2.759600	-8.241900	29.138120	1.229340E-5	20.641357
2731.716890	-3.034300	2.754700	-8.358100	29.098672	1.202939E-5	20.649499
2732.720799	-2.987500	2.753900	-8.227100	29.088968	1.318447E-5	20.643513
2733.719554	-3.010000	2.750100	-8.277700	29.098941	1.041227E-5	20.642657
2734.721303	-3.064200	2.743900	-8.406800	29.098856	1.103931E-5	20.653953
2735.723757	-3.013800	2.742800	-8.265700	29.069601	1.193038E-5	20.652924
2736.723397	-2.964300	2.740600	-8.122200	29.007416	1.179837E-5	20.668505
2737.723960	-2.994900	2.736600	-8.194800	29.011327	1.067629E-5	20.660591
2738.718091	-3.007500	2.733900	-8.220900	29.051157	1.206239E-5	20.663264
2739.722916	-2.993600	2.729100	-8.169200	29.073971	1.331648E-5	20.663018
2740.721931	-2.974900	2.726800	-8.111000	29.028923	1.146834E-5	20.662199
2741.717669	-3.001400	2.724300	-8.174800	29.060227	1.216140E-5	20.661497
2742.722887	-3.014500	2.719300	-8.196700	29.065385	1.136934E-5	20.670015
2743.721919	-3.010600	2.714700	-8.172400	29.178765	1.021425E-5	20.666197
2744.722072	-3.040500	2.712500	-8.246600	29.217703	7.970087E-6	20.651854
2745.722151	-3.042100	2.707900	-8.236300	29.242616	1.199638E-5	20.647087
2746.721778	-3.024200	2.703900	-8.175900	29.249136	1.113832E-5	20.649865
2747.719605	-3.013000	2.700300	-8.134500	29.222195	1.087430E-5	20.669184
2748.724582	-2.997600	2.696500	-8.082600	29.245103	1.222740E-5	20.665717
2749.722415	-2.984800	2.693300	-8.037900	29.166178	9.950232E-6	20.639284
2750.725013	-3.010600	2.688300	-8.092600	29.154916	9.983235E-6	20.652594
2751.724753	-2.987000	2.685100	-8.019400	29.118610	1.041227E-5	20.651097
2752.724563	-2.993900	2.680500	-8.024500	29.156432	1.193038E-5	20.665028
2753.724418	-3.001100	2.675800	-8.030100	29.178394	1.321747E-5	20.629782
2754.722083	-2.998000	2.672100	-8.010300	29.249766	1.044527E-5	20.650500
2755.723030	-2.981300	2.667300	-7.951200	29.361202	1.272244E-5	20.675091
2756.724987	-2.986800	2.664300	-7.956500	29.422909	1.163336E-5	20.661420
2757.721110	-2.977600	2.659000	-7.916500	29.430742	1.308546E-5	20.672161
2758.724480	-3.004500	2.654400	-7.974400	29.418236	1.308546E-5	20.658132
2759.724704	-2.989000	2.648700	-7.915300	29.310649	1.064328E-5	20.679144
2760.725464	-2.969100	2.646200	-7.856200	29.268856	1.153435E-5	20.653617
2761.727370	-3.011800	2.639600	-7.949400	29.267493	1.282144E-5	20.673109
2762.726825	-2.988100	2.636700	-7.878000	29.317047	1.153435E-5	20.640069
2763.723214	-2.990600	2.631300	-7.868200	29.326749	1.047827E-5	20.665972
2764.727559	-3.006900	2.625300	-7.892500	29.354415	1.235941E-5	20.657818
2765.726423	-2.978100	2.622000	-7.807200	29.338591	1.166636E-5	20.664155
2766.726216	-3.000500	2.617000	-7.851800	29.330098	1.021425E-5	20.642791
2767.725819	-3.004900	2.609500	-7.838600	29.386626	1.259043E-5	20.653772
2768.727696	-3.000200	2.604500	-7.812000	29.450885	1.117132E-5	20.656901
2769.730519	-3.013100	2.599500	-7.831800	29.438404	1.193038E-5	20.661390
2770.730561	-3.005500	2.593400	-7.793600	29.382527	9.125172E-6	20.670979
2771.731027	-3.073300	2.586200	-7.947000	29.426026	1.166636E-5	20.650810
2772.728559	-2.983100	2.583400	-7.705200	29.381959	1.103931E-5	20.666139
2773.730796	-3.024600	2.577200	-7.793700	29.364998	1.331648E-5	20.653785
2774.726019	-2.984100	2.571900	-7.674300	29.343382	1.028026E-5	20.659974
2775.731721	-2.930600	2.568500	-7.526400	29.363813	1.486759E-5	20.670136
2776.732861	-3.022300	2.560200	-7.736400	29.473251	1.113832E-5	20.670912
2777.732093	-3.000400	2.555200	-7.665800	29.428147	1.156735E-5	20.660535
2778.733695	-2.955500	2.549900	-7.535500	29.394618	1.298646E-5	20.675580
2779.733817	-2.991100	2.542200	-7.602900	29.381177	1.153435E-5	20.669619
2780.735390	-2.983900	2.536000	-7.566000	29.352566	1.265643E-5	20.679664
2781.731316	-2.987800	2.531000	-7.560700	29.427457	1.189738E-5	20.660788
2782.734438	-2.977800	2.525800	-7.519800	29.472818	1.381152E-5	20.663363
2783.734616	-3.021300	2.518000	-7.607200	29.504585	1.318447E-5	20.647018
2784.734696	-2.996200	2.512300	-7.526400	29.493742	1.179837E-5	20.648416
2785.735132	-2.998300	2.505700	-7.511500	29.519742	1.298646E-5	20.663246
2786.735148	-3.023900	2.498400	-7.554100	29.561556	1.245842E-5	20.653238
