LabVIEW Measurement	
Writer_Version	2
Reader_Version	2
Separator	Tab
Decimal_Separator	.
Multi_Headings	No
X_Columns	One
Time_Pref	Absolute
Operator	admin
Description	Clolumns are: time, Current, Voltage, Power, Battery Temp, and Chamber Temp
Date	2024/08/16
Time	13:07:17.8513970375061035156
***End_of_Header***	
	
Channels	6						
Samples	1	1	1	1	1	1	
Date	2024/09/04	2024/09/04	2024/09/04	2024/09/04	2024/09/04	2024/09/04	
Time	17:05:31.0156831741333007813	17:05:31.0217151641845703125	17:05:31.0265984535217285156	17:05:30.9996862411499023438	17:05:30.9996862411499023438	17:05:30.9996862411499023438	
X_Dimension	Time	Time	Time	Time	Time	Time	
X0	0.0000000000000000E+0	0.0000000000000000E+0	0.0000000000000000E+0	0.0000000000000000E+0	0.0000000000000000E+0	0.0000000000000000E+0	
Delta_X	1.000000	1.000000	1.000000	1.000000	1.000000	1.000000	
***End_of_Header***							
X_Value	Untitled	Untitled 1	Untitled 2	Untitled 3	Untitled 4	Untitled 5	Comment
0.000000	0.000235	4.089800	0.000986	20.777233	0.000461	20.833657
1.001364	-3.005000	3.925300	-11.795000	20.775543	0.000462	20.844769
2.000761	-3.001200	3.919900	-11.763000	20.778862	0.000462	20.841450
3.002781	-3.010900	3.914400	-11.784000	20.765013	0.000458	20.846567
4.001898	-3.009100	3.911300	-11.769000	20.781534	0.000457	20.820415
5.002858	-3.002400	3.908300	-11.734000	20.769833	0.000458	20.798757
6.004204	-2.998000	3.905100	-11.707000	20.788820	0.000457	20.821062
7.002724	-2.985800	3.904300	-11.657000	20.777148	0.000455	20.835943
8.003179	-3.016600	3.901400	-11.768000	20.789624	0.000456	20.837039
9.003944	-3.019100	3.897500	-11.766000	20.789126	0.000455	20.819471
10.003368	-3.002600	3.898500	-11.705000	20.802876	0.000455	20.827532
11.004594	-2.996400	3.896800	-11.675000	20.823071	0.000452	20.815485
12.007348	-2.993400	3.894200	-11.656000	20.835819	0.000452	20.796939
13.003598	-3.021600	3.893700	-11.765000	20.823723	0.000453	20.827516
14.006614	-2.988400	3.891400	-11.628000	20.816107	0.000454	20.819426
15.004363	-2.983800	3.891800	-11.611000	20.836525	0.000452	20.814240
16.004930	-2.989700	3.891400	-11.633000	20.852093	0.000451	20.792351
17.007684	-3.015500	3.889900	-11.728000	20.850798	0.000449	20.819505
18.005091	-3.008400	3.889000	-11.699000	20.874031	0.000451	20.809074
19.005636	-2.986900	3.888500	-11.613000	20.886387	0.000449	20.807681
20.005666	-2.998700	3.887000	-11.654000	20.879671	0.000448	20.822775
21.004070	-2.965600	3.886900	-11.526000	20.879448	0.000449	20.810225
22.004179	-3.001600	3.885800	-11.662000	20.889636	0.000449	20.827051
23.006368	-2.988400	3.885000	-11.609000	20.906152	0.000447	20.809903
24.005421	-2.983600	3.885200	-11.591000	20.929980	0.000448	20.815717
25.006600	-2.987800	3.884100	-11.603000	20.923921	0.000446	20.807760
26.005027	-3.015000	3.882900	-11.705000	20.913594	0.000446	20.803596
27.010520	-3.020800	3.883100	-11.728000	20.923121	0.000448	20.805063
28.006094	-2.982100	3.882600	-11.578000	20.937620	0.000447	20.820986
29.010512	-2.997200	3.880900	-11.631000	20.956658	0.000445	20.785499
30.009395	-2.996100	3.880600	-11.626000	20.963270	0.000447	20.823407
31.009289	-2.983600	3.880800	-11.578000	20.973873	0.000448	20.798450
32.006406	-2.993100	3.880400	-11.614000	21.001493	0.000445	20.814694
33.006529	-2.981200	3.880000	-11.566000	20.998698	0.000447	20.797674
34.006239	-3.000400	3.878800	-11.637000	21.014342	0.000446	20.819011
35.009398	-3.003500	3.878300	-11.647000	21.007878	0.000446	20.800218
36.006200	-2.994800	3.879100	-11.616000	20.996649	0.000444	20.816013
37.008883	-2.992900	3.877600	-11.605000	21.016634	0.000444	20.810872
38.007954	-2.990100	3.877800	-11.594000	21.014333	0.000444	20.811890
39.007704	-2.986800	3.877600	-11.580000	21.021498	0.000444	20.800090
40.006742	-3.028100	3.875900	-11.736000	21.027533	0.000443	20.796643
41.006233	-3.003000	3.878300	-11.645000	21.059743	0.000446	20.804679
42.007505	-3.020100	3.875400	-11.702000	21.057694	0.000443	20.790301
43.008971	-3.017600	3.874900	-11.692000	21.068148	0.000445	20.805973
44.006798	-3.012400	3.874000	-11.669000	21.095993	0.000444	20.797314
45.008851	-2.982000	3.875500	-11.556000	21.110184	0.000444	20.807242
46.008718	-3.005500	3.874000	-11.642000	21.110382	0.000442	20.813130
47.008246	-2.994600	3.874600	-11.601000	21.105444	0.000444	20.808665
48.010406	-2.991600	3.874700	-11.590000	21.125126	0.000440	20.793739
49.007163	-2.990300	3.874500	-11.585000	21.114821	0.000443	20.793388
50.007879	-2.999400	3.872400	-11.614000	21.120109	0.000440	20.796307
51.012621	-2.993300	3.874200	-11.596000	21.133530	0.000441	20.779860
52.008737	-3.020000	3.873600	-11.697000	21.145632	0.000440	20.791018
53.008303	-2.998400	3.873000	-11.612000	21.152140	0.000440	20.790889
54.010230	-2.974100	3.872900	-11.518000	21.160450	0.000440	20.784977
55.010752	-2.982700	3.873700	-11.553000	21.186071	0.000443	20.778838
56.011069	-3.001700	3.872300	-11.622000	21.171648	0.000439	20.790964
57.010703	-2.985400	3.872400	-11.560000	21.197797	0.000442	20.793413
58.010658	-2.990500	3.871100	-11.576000	21.196292	0.000442	20.783372
59.008910	-2.970000	3.873400	-11.503000	21.210466	0.000442	20.797078
60.009735	-2.998700	3.870500	-11.605000	21.218495	0.000442	20.813644
61.012535	-3.015900	3.871000	-11.674000	21.241344	0.000442	20.786716
62.014178	-2.999500	3.870000	-11.607000	21.237503	0.000441	20.783348
63.014486	-2.997300	3.870200	-11.599000	21.242135	0.000443	20.790352
64.012964	-2.990600	3.871000	-11.576000	21.238397	0.000442	20.799889
65.012221	-2.995100	3.870000	-11.590000	21.255283	0.000444	20.790702
66.016775	-2.997100	3.869500	-11.597000	21.261469	0.000444	20.789779
67.014293	-2.996900	3.868600	-11.593000	21.268124	0.000442	20.811136
68.015471	-2.993300	3.869500	-11.582000	21.300254	0.000442	20.777846
69.015625	-3.002700	3.869200	-11.617000	21.294809	0.000443	20.788046
70.018209	-3.002400	3.869900	-11.618000	21.303390	0.000444	20.793311
71.015346	-2.987700	3.869400	-11.560000	21.302916	0.000442	20.775293
72.019303	-3.006100	3.867800	-11.625000	21.315688	0.000442	20.782855
73.018696	-3.000600	3.868500	-11.607000	21.339079	0.000442	20.768324
74.015864	-2.984600	3.867600	-11.542000	21.336882	0.000444	20.794102
75.019767	-2.999300	3.867600	-11.599000	21.338205	0.000442	20.783097
76.019141	-3.011500	3.867500	-11.646000	21.367815	0.000443	20.781902
77.019287	-3.025400	3.867100	-11.699000	21.379461	0.000442	20.782648
78.018680	-3.015400	3.867200	-11.660000	21.365565	0.000441	20.777754
79.020203	-3.012400	3.867300	-11.649000	21.380883	0.000442	20.808726
80.019661	-3.034000	3.865500	-11.727000	21.390658	0.000442	20.792902
81.022774	-2.991500	3.866900	-11.567000	21.388890	0.000442	20.783547
82.020411	-2.979100	3.867600	-11.521000	21.379980	0.000443	20.792176
83.021940	-2.993100	3.867300	-11.574000	21.402130	0.000442	20.766922
84.021558	-2.994200	3.866400	-11.575000	21.421778	0.000443	20.781365
85.024936	-2.996100	3.866800	-11.584000	21.426245	0.000442	20.760230
86.025430	-3.012100	3.866100	-11.645000	21.418485	0.000440	20.773803
87.024759	-3.004500	3.865300	-11.613000	21.431903	0.000442	20.797659
88.022276	-2.992900	3.864300	-11.564000	21.448415	0.000441	20.777670
89.027430	-3.010500	3.864600	-11.634000	21.449239	0.000442	20.767115
90.023346	-3.007900	3.864600	-11.624000	21.466047	0.000440	20.787726
91.023314	-2.996400	3.864300	-11.578000	21.466092	0.000443	20.758847
92.023179	-3.014000	3.865000	-11.649000	21.481734	0.000441	20.761697
93.030709	-3.005900	3.865000	-11.617000	21.473797	0.000443	20.776515
94.023534	-3.010500	3.863600	-11.630000	21.482974	0.000444	20.767205
95.025326	-2.982400	3.865700	-11.528000	21.489435	0.000443	20.776989
96.026621	-2.995300	3.863700	-11.572000	21.530533	0.000445	20.775438
97.023665	-3.009000	3.862500	-11.622000	21.541674	0.000446	20.760508
98.022379	-2.997000	3.863500	-11.578000	21.522226	0.000444	20.747211
99.026031	-2.999200	3.863200	-11.585000	21.533248	0.000445	20.767724
100.024449	-3.004100	3.863800	-11.606000	21.543323	0.000445	20.767847
101.024889	-3.003500	3.863300	-11.603000	21.563871	0.000446	20.757114
102.026223	-2.996900	3.864000	-11.578000	21.562874	0.000445	20.769867
103.024666	-2.994800	3.863200	-11.568000	21.566684	0.000445	20.781742
104.024822	-2.988800	3.863200	-11.545000	21.585040	0.000445	20.758384
105.031767	-3.011900	3.863000	-11.635000	21.591521	0.000445	20.781939
106.025702	-2.999100	3.863600	-11.587000	21.589276	0.000445	20.779692
107.025791	-3.023800	3.862700	-11.679000	21.594310	0.000448	20.768135
108.024354	-2.993400	3.862300	-11.560000	21.609650	0.000446	20.764045
109.026033	-2.981900	3.862800	-11.518000	21.635108	0.000445	20.764391
110.025424	-3.027200	3.861500	-11.688000	21.642018	0.000446	20.757081
111.028526	-3.000300	3.861700	-11.585000	21.652190	0.000444	20.756829
112.026244	-3.006500	3.860800	-11.606000	21.636451	0.000446	20.756251
113.025782	-3.023800	3.861400	-11.675000	21.642487	0.000448	20.766085
114.025609	-2.998800	3.861800	-11.580000	21.659890	0.000447	20.759793
115.027712	-2.992300	3.862300	-11.555000	21.659470	0.000444	20.763640
116.025808	-2.967900	3.861900	-11.459000	21.650991	0.000448	20.752784
117.031941	-2.978100	3.861000	-11.497000	21.682237	0.000445	20.752285
118.028048	-2.997300	3.860300	-11.570000	21.673733	0.000445	20.746145
119.025783	-2.995100	3.861300	-11.564000	21.683081	0.000447	20.766881
120.026227	-2.982300	3.860500	-11.512000	21.720485	0.000447	20.748363
121.027975	-2.992800	3.860700	-11.552000	21.709732	0.000447	20.765103
122.027712	-3.007500	3.859800	-11.608000	21.748980	0.000445	20.756494
123.031460	-2.998800	3.859400	-11.573000	21.757430	0.000447	20.752148
124.029170	-2.989600	3.859600	-11.538000	21.770097	0.000448	20.763404
125.028636	-2.981700	3.858800	-11.504000	21.778654	0.000447	20.744466
126.029847	-2.983700	3.859600	-11.514000	21.747905	0.000446	20.747356
127.028710	-2.979000	3.859600	-11.497000	21.759700	0.000449	20.751100
128.029769	-2.997900	3.859400	-11.569000	21.754641	0.000448	20.748882
129.029166	-2.995300	3.859600	-11.559000	21.759803	0.000448	20.737927
130.028275	-3.008400	3.859200	-11.608000	21.755707	0.000450	20.751846
131.031830	-2.993100	3.858700	-11.548000	21.782741	0.000449	20.767049
132.029879	-3.022900	3.857200	-11.659000	21.792063	0.000449	20.742714
133.031131	-3.006000	3.857600	-11.595000	21.796874	0.000449	20.749900
134.035139	-3.010600	3.857500	-11.613000	21.806324	0.000449	20.768368
135.032765	-2.994500	3.858300	-11.553000	21.832800	0.000448	20.748399
136.033082	-2.993000	3.858400	-11.547000	21.850006	0.000451	20.733378
137.035175	-3.012900	3.858100	-11.623000	21.857536	0.000450	20.761779
138.031349	-3.000700	3.857800	-11.575000	21.863068	0.000453	20.739340
139.033232	-3.010000	3.857700	-11.610000	21.866158	0.000450	20.745752
140.031981	-3.020000	3.857500	-11.648000	21.861973	0.000451	20.756262
141.032894	-2.997500	3.856300	-11.559000	21.888797	0.000454	20.758455
142.033056	-2.987400	3.857400	-11.522000	21.885007	0.000451	20.752291
143.033067	-2.976600	3.858100	-11.483000	21.901710	0.000454	20.739138
144.038931	-2.977700	3.857100	-11.484000	21.905648	0.000452	20.735493
145.035186	-3.005400	3.857200	-11.591000	21.907794	0.000454	20.756134
146.035203	-2.996100	3.856400	-11.553000	21.915872	0.000456	20.729131
147.039118	-2.980200	3.857100	-11.494000	21.915373	0.000456	20.750918
148.036216	-2.994000	3.855800	-11.544000	21.914850	0.000454	20.749920
149.038068	-3.020200	3.854900	-11.641000	21.938910	0.000457	20.767840
150.039590	-3.022900	3.856000	-11.656000	21.956007	0.000456	20.737064
151.041026	-3.026800	3.854600	-11.665000	21.962984	0.000456	20.736936
152.037698	-3.020500	3.854100	-11.639000	21.981536	0.000454	20.752188
153.037966	-3.010100	3.855100	-11.603000	21.983356	0.000457	20.737414
154.041098	-2.980600	3.855000	-11.489000	21.980984	0.000455	20.734091
155.039255	-3.006700	3.853600	-11.585000	21.994370	0.000456	20.739430
156.040238	-2.984700	3.855000	-11.505000	22.013197	0.000459	20.728405
157.041484	-2.999900	3.854100	-11.561000	22.028596	0.000456	20.743821
158.041417	-2.999400	3.853500	-11.557000	22.010198	0.000458	20.732041
159.041617	-3.003700	3.854300	-11.576000	22.028601	0.000459	20.740032
160.047030	-2.984300	3.855300	-11.505000	22.034729	0.000458	20.743322
161.044363	-2.989500	3.853600	-11.519000	22.042559	0.000459	20.737410
162.044763	-2.997800	3.852800	-11.549000	22.051879	0.000459	20.751008
163.046910	-3.011500	3.852100	-11.600000	22.067957	0.000461	20.732016
164.044487	-2.983200	3.853400	-11.494000	22.057809	0.000463	20.763584
165.048284	-3.004900	3.853800	-11.579000	22.063419	0.000462	20.748336
166.043710	-2.997800	3.853900	-11.552000	22.053596	0.000461	20.751305
167.047151	-3.012900	3.852600	-11.606000	22.074633	0.000463	20.741070
168.045130	-3.013400	3.852600	-11.609000	22.102622	0.000465	20.733529
169.044110	-2.978500	3.852600	-11.474000	22.100431	0.000465	20.745086
170.050325	-3.012400	3.851900	-11.603000	22.134975	0.000465	20.749325
171.045574	-2.989200	3.852700	-11.516000	22.113757	0.000464	20.738513
172.044622	-3.016800	3.851900	-11.619000	22.145888	0.000466	20.729429
173.049388	-3.012800	3.851100	-11.602000	22.134769	0.000467	20.734893
174.045912	-2.976400	3.851600	-11.463000	22.144961	0.000467	20.754107
175.048638	-2.992500	3.850700	-11.522000	22.173219	0.000466	20.743992
176.048079	-3.027100	3.849800	-11.653000	22.159633	0.000465	20.741295
177.045605	-3.016200	3.848900	-11.608000	22.168203	0.000466	20.734227
178.046533	-3.004300	3.849500	-11.564000	22.147232	0.000467	20.746423
179.046189	-2.992600	3.850100	-11.521000	22.182051	0.000466	20.767060
180.047011	-3.013100	3.850400	-11.600000	22.200442	0.000468	20.748014
181.045884	-3.021600	3.849500	-11.631000	22.205795	0.000468	20.743891
182.047386	-3.001600	3.849000	-11.552000	22.205766	0.000470	20.755242
183.048115	-2.999900	3.849300	-11.547000	22.220640	0.000469	20.744529
184.047106	-3.010700	3.849200	-11.587000	22.240426	0.000468	20.743003
185.050730	-2.968500	3.849900	-11.427000	22.212329	0.000468	20.764183
186.049003	-2.972500	3.848600	-11.439000	22.233038	0.000468	20.741769
187.050634	-2.983900	3.847900	-11.481000	22.243526	0.000471	20.743736
188.049415	-2.991900	3.848400	-11.513000	22.250551	0.000470	20.764521
189.048886	-2.979900	3.849800	-11.472000	22.272902	0.000467	20.735691
190.049562	-3.000400	3.847700	-11.544000	22.253634	0.000470	20.757177
191.049209	-3.007300	3.848500	-11.572000	22.264567	0.000469	20.756269
192.048225	-3.007600	3.848800	-11.575000	22.285398	0.000470	20.761955
193.049827	-3.007600	3.848900	-11.574000	22.289981	0.000469	20.758483
194.049839	-3.011100	3.847200	-11.584000	22.301366	0.000468	20.756606
195.052607	-3.013000	3.846400	-11.588000	22.316716	0.000470	20.757752
196.051260	-3.012800	3.846700	-11.588000	22.320525	0.000469	20.753505
197.049069	-2.994100	3.846600	-11.516000	22.305224	0.000469	20.782281
198.051016	-2.983200	3.847400	-11.477000	22.324856	0.000471	20.751204
199.050771	-2.970500	3.847200	-11.426000	22.329641	0.000470	20.748408
200.051509	-2.995000	3.847600	-11.523000	22.341721	0.000471	20.771411
201.051144	-2.986700	3.846200	-11.487000	22.336912	0.000472	20.762328
202.049569	-2.999000	3.845900	-11.533000	22.352213	0.000471	20.771486
203.053159	-3.006700	3.845800	-11.562000	22.339127	0.000473	20.787780
204.051443	-2.990900	3.846600	-11.504000	22.356618	0.000470	20.784432
205.056706	-3.019700	3.843600	-11.605000	22.347049	0.000472	20.774376
206.053411	-3.017400	3.844800	-11.600000	22.332568	0.000472	20.739485
207.051435	-3.002900	3.846300	-11.549000	22.365590	0.000472	20.771605
208.050376	-3.010700	3.845500	-11.576000	22.385349	0.000472	20.759623
209.052333	-3.008900	3.844400	-11.566000	22.387845	0.000474	20.782036
210.052941	-2.998800	3.844700	-11.528000	22.391480	0.000473	20.771926
211.051336	-3.007700	3.844700	-11.563000	22.426168	0.000472	20.778214
212.052607	-2.996800	3.844200	-11.519000	22.446453	0.000474	20.763441
213.052661	-3.011900	3.844300	-11.578000	22.449344	0.000474	20.761593
214.052754	-2.980700	3.844000	-11.457000	22.453625	0.000475	20.769200
215.052346	-2.984300	3.844700	-11.472000	22.455593	0.000474	20.778758
216.054345	-2.983300	3.843700	-11.465000	22.476726	0.000475	20.773369
217.053108	-3.006100	3.843300	-11.553000	22.469052	0.000476	20.767106
218.056220	-2.997500	3.843900	-11.521000	22.467282	0.000476	20.761065
219.057109	-3.006700	3.842700	-11.554000	22.462596	0.000479	20.761115
220.054619	-3.013700	3.842900	-11.581000	22.451505	0.000476	20.777983
221.056521	-3.027600	3.841900	-11.631000	22.462695	0.000477	20.783974
222.059014	-3.001700	3.842500	-11.533000	22.458257	0.000477	20.791383
223.055456	-2.991700	3.840700	-11.489000	22.512157	0.000477	20.771868
224.055110	-2.986400	3.841700	-11.473000	22.511165	0.000477	20.769926
225.060249	-3.004600	3.840000	-11.536000	22.510518	0.000479	20.767382
226.057801	-2.976300	3.842200	-11.435000	22.499896	0.000480	20.778082
227.057495	-3.012700	3.841700	-11.573000	22.533614	0.000478	20.796203
228.057720	-3.005600	3.841600	-11.546000	22.544602	0.000480	20.787293
229.060890	-3.009500	3.840400	-11.557000	22.548591	0.000480	20.767106
230.057827	-3.013100	3.840400	-11.571000	22.549587	0.000480	20.772845
231.058822	-2.987700	3.841500	-11.475000	22.555470	0.000481	20.774944
232.063103	-3.004900	3.841000	-11.541000	22.568302	0.000483	20.784003
233.057476	-2.988800	3.840500	-11.478000	22.571019	0.000482	20.791940
234.060501	-3.009100	3.840100	-11.554000	22.591104	0.000482	20.780288
235.063971	-2.985300	3.840200	-11.463000	22.588235	0.000483	20.783578
236.059909	-2.989500	3.840700	-11.480000	22.633838	0.000482	20.771407
237.062644	-3.007400	3.838300	-11.542000	22.592850	0.000482	20.776346
238.062615	-3.015400	3.839300	-11.576000	22.582558	0.000482	20.778841
239.060521	-3.013300	3.837500	-11.563000	22.587272	0.000484	20.784036
240.062231	-3.007200	3.838800	-11.542000	22.602771	0.000483	20.772059
241.063469	-2.989900	3.838500	-11.476000	22.611514	0.000484	20.771807
242.062405	-2.994300	3.838600	-11.493000	22.611589	0.000484	20.776623
243.065611	-2.999600	3.838000	-11.510000	22.621086	0.000485	20.786135
244.061390	-2.983100	3.836900	-11.445000	22.648962	0.000486	20.762847
245.060771	-2.983200	3.838400	-11.450000	22.653445	0.000484	20.793890
246.063431	-3.006700	3.837200	-11.536000	22.673356	0.000485	20.776376
247.061407	-3.016000	3.836400	-11.569000	22.693114	0.000487	20.775778
248.061640	-3.010500	3.837500	-11.552000	22.674302	0.000485	20.787755
249.062362	-2.969900	3.837600	-11.395000	22.675348	0.000486	20.787380
250.062387	-3.000300	3.835400	-11.506000	22.697773	0.000485	20.785661
251.061973	-2.976900	3.836000	-11.418000	22.701955	0.000486	20.798385
252.063262	-3.021200	3.835200	-11.586000	22.685268	0.000484	20.790679
253.063354	-3.013500	3.835800	-11.559000	22.696851	0.000487	20.787108
254.069000	-3.001700	3.835200	-11.511000	22.710806	0.000486	20.798715
255.064374	-2.998300	3.836500	-11.503000	22.720293	0.000487	20.786407
256.063357	-3.014900	3.835900	-11.564000	22.749019	0.000485	20.803328
257.065629	-2.967100	3.836800	-11.383000	22.771814	0.000487	20.791549
258.070711	-2.992400	3.836100	-11.478000	22.773139	0.000488	20.781023
259.068496	-2.992500	3.835500	-11.477000	22.769279	0.000490	20.785690
260.080315	-3.013400	3.834000	-11.552000	22.772543	0.000489	20.786589
261.070655	-3.006800	3.833600	-11.525000	22.776201	0.000491	20.790254
262.070199	-2.989400	3.833200	-11.458000	22.793616	0.000491	20.793000
263.069380	-3.003300	3.833100	-11.511000	22.790771	0.000493	20.776400
264.071646	-2.996900	3.833900	-11.489000	22.798353	0.000490	20.806281
265.068998	-2.993200	3.833300	-11.473000	22.799975	0.000492	20.809328
266.068713	-3.005000	3.833300	-11.518000	22.795193	0.000491	20.796951
267.067992	-2.997100	3.833000	-11.487000	22.798053	0.000493	20.793178
268.068705	-3.003600	3.832500	-11.510000	22.794892	0.000494	20.796175
269.083882	-3.013400	3.832600	-11.547000	22.782014	0.000493	20.796551
270.069194	-3.019800	3.832700	-11.573000	22.795139	0.000493	20.803061
271.073026	-3.010900	3.831500	-11.535000	22.809318	0.000492	20.806359
272.068879	-2.997500	3.831500	-11.484000	22.798831	0.000494	20.800121
273.069914	-2.992300	3.831600	-11.464000	22.827704	0.000493	20.786371
274.072877	-3.005100	3.831200	-11.512000	22.815817	0.000493	20.793429
275.071710	-2.981200	3.830800	-11.420000	22.832811	0.000495	20.807609
276.069459	-3.008300	3.829800	-11.520000	22.839260	0.000492	20.808380
277.068669	-2.989400	3.831500	-11.453000	22.801548	0.000496	20.793360
278.070841	-3.005400	3.829900	-11.509000	22.846187	0.000496	20.797301
279.070385	-2.997900	3.831300	-11.485000	22.861431	0.000496	20.801193
280.069422	-2.999700	3.830400	-11.489000	22.889331	0.000493	20.811126
281.071405	-3.006200	3.829400	-11.511000	22.878248	0.000498	20.820411
282.070350	-3.007600	3.829600	-11.517000	22.903850	0.000497	20.808128
283.074089	-2.996500	3.829100	-11.472000	22.897475	0.000497	20.796052
284.072755	-2.973600	3.830100	-11.389000	22.879841	0.000498	20.813946
285.071445	-3.012200	3.828900	-11.533000	22.890475	0.000499	20.798996
286.072587	-2.979300	3.829000	-11.407000	22.887043	0.000498	20.819739
287.073011	-2.991300	3.829400	-11.454000	22.894640	0.000497	20.811229
288.071397	-2.971200	3.828800	-11.376000	22.907320	0.000500	20.808285
289.076385	-2.990100	3.828000	-11.444000	22.895039	0.000499	20.805465
290.072669	-2.992100	3.827500	-11.451000	22.926745	0.000499	20.803564
291.072777	-2.996800	3.827300	-11.469000	22.956037	0.000498	20.819636
292.075427	-2.991100	3.828400	-11.451000	22.966474	0.000499	20.804488
293.077091	-3.014300	3.828200	-11.538000	22.975688	0.000500	20.821779
294.072206	-2.987500	3.826400	-11.431000	23.016090	0.000499	20.818638
295.077173	-2.988700	3.827100	-11.437000	23.011185	0.000502	20.799025
296.076289	-2.979900	3.826700	-11.403000	23.029567	0.000498	20.818865
297.076717	-3.003500	3.826700	-11.492000	23.020650	0.000500	20.819887
298.078609	-2.997100	3.826000	-11.466000	23.011131	0.000499	20.801342
299.077545	-2.991100	3.826500	-11.444000	23.003214	0.000499	20.822332
300.079464	-2.991700	3.825300	-11.443000	22.998280	0.000500	20.808854
301.077734	-2.983400	3.826900	-11.416000	23.037278	0.000500	20.820427
302.078532	-2.995700	3.825100	-11.458000	23.036015	0.000501	20.805411
303.077645	-2.998000	3.824800	-11.466000	23.037159	0.000501	20.826945
304.076870	-2.974500	3.825600	-11.379000	23.021542	0.000501	20.816514
305.078557	-2.993500	3.825600	-11.451000	23.023859	0.000502	20.825948
306.080380	-2.991300	3.825000	-11.441000	23.033328	0.000502	20.821685
307.079063	-3.001600	3.824300	-11.478000	23.033748	0.000503	20.826372
308.079266	-3.009700	3.824100	-11.509000	23.061746	0.000503	20.825977
309.080539	-3.020400	3.823000	-11.546000	23.079826	0.000501	20.830343
310.082415	-3.002700	3.823200	-11.480000	23.079954	0.000504	20.837109
311.081799	-2.993700	3.822900	-11.443000	23.100898	0.000504	20.837233
312.082047	-2.987400	3.823500	-11.421000	23.105359	0.000504	20.819892
313.083090	-2.958100	3.823600	-11.309000	23.101125	0.000504	20.828925
314.080074	-2.993600	3.822500	-11.443000	23.095545	0.000502	20.821912
315.081946	-3.004400	3.822100	-11.483000	23.107075	0.000505	20.823981
316.083361	-3.006200	3.821800	-11.488000	23.120230	0.000505	20.839534
317.082808	-3.001500	3.822400	-11.471000	23.117662	0.000506	20.821314
318.082089	-2.998000	3.821800	-11.456000	23.112309	0.000506	20.821640
319.085160	-3.011900	3.820900	-11.507000	23.105561	0.000505	20.820568
320.081615	-3.003500	3.821200	-11.476000	23.142622	0.000508	20.824040
321.081618	-2.997700	3.820600	-11.452000	23.145732	0.000506	20.833794
322.086767	-3.003200	3.821000	-11.475000	23.124365	0.000506	20.831350
323.082348	-3.005300	3.821600	-11.484000	23.169942	0.000508	20.849045
324.081104	-3.010900	3.820600	-11.502000	23.154579	0.000507	20.834125
325.084191	-3.000900	3.819600	-11.460000	23.198809	0.000506	20.844308
326.081829	-3.011400	3.819100	-11.500000	23.206528	0.000510	20.833552
327.083093	-2.983200	3.819500	-11.394000	23.214123	0.000510	20.848275
328.083498	-3.009500	3.819600	-11.493000	23.206108	0.000509	20.838821
329.080578	-3.000400	3.819200	-11.457000	23.179908	0.000511	20.826790
330.084966	-3.002400	3.819800	-11.468000	23.218830	0.000508	20.839715
331.087714	-2.991300	3.819100	-11.424000	23.231259	0.000510	20.837947
332.083172	-2.984900	3.818200	-11.396000	23.247074	0.000510	20.850951
333.084082	-2.995700	3.818500	-11.438000	23.243964	0.000512	20.853050
334.085118	-2.997500	3.817900	-11.443000	23.223417	0.000512	20.846209
335.083678	-3.019500	3.817600	-11.525000	23.230968	0.000510	20.836232
336.085118	-3.004700	3.817100	-11.468000	23.273948	0.000511	20.848012
337.084897	-2.981100	3.817800	-11.380000	23.261051	0.000511	20.848362
338.090619	-2.987900	3.817000	-11.404000	23.242401	0.000509	20.826828
339.085949	-3.008300	3.817300	-11.483000	23.245496	0.000511	20.847472
340.083979	-2.993100	3.816900	-11.424000	23.255501	0.000512	20.846594
341.086721	-3.014500	3.816300	-11.503000	23.249350	0.000513	20.840430
342.086591	-3.014400	3.816100	-11.502000	23.282025	0.000512	20.857528
343.087397	-3.009100	3.814900	-11.479000	23.263129	0.000512	20.830057
344.087632	-2.989700	3.815800	-11.407000	23.280384	0.000514	20.862047
345.090179	-2.976500	3.816600	-11.359000	23.289575	0.000515	20.864619
346.088221	-3.019600	3.815100	-11.520000	23.325560	0.000513	20.862752
347.090224	-3.013800	3.815600	-11.498000	23.342320	0.000516	20.843515
348.092005	-2.998600	3.814300	-11.436000	23.329645	0.000514	20.859734
349.089414	-2.988800	3.814600	-11.401000	23.312643	0.000516	20.839376
350.090084	-2.983800	3.815700	-11.384000	23.335948	0.000516	20.836180
351.092574	-2.994800	3.814800	-11.424000	23.340280	0.000517	20.847634
352.090178	-2.975800	3.814400	-11.350000	23.338046	0.000517	20.867680
353.089358	-3.007800	3.813100	-11.468000	23.348957	0.000517	20.849692
354.092140	-3.010700	3.812700	-11.478000	23.344670	0.000517	20.861990
355.089934	-3.008000	3.812000	-11.466000	23.375523	0.000514	20.849766
356.089921	-3.004300	3.813000	-11.454000	23.407248	0.000517	20.840313
357.091922	-2.999900	3.812900	-11.438000	23.435179	0.000517	20.860721
358.092957	-2.994900	3.812600	-11.417000	23.410806	0.000519	20.869482
359.089719	-2.994800	3.811700	-11.414000	23.402345	0.000515	20.836347
360.090041	-2.977400	3.812700	-11.350000	23.394402	0.000516	20.869161
361.093116	-2.983600	3.811500	-11.371000	23.406356	0.000518	20.864073
362.092549	-3.000200	3.810400	-11.431000	23.414571	0.000518	20.865669
363.092000	-3.019000	3.810900	-11.504000	23.414526	0.000518	20.864675
364.096241	-3.015600	3.810500	-11.490000	23.448093	0.000519	20.861336
365.093099	-3.010300	3.810000	-11.468000	23.437656	0.000518	20.866048
366.094088	-3.011900	3.809500	-11.473000	23.417196	0.000520	20.864981
367.098509	-2.970000	3.811500	-11.319000	23.430363	0.000519	20.856368
368.093872	-2.980400	3.809900	-11.354000	23.443539	0.000519	20.845393
369.096021	-2.985500	3.810600	-11.376000	23.464575	0.000521	20.870745
370.097947	-3.025600	3.809100	-11.524000	23.478898	0.000521	20.867558
371.094048	-3.019800	3.808200	-11.499000	23.506955	0.000522	20.860595
372.096642	-3.013500	3.809300	-11.479000	23.517888	0.000520	20.867761
373.097281	-3.042000	3.808500	-11.584000	23.460632	0.000522	20.864422
374.096803	-2.995600	3.808400	-11.407000	23.471758	0.000520	20.862298
375.096022	-2.995100	3.808600	-11.406000	23.445770	0.000521	20.868965
376.096342	-2.992400	3.808500	-11.396000	23.457527	0.000520	20.875059
377.098068	-3.009500	3.807800	-11.459000	23.448962	0.000521	20.868846
378.098033	-3.001300	3.808000	-11.428000	23.482001	0.000520	20.862134
379.097567	-3.022600	3.806900	-11.505000	23.506623	0.000521	20.865004
380.104806	-3.015000	3.806000	-11.474000	23.487781	0.000522	20.868401
381.098738	-3.026500	3.805800	-11.518000	23.505312	0.000522	20.874594
382.100646	-2.975300	3.806500	-11.324000	23.534807	0.000524	20.858168
383.102323	-2.979000	3.806200	-11.337000	23.512584	0.000525	20.870504
384.099742	-2.985800	3.806500	-11.365000	23.510594	0.000522	20.873724
385.102662	-2.984300	3.805900	-11.357000	23.485676	0.000522	20.876722
386.107066	-2.996300	3.805800	-11.403000	23.529770	0.000522	20.878248
387.107743	-2.994300	3.805200	-11.392000	23.540028	0.000521	20.877625
388.103582	-2.999600	3.804100	-11.409000	23.534007	0.000524	20.888658
389.101213	-2.982300	3.805700	-11.348000	23.557160	0.000521	20.881522
390.104347	-2.990900	3.803000	-11.373000	23.568536	0.000525	20.892451
391.104607	-2.970200	3.804900	-11.300000	23.526197	0.000526	20.880830
392.106406	-2.989900	3.804900	-11.375000	23.553104	0.000524	20.891206
393.102606	-2.987600	3.804400	-11.365000	23.594235	0.000524	20.882178
394.103123	-2.977800	3.804300	-11.327000	23.601009	0.000524	20.876167
395.107976	-2.979800	3.804200	-11.335000	23.610045	0.000526	20.890914
396.107715	-3.012800	3.803400	-11.458000	23.623613	0.000526	20.886973
397.105663	-3.022400	3.802600	-11.492000	23.626751	0.000525	20.878740
398.109650	-2.988800	3.803700	-11.368000	23.639551	0.000525	20.893467
399.106493	-3.010100	3.800900	-11.441000	23.615026	0.000526	20.878839
400.105166	-2.992900	3.803200	-11.382000	23.617444	0.000525	20.882686
401.111763	-3.010400	3.800900	-11.441000	23.626209	0.000527	20.872033
402.104517	-3.003600	3.801300	-11.416000	23.652650	0.000526	20.874358
403.105414	-3.017200	3.801000	-11.467000	23.670372	0.000527	20.872210
404.109071	-2.983700	3.802100	-11.343000	23.684383	0.000527	20.877248
405.105307	-2.995300	3.801100	-11.385000	23.656129	0.000527	20.900129
406.107486	-2.988200	3.801400	-11.359000	23.627978	0.000527	20.879495
407.107569	-3.004700	3.800500	-11.418000	23.663672	0.000530	20.874976
408.106299	-2.991700	3.800400	-11.369000	23.666711	0.000529	20.877075
409.105953	-3.011700	3.799500	-11.442000	23.658144	0.000527	20.867539
410.112836	-2.987400	3.800000	-11.351000	23.660184	0.000531	20.858678
411.107851	-3.023600	3.797100	-11.480000	23.634220	0.000530	20.872952
412.109727	-2.987100	3.797900	-11.344000	23.657149	0.000529	20.866541
413.108068	-2.994800	3.797800	-11.372000	23.697291	0.000531	20.854629
414.111222	-2.999000	3.798200	-11.390000	23.706376	0.000529	20.862788
415.110991	-3.015600	3.799600	-11.457000	23.730150	0.000530	20.865761
416.108914	-3.028300	3.797800	-11.500000	23.735027	0.000530	20.851211
417.110659	-3.007700	3.797400	-11.421000	23.714243	0.000530	20.857874
418.110197	-3.003300	3.796900	-11.402000	23.701395	0.000530	20.852580
419.112967	-2.981700	3.799100	-11.326000	23.712347	0.000531	20.858818
420.110673	-3.033900	3.795300	-11.513000	23.729717	0.000530	20.868172
421.111433	-3.001000	3.796300	-11.392000	23.726210	0.000530	20.852802
422.111170	-3.002700	3.796900	-11.399000	23.758344	0.000530	20.860364
423.113585	-3.003200	3.796500	-11.401000	23.740545	0.000530	20.860537
424.117491	-3.022100	3.796100	-11.471000	23.745768	0.000531	20.847755
425.113727	-3.009000	3.795000	-11.417000	23.755354	0.000529	20.870642
426.117960	-2.976900	3.796600	-11.301000	23.746516	0.000530	20.874583
427.118630	-2.976500	3.797000	-11.301000	23.743127	0.000531	20.852220
428.118313	-3.006000	3.795000	-11.407000	23.736984	0.000532	20.849380
429.119274	-3.010400	3.795100	-11.424000	23.748088	0.000531	20.845814
430.118517	-2.989000	3.793900	-11.339000	23.760186	0.000534	20.844194
431.121741	-2.987000	3.794600	-11.334000	23.752615	0.000533	20.836129
432.119807	-3.000000	3.794500	-11.383000	23.741940	0.000532	20.857193
433.120101	-3.008200	3.794300	-11.413000	23.785521	0.000532	20.836405
434.121311	-2.991100	3.792900	-11.344000	23.813550	0.000535	20.819938
435.120934	-3.014500	3.793700	-11.435000	23.824003	0.000533	20.850807
436.122773	-3.013800	3.792500	-11.428000	23.813250	0.000532	20.849982
437.121169	-3.019700	3.793000	-11.453000	23.848095	0.000532	20.848886
438.122128	-3.002800	3.791600	-11.385000	23.833761	0.000533	20.843996
439.121236	-2.977800	3.792600	-11.293000	23.814097	0.000532	20.851306
440.120672	-3.008200	3.791200	-11.404000	23.775768	0.000533	20.850807
441.123458	-3.001100	3.793400	-11.383000	23.799614	0.000533	20.862388
442.121429	-2.982600	3.792000	-11.309000	23.811959	0.000534	20.817395
443.126046	-2.977400	3.792300	-11.291000	23.847923	0.000534	20.852032
444.124885	-2.993100	3.791500	-11.348000	23.871118	0.000534	20.851108
445.121802	-2.997600	3.791400	-11.364000	23.835352	0.000533	20.838953
446.120791	-3.003400	3.789600	-11.380000	23.842750	0.000533	20.820294
447.121906	-2.995800	3.790800	-11.355000	23.906159	0.000533	20.830295
448.123942	-3.007600	3.789900	-11.398000	23.870202	0.000533	20.828379
449.127243	-2.999400	3.790200	-11.368000	23.878783	0.000533	20.822284
450.124877	-3.013800	3.789700	-11.421000	23.932244	0.000534	20.816150
451.125615	-3.007900	3.789600	-11.398000	23.915497	0.000535	20.810737
452.122542	-3.013500	3.788400	-11.415000	23.913581	0.000535	20.843428
453.122700	-3.000400	3.788900	-11.368000	23.881674	0.000537	20.821390
454.124277	-2.996100	3.788200	-11.349000	23.888244	0.000533	20.827505
455.124345	-2.987400	3.787300	-11.313000	23.871320	0.000533	20.824284
456.123552	-2.983100	3.789700	-11.304000	23.866571	0.000534	20.846549
457.122898	-2.991000	3.787600	-11.328000	23.878993	0.000535	20.820125
458.126122	-2.974400	3.788400	-11.267000	23.887106	0.000534	20.832053
459.122980	-3.000500	3.786900	-11.362000	23.945168	0.000534	20.831954
460.124004	-3.012200	3.787200	-11.407000	23.944518	0.000535	20.817078
461.124284	-3.005000	3.787000	-11.379000	23.923762	0.000535	20.847472
462.128221	-2.994600	3.788500	-11.344000	23.923240	0.000533	20.822768
463.124655	-2.976100	3.786700	-11.269000	23.925526	0.000535	20.822215
464.125443	-2.989300	3.784900	-11.313000	23.928289	0.000535	20.827830
465.128654	-3.008900	3.785100	-11.388000	23.925107	0.000534	20.814208
466.126120	-2.982800	3.785500	-11.290000	23.952748	0.000536	20.819642
467.134370	-2.988700	3.785800	-11.314000	23.955462	0.000534	20.810035
468.130102	-3.013200	3.785000	-11.404000	23.932860	0.000535	20.819613
469.128078	-3.020900	3.784200	-11.431000	23.950882	0.000534	20.817770
470.127911	-3.005100	3.784300	-11.371000	23.994505	0.000534	20.802721
471.128355	-3.010100	3.784100	-11.389000	24.003089	0.000535	20.828399
472.129530	-3.022000	3.782800	-11.431000	24.011275	0.000537	20.830918
473.130965	-3.009200	3.783100	-11.383000	24.010428	0.000536	20.827698
474.132112	-2.987100	3.784600	-11.303000	24.016727	0.000535	20.797505
475.131651	-2.974300	3.783200	-11.252000	24.048902	0.000535	20.814125
476.132051	-2.978900	3.782400	-11.267000	24.018988	0.000538	20.818264
477.135173	-2.993100	3.782600	-11.320000	24.005597	0.000536	20.839922
478.136392	-3.002800	3.781600	-11.354000	23.993456	0.000535	20.818264
479.133966	-3.002900	3.782700	-11.358000	24.000647	0.000536	20.809829
480.132810	-2.997600	3.782700	-11.337000	24.022647	0.000535	20.818141
481.134633	-3.013900	3.780100	-11.391000	24.048149	0.000537	20.810051
482.133150	-3.000800	3.781800	-11.348000	24.057506	0.000535	20.815168
483.135244	-2.985200	3.781500	-11.288000	24.065794	0.000536	20.803092
484.135703	-3.010200	3.780600	-11.379000	24.035881	0.000535	20.818136
485.136580	-3.001800	3.779700	-11.344000	24.015008	0.000538	20.796256
486.139617	-3.006000	3.779500	-11.360000	23.990718	0.000537	20.820734
487.139810	-2.998100	3.779800	-11.331000	23.990718	0.000538	20.824527
488.139062	-3.005400	3.779700	-11.358000	23.994776	0.000536	20.807260
489.143925	-2.997100	3.780100	-11.328000	24.000848	0.000539	20.809557
490.140140	-2.984900	3.779300	-11.281000	24.022149	0.000537	20.817642
491.137926	-3.023000	3.778600	-11.422000	24.044124	0.000538	20.823559
492.141647	-3.017000	3.778000	-11.397000	24.079204	0.000539	20.807058
493.137533	-3.013600	3.778400	-11.386000	24.105285	0.000540	20.814249
494.138898	-3.003500	3.778000	-11.346000	24.116730	0.000537	20.810080
495.139276	-3.015900	3.777200	-11.391000	24.116134	0.000538	20.798577
496.139418	-3.001700	3.778700	-11.342000	24.074353	0.000538	20.799348
497.141745	-3.016100	3.776300	-11.387000	24.106798	0.000538	20.808179
498.139500	-2.995600	3.778000	-11.316000	24.073851	0.000539	20.811646
499.138889	-2.990700	3.776500	-11.293000	24.081992	0.000540	20.804163
500.142876	-3.011800	3.776400	-11.373000	24.123196	0.000539	20.781478
501.148369	-3.028600	3.776000	-11.435000	24.143372	0.000541	20.810723
502.140200	-3.018000	3.776100	-11.395000	24.144067	0.000539	20.796721
503.139850	-3.009900	3.774500	-11.360000	24.136528	0.000540	20.793426
504.142140	-3.010600	3.773500	-11.359000	24.168724	0.000540	20.799166
505.140664	-3.004500	3.774900	-11.341000	24.121765	0.000540	20.809440
506.140859	-2.977800	3.775100	-11.240000	24.116918	0.000540	20.792725
507.139523	-3.014300	3.774700	-11.377000	24.076280	0.000540	20.797961
508.142398	-2.989600	3.774700	-11.284000	24.081160	0.000542	20.810442
509.140381	-2.999000	3.773300	-11.315000	24.086406	0.000539	20.799581
510.144376	-2.991400	3.773300	-11.286000	24.107951	0.000538	20.811707
511.143743	-3.003800	3.773300	-11.333000	24.129226	0.000542	20.785629
512.145903	-3.018100	3.772700	-11.385000	24.174831	0.000540	20.799602
513.147421	-2.973900	3.774500	-11.224000	24.198940	0.000540	20.798653
514.146183	-3.004800	3.773200	-11.337000	24.205036	0.000541	20.783905
515.146736	-3.025200	3.771500	-11.409000	24.179032	0.000539	20.797177
516.147559	-3.005400	3.770800	-11.332000	24.195705	0.000540	20.788296
517.148275	-3.017600	3.770800	-11.377000	24.211675	0.000541	20.787244
518.144911	-3.021500	3.769600	-11.389000	24.199930	0.000540	20.789215
519.148590	-2.988900	3.771700	-11.273000	24.192194	0.000540	20.789516
520.146776	-2.980800	3.771900	-11.242000	24.197518	0.000540	20.785847
521.147771	-3.009800	3.770600	-11.348000	24.189333	0.000539	20.789017
522.148392	-3.011900	3.770400	-11.355000	24.198754	0.000540	20.779975
523.146453	-3.017400	3.769800	-11.373000	24.209952	0.000539	20.814439
524.147335	-2.993200	3.770000	-11.283000	24.187561	0.000539	20.786291
525.148405	-3.014400	3.769700	-11.362000	24.189945	0.000538	20.794372
526.147667	-3.002700	3.769400	-11.317000	24.158222	0.000540	20.756864
527.149950	-3.034800	3.768300	-11.435000	24.193082	0.000538	20.769543
528.153574	-2.988600	3.770000	-11.266000	24.202581	0.000537	20.779071
529.149632	-3.012500	3.768200	-11.350000	24.229028	0.000539	20.795168
530.152440	-2.994400	3.768900	-11.285000	24.220988	0.000540	20.785206
531.150826	-3.003900	3.766500	-11.313000	24.231836	0.000539	20.788026
532.151480	-2.995600	3.767900	-11.286000	24.214818	0.000539	20.805570
533.152933	-3.005100	3.768000	-11.322000	24.226257	0.000540	20.803294
534.150934	-3.006000	3.767100	-11.323000	24.214267	0.000538	20.790793
535.154649	-3.011400	3.766400	-11.342000	24.221727	0.000537	20.774094
536.149119	-2.993300	3.767500	-11.277000	24.253620	0.000540	20.802291
537.156166	-3.022100	3.765600	-11.379000	24.307659	0.000538	20.781107
538.149313	-2.992000	3.766500	-11.268000	24.325543	0.000540	20.794305
539.150505	-3.010900	3.765100	-11.335000	24.261549	0.000537	20.790804
540.152561	-3.002500	3.766000	-11.306000	24.261578	0.000539	20.780402
541.153749	-2.990000	3.764800	-11.256000	24.278389	0.000539	20.774979
542.152581	-2.984600	3.764600	-11.235000	24.286277	0.000537	20.775779
543.158260	-3.007200	3.766000	-11.324000	24.255601	0.000538	20.785786
544.153853	-2.997800	3.764500	-11.285000	24.229976	0.000539	20.773359
545.152679	-2.999000	3.764400	-11.289000	24.209271	0.000539	20.787204
546.154947	-3.030800	3.762700	-11.403000	24.206735	0.000538	20.771858
547.154362	-3.006100	3.764500	-11.316000	24.209448	0.000540	20.770312
548.152704	-2.992100	3.764900	-11.264000	24.244128	0.000538	20.790874
549.152090	-3.011900	3.763200	-11.333000	24.280896	0.000539	20.768485
550.154831	-3.022000	3.763700	-11.373000	24.283604	0.000538	20.781633
551.157991	-2.996700	3.763900	-11.278000	24.303831	0.000541	20.792914
552.153832	-3.005100	3.761300	-11.302000	24.350892	0.000538	20.769473
553.155922	-2.991500	3.762600	-11.255000	24.332014	0.000537	20.765235
554.154582	-2.983000	3.763100	-11.224000	24.326145	0.000536	20.792065
555.160801	-3.001100	3.761800	-11.288000	24.321941	0.000539	20.788795
556.157006	-2.985000	3.762800	-11.231000	24.343482	0.000539	20.780532
557.154768	-2.979500	3.762500	-11.209000	24.367464	0.000539	20.774718
558.158903	-2.994800	3.760400	-11.260000	24.385100	0.000538	20.789566
559.161219	-3.004400	3.760800	-11.298000	24.363530	0.000539	20.762712
560.156335	-2.993600	3.760900	-11.258000	24.363033	0.000539	20.747039
561.156878	-3.022300	3.760600	-11.364000	24.368158	0.000539	20.769251
562.159302	-2.981500	3.761100	-11.213000	24.395494	0.000539	20.763957
563.161186	-2.993600	3.759700	-11.254000	24.423679	0.000539	20.782276
564.160663	-2.987900	3.760700	-11.235000	24.439000	0.000539	20.769671
565.159334	-2.974900	3.760200	-11.185000	24.440763	0.000539	20.759111
566.157155	-3.019200	3.758800	-11.347000	24.414473	0.000541	20.770195
567.158683	-2.998300	3.759700	-11.272000	24.411736	0.000538	20.782148
568.162791	-3.005300	3.757700	-11.292000	24.402603	0.000541	20.740268
569.164235	-3.013600	3.757600	-11.323000	24.366033	0.000541	20.749100
570.158659	-2.996500	3.758200	-11.262000	24.358396	0.000539	20.740965
571.164485	-2.998100	3.757400	-11.264000	24.334689	0.000539	20.780247
572.163141	-2.990700	3.758700	-11.240000	24.363271	0.000538	20.755338
573.159977	-3.024700	3.756600	-11.361000	24.368840	0.000540	20.760451
574.160854	-3.021500	3.756300	-11.349000	24.377948	0.000538	20.766269
575.161807	-2.984200	3.757400	-11.212000	24.401698	0.000538	20.752637
576.160653	-3.000400	3.757900	-11.274000	24.363788	0.000537	20.740684
577.160519	-2.999600	3.758000	-11.272000	24.358063	0.000539	20.767184
578.162043	-2.998900	3.755800	-11.262000	24.358688	0.000538	20.745050
579.160346	-2.987600	3.756100	-11.221000	24.392591	0.000540	20.740655
580.160053	-3.000600	3.755300	-11.267000	24.412688	0.000537	20.757972
581.160440	-2.985100	3.754900	-11.208000	24.402117	0.000538	20.757799
582.159550	-3.003800	3.754600	-11.277000	24.410744	0.000539	20.752703
583.161424	-3.003300	3.754500	-11.275000	24.406662	0.000539	20.758566
584.161544	-3.002800	3.754000	-11.272000	24.419345	0.000538	20.758487
585.160323	-2.964500	3.754700	-11.129000	24.387432	0.000539	20.764404
586.159745	-3.005500	3.754900	-11.284000	24.358103	0.000537	20.748732
587.163160	-3.007100	3.754100	-11.288000	24.354391	0.000538	20.736473
588.162266	-2.988200	3.753700	-11.216000	24.358468	0.000535	20.734873
589.166767	-2.997200	3.754200	-11.251000	24.364613	0.000538	20.755262
590.162166	-2.988400	3.753500	-11.215000	24.369463	0.000538	20.765818
591.164247	-2.968800	3.754600	-11.145000	24.372298	0.000536	20.757757
592.161531	-2.982200	3.754800	-11.196000	24.381328	0.000536	20.752590
593.162262	-2.976600	3.753900	-11.173000	24.387316	0.000534	20.769977
594.165864	-2.996700	3.751900	-11.242000	24.383707	0.000535	20.750235
595.164052	-2.985700	3.752500	-11.203000	24.377789	0.000535	20.751885
596.164152	-2.993300	3.752100	-11.231000	24.406768	0.000536	20.766258
597.166633	-3.005400	3.750900	-11.271000	24.436145	0.000535	20.753056
598.163457	-2.990500	3.751000	-11.217000	24.459451	0.000534	20.762213
599.168895	-2.996900	3.751900	-11.243000	24.461243	0.000536	20.751208
600.168114	-2.971500	3.752000	-11.148000	24.465718	0.000538	20.753802
601.169562	-3.006600	3.750500	-11.275000	24.416837	0.000535	20.759290
602.166026	-2.994000	3.750000	-11.227000	24.391290	0.000535	20.745040
603.167479	-2.982500	3.750300	-11.184000	24.413676	0.000536	20.767973
604.164314	-2.970400	3.750100	-11.138000	24.387780	0.000535	20.757166
605.165659	-2.997700	3.749600	-11.240000	24.395071	0.000538	20.743617
606.167809	-2.980200	3.749500	-11.174000	24.441089	0.000534	20.732884
607.165085	-2.996000	3.749400	-11.233000	24.477554	0.000536	20.735804
608.166028	-2.996300	3.748100	-11.228000	24.462755	0.000535	20.729965
609.165487	-2.971000	3.748100	-11.135000	24.472080	0.000535	20.730785
610.164950	-2.984000	3.748200	-11.183000	24.465512	0.000538	20.752173
611.164771	-2.991600	3.747400	-11.209000	24.484215	0.000533	20.755764
612.166077	-2.985200	3.748400	-11.188000	24.489216	0.000534	20.738496
613.165135	-2.992800	3.748300	-11.217000	24.452604	0.000535	20.743015
614.165746	-2.985200	3.746800	-11.184000	24.473399	0.000535	20.755818
615.167900	-2.992000	3.746900	-11.210000	24.439194	0.000535	20.736199
616.168581	-2.999900	3.746500	-11.239000	24.402801	0.000536	20.739993
617.167936	-3.014900	3.745300	-11.291000	24.379814	0.000533	20.741114
618.167364	-2.997500	3.745300	-11.225000	24.369613	0.000534	20.757434
619.170109	-3.018200	3.745300	-11.302000	24.408197	0.000534	20.740665
620.167238	-2.985500	3.746500	-11.184000	24.457675	0.000533	20.742887
621.172163	-2.997400	3.746100	-11.228000	24.473119	0.000535	20.739889
622.168314	-2.985300	3.745700	-11.181000	24.534236	0.000535	20.736249
623.169559	-2.999500	3.745400	-11.233000	24.486007	0.000534	20.756613
624.169038	-2.993300	3.745100	-11.209000	24.490383	0.000534	20.737296
625.168990	-3.017900	3.743700	-11.297000	24.498521	0.000536	20.739296
626.170958	-2.981000	3.744300	-11.160000	24.512797	0.000535	20.738446
627.170532	-3.012000	3.741700	-11.269000	24.506210	0.000535	20.729940
628.169935	-2.983700	3.744000	-11.170000	24.563215	0.000535	20.738772
629.168537	-3.003900	3.743800	-11.246000	24.557598	0.000536	20.743568
630.170151	-3.022400	3.741500	-11.308000	24.580030	0.000534	20.733358
631.171055	-2.981800	3.743400	-11.161000	24.600227	0.000537	20.738925
632.171888	-3.003200	3.743400	-11.241000	24.561280	0.000534	20.733037
633.170837	-3.010400	3.742800	-11.267000	24.570209	0.000534	20.721607
634.171311	-3.016000	3.741100	-11.282000	24.557725	0.000536	20.730419
635.173113	-2.988600	3.741700	-11.181000	24.551828	0.000535	20.727347
636.171210	-2.979700	3.742000	-11.149000	24.530936	0.000533	20.727248
637.171059	-2.993100	3.741900	-11.199000	24.535268	0.000534	20.723533
638.169580	-3.008000	3.740500	-11.250000	24.533953	0.000534	20.719369
639.174375	-2.984600	3.742300	-11.168000	24.533033	0.000534	20.744999
640.169793	-2.993100	3.740600	-11.195000	24.578153	0.000534	20.748545
641.170763	-2.982500	3.739800	-11.153000	24.577159	0.000532	20.736641
642.174243	-3.002500	3.739100	-11.226000	24.598946	0.000533	20.717249
643.173456	-2.978200	3.741000	-11.141000	24.573329	0.000534	20.742282
644.170483	-3.011700	3.738000	-11.256000	24.576420	0.000532	20.734477
645.172037	-2.993200	3.738700	-11.190000	24.609794	0.000532	20.728135
646.169868	-2.967400	3.739600	-11.096000	24.588484	0.000531	20.734729
647.173018	-3.009500	3.738100	-11.248000	24.564330	0.000531	20.742736
648.171827	-2.997900	3.737600	-11.204000	24.572314	0.000533	20.734151
649.171170	-3.026500	3.735900	-11.305000	24.577020	0.000532	20.733183
650.171778	-3.018000	3.736800	-11.276000	24.615995	0.000534	20.726771
651.171190	-2.997100	3.737000	-11.199000	24.639873	0.000532	20.728445
652.170689	-3.000100	3.737200	-11.210000	24.635620	0.000534	20.736506
653.172457	-3.011200	3.736100	-11.249000	24.613883	0.000532	20.742197
654.172041	-3.000300	3.738000	-11.214000	24.665340	0.000531	20.726499
655.173166	-2.994900	3.736200	-11.188000	24.621296	0.000534	20.709804
656.173107	-2.980900	3.736600	-11.138000	24.651760	0.000534	20.731365
657.172962	-2.987400	3.736500	-11.162000	24.652139	0.000532	20.745495
658.184692	-3.021000	3.734500	-11.280000	24.661589	0.000532	20.722735
659.176182	-2.993500	3.736300	-11.183000	24.663278	0.000530	20.732965
660.173905	-2.988700	3.735600	-11.164000	24.637466	0.000530	20.738832
661.176070	-3.008300	3.734900	-11.235000	24.634527	0.000529	20.730668
662.176669	-2.986300	3.736700	-11.158000	24.624185	0.000530	20.734041
663.175509	-3.008400	3.733900	-11.232000	24.594189	0.000530	20.771274
664.177145	-2.999900	3.734800	-11.204000	24.585904	0.000530	20.733562
665.182100	-3.007100	3.733800	-11.227000	24.578865	0.000528	20.738828
666.175494	-2.997100	3.733700	-11.190000	24.600381	0.000530	20.740028
667.181188	-2.997400	3.733200	-11.189000	24.630619	0.000527	20.745714
668.179279	-2.989600	3.733500	-11.160000	24.661462	0.000528	20.747264
669.176560	-2.993600	3.732700	-11.173000	24.641217	0.000528	20.747812
670.180117	-2.994600	3.732400	-11.177000	24.692101	0.000528	20.738655
671.180390	-3.003200	3.732400	-11.208000	24.666684	0.000527	20.750608
672.178931	-3.001600	3.733300	-11.206000	24.645691	0.000529	20.738551
673.181838	-3.015600	3.731700	-11.252000	24.637013	0.000527	20.733162
674.184123	-3.004200	3.731100	-11.208000	24.688937	0.000529	20.741644
675.181082	-2.992700	3.733100	-11.171000	24.678965	0.000528	20.724050
676.183405	-3.015100	3.731300	-11.249000	24.662156	0.000526	20.741797
677.181776	-3.008900	3.732000	-11.228000	24.635620	0.000526	20.741248
678.182271	-2.996700	3.731800	-11.182000	24.633036	0.000528	20.759993
679.181815	-3.001700	3.730300	-11.197000	24.671557	0.000527	20.776836
680.182876	-3.002300	3.730900	-11.201000	24.681332	0.000527	20.751082
681.182691	-2.984300	3.731100	-11.134000	24.683916	0.000526	20.730915
682.184793	-3.007800	3.729400	-11.217000	24.685979	0.000526	20.767125
683.183182	-3.026700	3.728500	-11.284000	24.681155	0.000526	20.744740
684.182039	-3.009500	3.728700	-11.221000	24.717391	0.000526	20.763085
685.183092	-3.003600	3.728700	-11.197000	24.701326	0.000526	20.750756
686.183500	-3.001600	3.729300	-11.193000	24.739898	0.000526	20.744893
687.186401	-3.010600	3.729300	-11.226000	24.689094	0.000525	20.754604
688.184255	-2.993900	3.727700	-11.159000	24.663927	0.000524	20.747367
689.183872	-2.999700	3.727100	-11.179000	24.680289	0.000526	20.750509
690.188252	-3.006400	3.727100	-11.204000	24.665419	0.000526	20.739381
691.185390	-2.982900	3.727600	-11.118000	24.664223	0.000526	20.752406
692.185391	-3.005800	3.727600	-11.203000	24.675617	0.000525	20.742028
693.187614	-2.997400	3.727400	-11.172000	24.695290	0.000527	20.747545
694.186079	-2.997000	3.727700	-11.171000	24.685043	0.000523	20.739158
695.185898	-2.990500	3.727800	-11.147000	24.685594	0.000524	20.743030
696.193498	-3.014800	3.726900	-11.235000	24.664256	0.000523	20.741533
697.184989	-2.978200	3.725400	-11.094000	24.656017	0.000524	20.747017
698.189612	-2.988800	3.725100	-11.133000	24.688901	0.000523	20.761997
699.192367	-3.003300	3.725300	-11.187000	24.685717	0.000523	20.752163
700.187151	-2.980300	3.725200	-11.101000	24.690841	0.000523	20.731699
701.188795	-2.991100	3.726300	-11.145000	24.748963	0.000523	20.749723
702.191125	-2.984900	3.724000	-11.115000	24.769673	0.000523	20.751066
703.187174	-2.992300	3.725500	-11.147000	24.734439	0.000523	20.741311
704.187884	-2.993300	3.723800	-11.144000	24.718772	0.000523	20.739814
705.187862	-3.005000	3.723500	-11.188000	24.704729	0.000521	20.741844
706.187969	-3.011200	3.724400	-11.214000	24.713702	0.000523	20.768393
707.191739	-2.989100	3.723400	-11.129000	24.705493	0.000524	20.764896
708.188689	-3.009700	3.723400	-11.205000	24.711664	0.000521	20.757813
709.193330	-2.994100	3.722300	-11.144000	24.681375	0.000524	20.756341
710.186992	-2.984200	3.723300	-11.110000	24.733646	0.000521	20.771811
711.191046	-3.008200	3.722800	-11.198000	24.718156	0.000521	20.751525
712.192337	-2.994800	3.723000	-11.149000	24.736382	0.000523	20.750848
713.188949	-2.964900	3.721900	-11.034000	24.747948	0.000520	20.758188
714.188507	-2.998100	3.722400	-11.159000	24.741653	0.000524	20.769415
715.188780	-2.997700	3.722500	-11.159000	24.739291	0.000522	20.761828
716.188883	-3.017900	3.720700	-11.228000	24.732578	0.000522	20.769316
717.189236	-2.976100	3.722600	-11.078000	24.756773	0.000523	20.756613
718.191262	-2.974200	3.721500	-11.067000	24.759234	0.000523	20.760979
719.187720	-3.010400	3.720100	-11.198000	24.745675	0.000523	20.764916
720.190776	-3.003500	3.721100	-11.176000	24.771691	0.000521	20.761152
721.191711	-3.006100	3.720100	-11.181000	24.853968	0.000522	20.741781
722.189990	-2.996400	3.721100	-11.149000	24.812496	0.000521	20.747574
723.190147	-3.003800	3.718100	-11.168000	24.770717	0.000522	20.762071
724.193064	-3.016800	3.718500	-11.217000	24.769673	0.000522	20.770033
725.190215	-2.996000	3.718300	-11.139000	24.775014	0.000520	20.769229
726.189929	-2.974700	3.721100	-11.068000	24.779045	0.000521	20.764739
727.191518	-2.994400	3.718600	-11.134000	24.812388	0.000519	20.755053
728.194019	-2.995500	3.720100	-11.143000	24.808732	0.000521	20.776514
729.192202	-3.008900	3.716600	-11.182000	24.800843	0.000520	20.760536
730.191841	-2.992700	3.718200	-11.126000	24.778691	0.000520	20.752529
731.195899	-2.989700	3.718100	-11.115000	24.777845	0.000520	20.758793
732.194350	-3.012300	3.715900	-11.192000	24.789106	0.000519	20.778629
733.196945	-3.014600	3.717900	-11.207000	24.803653	0.000519	20.755770
734.193862	-3.025900	3.716800	-11.246000	24.842390	0.000519	20.771887
735.192860	-2.991200	3.717300	-11.119000	24.865811	0.000521	20.774056
736.197083	-3.024300	3.716700	-11.240000	24.842567	0.000517	20.771591
737.192754	-3.010100	3.716200	-11.185000	24.861908	0.000519	20.768242
738.194119	-3.004900	3.716900	-11.169000	24.896347	0.000518	20.779573
739.195190	-2.992700	3.715900	-11.120000	24.896987	0.000516	20.755085
740.197453	-2.981700	3.716400	-11.079000	24.863720	0.000516	20.776225
741.199943	-3.002000	3.713800	-11.148000	24.832612	0.000519	20.763496
742.196851	-3.008100	3.715200	-11.175000	24.812494	0.000517	20.770332
743.197179	-2.978700	3.716100	-11.068000	24.829428	0.000519	20.788276
744.199908	-3.007300	3.714900	-11.171000	24.836638	0.000518	20.777020
745.195092	-2.962400	3.716300	-11.009000	24.823784	0.000515	20.777870
746.195197	-3.014900	3.714600	-11.197000	24.805132	0.000516	20.795661
747.202096	-2.964800	3.714900	-11.013000	24.841437	0.000517	20.791319
748.196525	-2.993300	3.713600	-11.115000	24.820078	0.000517	20.784582
749.195912	-2.987700	3.715100	-11.098000	24.824749	0.000516	20.790692
750.196130	-3.002300	3.714000	-11.150000	24.857200	0.000517	20.779164
751.196811	-2.991300	3.713800	-11.108000	24.835069	0.000517	20.791092
752.200554	-2.950400	3.715500	-10.961000	24.837653	0.000516	20.764762
753.202870	-3.013400	3.712400	-11.186000	24.838351	0.000515	20.774472
754.200301	-3.017100	3.712300	-11.199000	24.805949	0.000514	20.778937
755.197676	-2.999900	3.713000	-11.137000	24.797568	0.000514	20.786173
756.201541	-3.010900	3.710900	-11.172000	24.796101	0.000513	20.782330
757.202981	-3.006100	3.712300	-11.159000	24.806668	0.000514	20.774917
758.200675	-2.993400	3.711500	-11.109000	24.784215	0.000516	20.790317
759.201864	-2.996500	3.711300	-11.120000	24.809207	0.000515	20.797854
760.205238	-3.016200	3.710800	-11.191000	24.844361	0.000514	20.789038
761.202341	-3.008200	3.710500	-11.161000	24.834493	0.000511	20.784351
762.203273	-2.995400	3.711500	-11.116000	24.826117	0.000514	20.790643
763.202626	-3.002400	3.710900	-11.140000	24.824223	0.000514	20.793483
764.201968	-3.007900	3.710300	-11.158000	24.837702	0.000514	20.805114
765.203421	-2.993000	3.710500	-11.105000	24.833199	0.000515	20.794431
766.202197	-3.007400	3.710100	-11.157000	24.867988	0.000512	20.799000
767.202662	-3.011200	3.709800	-11.170000	24.859011	0.000513	20.785249
768.201921	-3.014300	3.709100	-11.179000	24.882908	0.000512	20.802595
769.206819	-3.011100	3.710000	-11.170000	24.910678	0.000513	20.793009
770.210490	-3.008000	3.708900	-11.155000	24.894665	0.000512	20.808705
771.204030	-2.994800	3.709100	-11.106000	24.885891	0.000512	20.782829
772.203398	-3.022700	3.708400	-11.208000	24.891860	0.000511	20.805416
773.203603	-3.013700	3.706700	-11.170000	24.895684	0.000512	20.787917
774.204298	-3.004200	3.708100	-11.138000	24.849090	0.000513	20.795681
775.205059	-2.987800	3.707800	-11.077000	24.888450	0.000511	20.791088
776.206251	-3.009500	3.707400	-11.156000	24.905831	0.000514	20.796204
777.208351	-2.994600	3.708500	-11.105000	24.915624	0.000512	20.792283
778.206273	-2.978200	3.708100	-11.042000	24.891182	0.000514	20.803787
779.209189	-3.000800	3.706800	-11.122000	24.856969	0.000511	20.802166
780.209655	-2.988200	3.707000	-11.077000	24.878406	0.000512	20.805663
781.205453	-3.012800	3.706700	-11.166000	24.889222	0.000511	20.815096
782.210751	-2.997100	3.707800	-11.111000	24.910403	0.000513	20.797474
783.210193	-3.008900	3.705200	-11.148000	24.922419	0.000512	20.812379
784.207292	-3.022300	3.705600	-11.198000	24.923778	0.000510	20.812321
785.209540	-2.997000	3.706200	-11.107000	24.896756	0.000510	20.812227
786.210962	-2.992800	3.706800	-11.092000	24.896880	0.000511	20.800497
787.208698	-2.997100	3.703500	-11.099000	24.896732	0.000512	20.808409
788.210258	-2.971900	3.706600	-11.014000	24.926765	0.000509	20.819112
789.217090	-3.003700	3.705300	-11.129000	24.909857	0.000510	20.819685
790.207652	-2.987900	3.704300	-11.066000	24.914905	0.000510	20.822382
791.208772	-2.987400	3.705300	-11.067000	24.923084	0.000509	20.814944
792.212042	-2.988800	3.703300	-11.068000	24.905157	0.000510	20.818761
793.208779	-2.999000	3.704000	-11.107000	24.916643	0.000509	20.807530
794.209069	-2.973500	3.704800	-11.016000	24.952147	0.000510	20.838898
795.208962	-2.998800	3.703100	-11.104000	24.896374	0.000509	20.809472
796.210119	-3.017500	3.701800	-11.169000	24.856792	0.000508	20.820481
797.209129	-2.994700	3.703200	-11.089000	24.856148	0.000508	20.810350
798.210091	-2.989800	3.701900	-11.067000	24.879272	0.000509	20.822179
799.210382	-2.985300	3.703300	-11.055000	24.943320	0.000511	20.814865
800.209279	-3.000000	3.700900	-11.101000	24.979817	0.000506	20.823049
801.211699	-3.000100	3.702000	-11.106000	24.969125	0.000508	20.823696
802.212443	-2.979000	3.702900	-11.030000	24.952418	0.000506	20.827316
803.210067	-3.013700	3.699800	-11.149000	24.972554	0.000508	20.821923
804.214188	-2.993400	3.702700	-11.083000	24.993537	0.000507	20.823544
805.221019	-2.996500	3.701300	-11.090000	24.978346	0.000505	20.837694
806.213429	-2.997800	3.700700	-11.093000	24.995598	0.000504	20.813285
807.212905	-3.004600	3.700700	-11.118000	24.955893	0.000505	20.821321
808.214410	-3.007800	3.700100	-11.128000	24.986775	0.000504	20.822447
809.212354	-2.988400	3.701100	-11.059000	24.978194	0.000506	20.811463
810.212625	-3.008100	3.699200	-11.126000	24.975306	0.000504	20.827530
811.214743	-2.993200	3.699400	-11.072000	24.953753	0.000505	20.840035
812.211090	-2.992800	3.699200	-11.070000	24.922476	0.000504	20.817652
813.214851	-3.001200	3.698900	-11.099000	24.936323	0.000503	20.832498
814.213310	-3.010600	3.698100	-11.132000	24.974464	0.000505	20.824788
815.217193	-3.009400	3.697900	-11.128000	24.976457	0.000504	20.850969
816.213864	-2.998300	3.697900	-11.087000	24.980059	0.000504	20.824240
817.213920	-2.983000	3.697800	-11.030000	24.968500	0.000504	20.835397
818.216275	-2.992700	3.697200	-11.064000	24.992366	0.000503	20.810041
819.218531	-2.970800	3.698000	-10.985000	24.970168	0.000502	20.836597
820.214714	-3.001200	3.697000	-11.094000	24.946725	0.000502	20.841042
821.216597	-3.001200	3.697300	-11.095000	24.973450	0.000500	20.825193
822.220479	-2.995100	3.698400	-11.076000	24.972834	0.000503	20.827420
823.217109	-2.987000	3.697700	-11.044000	25.012116	0.000504	20.838873
824.219114	-3.006400	3.696500	-11.113000	25.004936	0.000503	20.842098
825.219267	-3.004900	3.696300	-11.106000	24.987212	0.000502	20.822885
826.216753	-2.986700	3.697000	-11.040000	25.030173	0.000501	20.833765
827.219074	-3.023200	3.695300	-11.171000	24.982985	0.000500	20.820065
828.219432	-2.993200	3.695000	-11.059000	25.021901	0.000500	20.847747
829.222272	-2.951700	3.696500	-10.910000	25.001864	0.000501	20.844704
830.218182	-3.005000	3.695700	-11.104000	24.956593	0.000500	20.852843
831.218363	-2.976900	3.696000	-11.002000	24.957419	0.000499	20.850353
832.220026	-3.020600	3.694300	-11.158000	24.985241	0.000501	20.832286
833.218963	-2.992500	3.694200	-11.054000	24.972438	0.000500	20.835082
834.217492	-2.989800	3.694900	-11.045000	24.986211	0.000500	20.839897
835.223020	-2.981000	3.694300	-11.012000	25.004638	0.000501	20.842747
836.217803	-2.989800	3.693400	-11.041000	25.033482	0.000501	20.823810
837.220464	-2.987600	3.693400	-11.033000	25.040892	0.000501	20.846421
838.226687	-2.947000	3.696100	-10.892000	25.061084	0.000499	20.855310
839.220778	-2.998700	3.693100	-11.074000	25.067451	0.000499	20.841787
840.219849	-2.988200	3.692300	-11.033000	25.075279	0.000499	20.854386
841.225811	-2.975000	3.693600	-10.988000	25.089326	0.000497	20.848573
842.227358	-2.983700	3.692800	-11.017000	25.066211	0.000497	20.850973
843.219793	-2.991400	3.690800	-11.040000	25.071731	0.000498	20.828540
844.221391	-2.989100	3.691400	-11.033000	25.025391	0.000498	20.853146
845.220893	-2.984400	3.691400	-11.015000	25.039044	0.000496	20.851204
846.224518	-2.993100	3.691100	-11.046000	25.053466	0.000499	20.864732
847.221793	-2.983100	3.692400	-11.014000	25.046607	0.000495	20.846942
848.222489	-2.961000	3.692500	-10.933000	25.046562	0.000496	20.870603
849.220564	-2.994700	3.691100	-11.053000	25.046217	0.000495	20.856982
850.225180	-2.990500	3.690600	-11.036000	25.046587	0.000493	20.864938
851.225124	-2.978200	3.691500	-10.993000	25.024612	0.000497	20.845252
852.226742	-3.001100	3.690100	-11.072000	25.023913	0.000493	20.871576
853.226314	-2.985100	3.690400	-11.015000	25.062080	0.000495	20.844930
854.225224	-2.992700	3.689500	-11.040000	25.063896	0.000494	20.849124
855.224748	-2.991700	3.690200	-11.039000	25.112818	0.000495	20.858878
856.230203	-3.024500	3.687500	-11.152000	25.117570	0.000493	20.857959
857.230044	-3.004900	3.689700	-11.087000	25.152349	0.000492	20.873906
858.224885	-3.004900	3.688300	-11.082000	25.131715	0.000491	20.864572
859.229785	-2.996200	3.690200	-11.056000	25.111636	0.000493	20.854847
860.228554	-3.023100	3.687500	-11.148000	25.123813	0.000492	20.855692
861.227267	-3.006000	3.688400	-11.087000	25.099503	0.000491	20.890080
862.225666	-2.982200	3.688800	-11.000000	25.155537	0.000492	20.888959
863.226998	-2.982300	3.687800	-10.997000	25.168983	0.000493	20.855993
864.228187	-2.980800	3.689300	-10.996000	25.140152	0.000490	20.871619
865.226384	-3.021900	3.686500	-11.140000	25.100177	0.000491	20.840973
866.227298	-3.003900	3.687100	-11.075000	25.071339	0.000490	20.875086
867.227683	-3.003100	3.687300	-11.072000	25.087448	0.000492	20.877032
868.226539	-2.987800	3.687500	-11.017000	25.067910	0.000489	20.874488
869.226050	-3.016400	3.686000	-11.117000	25.040341	0.000492	20.877160
870.229638	-2.993300	3.687900	-11.038000	25.044769	0.000489	20.872122
871.226792	-3.000100	3.686400	-11.059000	25.070271	0.000489	20.855049
872.226969	-3.005300	3.686300	-11.078000	25.071516	0.000489	20.870048
873.228770	-3.009800	3.685900	-11.093000	25.060229	0.000489	20.861089
874.225773	-2.994400	3.685400	-11.034000	25.050388	0.000489	20.867806
875.228204	-2.998000	3.684900	-11.046000	25.066989	0.000490	20.898219
876.231339	-3.020800	3.684000	-11.128000	25.093765	0.000489	20.865356
877.231891	-2.983800	3.684900	-10.994000	25.068957	0.000490	20.862264
878.239377	-2.971600	3.684600	-10.948000	25.045261	0.000488	20.879728
879.235697	-2.984100	3.684400	-10.994000	25.039076	0.000489	20.875890
880.231694	-2.983600	3.682900	-10.987000	25.040862	0.000491	20.885269
881.232381	-2.987600	3.684900	-11.008000	25.070021	0.000488	20.896046
882.236142	-3.011600	3.683600	-11.093000	25.105200	0.000490	20.897695
883.234790	-2.994700	3.683400	-11.030000	25.135700	0.000487	20.879002
884.235581	-3.005200	3.683400	-11.068000	25.173061	0.000488	20.886638
885.237485	-3.007600	3.682000	-11.072000	25.204258	0.000489	20.875284
886.238698	-2.995400	3.681800	-11.026000	25.180397	0.000484	20.897794
887.239852	-2.989100	3.681700	-11.004000	25.173706	0.000484	20.884440
888.238477	-3.014300	3.680500	-11.094000	25.187501	0.000484	20.887384
889.238998	-3.002100	3.681000	-11.050000	25.203588	0.000485	20.899266
890.239641	-2.996800	3.681400	-11.031000	25.163069	0.000483	20.871866
891.249277	-3.025700	3.679500	-11.131000	25.153668	0.000484	20.900832
892.240976	-3.001400	3.680600	-11.046000	25.172885	0.000483	20.885986
893.239910	-2.996500	3.680800	-11.029000	25.190463	0.000484	20.884667
894.241195	-3.000400	3.679500	-11.039000	25.170248	0.000484	20.879072
895.242378	-3.027900	3.679700	-11.139000	25.201596	0.000483	20.879724
896.240958	-2.997100	3.679500	-11.027000	25.163217	0.000483	20.883393
897.240053	-3.001700	3.679300	-11.043000	25.163635	0.000484	20.878124
898.243541	-3.007900	3.678100	-11.062000	25.157800	0.000483	20.882697
899.240516	-3.003300	3.678800	-11.047000	25.119242	0.000483	20.876706
900.239998	-2.984400	3.680300	-10.983000	25.153992	0.000482	20.877926
901.244506	-2.993600	3.678500	-11.011000	25.164560	0.000483	20.888534
902.239697	-3.020000	3.677400	-11.105000	25.173308	0.000482	20.890204
903.240446	-3.022900	3.676300	-11.113000	25.152506	0.000481	20.874538
904.244810	-2.990300	3.677300	-10.996000	25.139523	0.000484	20.893271
905.243105	-3.003600	3.676900	-11.043000	25.155508	0.000483	20.875180
906.241230	-2.991700	3.677700	-11.001000	25.169180	0.000483	20.877526
907.248589	-2.981400	3.677000	-10.962000	25.179600	0.000481	20.859065
908.241763	-3.003300	3.676300	-11.040000	25.165028	0.000480	20.879047
909.246513	-3.000800	3.676800	-11.032000	25.196549	0.000481	20.880820
910.245222	-2.990200	3.675800	-10.989000	25.200052	0.000482	20.863475
911.246440	-3.017900	3.676100	-11.093000	25.174995	0.000478	20.861554
912.244842	-2.995600	3.674800	-11.007000	25.131469	0.000478	20.877126
913.247718	-3.003500	3.675800	-11.039000	25.109467	0.000479	20.853144
914.243347	-3.009500	3.674200	-11.057000	25.155306	0.000480	20.852220
915.243602	-3.002400	3.674400	-11.032000	25.146377	0.000479	20.861273
916.245128	-3.001500	3.675100	-11.029000	25.163853	0.000479	20.857006
917.242507	-2.987500	3.673600	-10.974000	25.179242	0.000478	20.861076
918.242267	-2.982800	3.675000	-10.960000	25.193308	0.000477	20.863343
919.244526	-3.001400	3.673100	-11.023000	25.167951	0.000474	20.861121
920.246620	-2.967100	3.675000	-10.904000	25.199320	0.000478	20.868430
921.244902	-3.001100	3.673000	-11.022000	25.187163	0.000478	20.846744
922.244408	-3.011900	3.671500	-11.057000	25.179183	0.000477	20.846793
923.248189	-3.000900	3.673100	-11.021000	25.184276	0.000477	20.856173
924.244134	-2.965500	3.673000	-10.891000	25.184777	0.000474	20.830599
925.246154	-3.007300	3.672200	-11.042000	25.217041	0.000475	20.853031
926.248487	-2.989400	3.672500	-10.977000	25.220121	0.000477	20.861339
927.246225	-2.995600	3.671200	-10.996000	25.221887	0.000476	20.861215
928.246626	-3.036000	3.671400	-11.145000	25.218084	0.000477	20.849811
929.249649	-2.972000	3.672300	-10.913000	25.198666	0.000477	20.859240
930.284393	-3.000600	3.671100	-11.015000	25.217085	0.000474	20.848335
931.248790	-2.989700	3.670900	-10.974000	25.245751	0.000474	20.847717
932.249691	-2.983900	3.671400	-10.954000	25.258498	0.000472	20.859092
933.251414	-3.008400	3.669700	-11.039000	25.223377	0.000474	20.845643
934.249288	-2.994400	3.669100	-10.985000	25.209057	0.000473	20.860188
935.247831	-3.006400	3.669200	-11.030000	25.197151	0.000473	20.859615
936.251851	-3.006500	3.668900	-11.030000	25.225989	0.000474	20.837834
937.249688	-2.999100	3.669600	-11.005000	25.241225	0.000473	20.829423
938.248952	-2.983300	3.670400	-10.949000	25.268711	0.000474	20.831888
939.255189	-2.997000	3.669600	-10.997000	25.240129	0.000474	20.847762
940.249499	-2.987600	3.668300	-10.959000	25.245299	0.000474	20.857220
941.249626	-2.993900	3.669100	-10.984000	25.235500	0.000473	20.844063
942.253006	-3.023200	3.667400	-11.086000	25.200256	0.000474	20.828120
943.250321	-2.999900	3.668300	-11.004000	25.196226	0.000472	20.850153
944.251193	-2.982500	3.668400	-10.939000	25.192621	0.000473	20.827567
945.250543	-3.003600	3.666900	-11.012000	25.167264	0.000473	20.832457
946.253320	-3.030800	3.666800	-11.112000	25.219310	0.000473	20.821172
947.252300	-2.991000	3.667100	-10.968000	25.232628	0.000471	20.847344
948.253331	-3.009000	3.665900	-11.030000	25.249729	0.000470	20.852184
949.252645	-3.030200	3.666500	-11.110000	25.273888	0.000472	20.844672
950.253971	-3.005300	3.666700	-11.019000	25.273736	0.000473	20.850209
951.254481	-3.003200	3.665400	-11.006000	25.259711	0.000471	20.838974
952.259062	-3.007400	3.664900	-11.021000	25.260804	0.000472	20.827743
953.254182	-3.019600	3.665400	-11.068000	25.287246	0.000471	20.832006
954.253972	-3.009000	3.664900	-11.027000	25.253337	0.000472	20.846798
955.256443	-2.993300	3.665200	-10.970000	25.283907	0.000470	20.849515
956.256603	-2.991200	3.664600	-10.960000	25.245221	0.000470	20.853349
957.258793	-2.988900	3.664700	-10.952000	25.260403	0.000470	20.846307
958.256916	-2.975800	3.663200	-10.900000	25.226946	0.000469	20.844484
959.255903	-2.998300	3.663800	-10.984000	25.216330	0.000470	20.844731
960.259661	-2.977100	3.664200	-10.908000	25.231985	0.000468	20.837215
961.258590	-3.007000	3.662600	-11.012000	25.262501	0.000468	20.830869
962.256703	-3.012500	3.663300	-11.034000	25.243183	0.000467	20.849406
963.257030	-2.987400	3.663800	-10.944000	25.213203	0.000470	20.833058
964.259583	-2.987200	3.662200	-10.939000	25.248546	0.000468	20.842937
965.259163	-2.999400	3.662400	-10.983000	25.264176	0.000466	20.838240
966.257169	-2.998900	3.661900	-10.981000	25.311273	0.000467	20.849491
967.260209	-3.016200	3.660700	-11.041000	25.334286	0.000463	20.828502
968.258799	-3.010100	3.661500	-11.021000	25.324192	0.000467	20.832591
969.258183	-2.990400	3.661000	-10.947000	25.271267	0.000464	20.839670
970.259245	-2.965300	3.661100	-10.855000	25.247851	0.000463	20.816161
971.259649	-2.987900	3.661400	-10.938000	25.229349	0.000463	20.841681
972.259517	-2.998200	3.661300	-10.976000	25.226737	0.000462	20.841904
973.260170	-2.998800	3.659600	-10.973000	25.259024	0.000464	20.838284
974.260841	-2.995500	3.659000	-10.960000	25.268145	0.000464	20.816148
975.263300	-2.984200	3.660800	-10.923000	25.269607	0.000462	20.824727
976.259941	-3.002100	3.659900	-10.986000	25.292920	0.000464	20.835806
977.258410	-3.006200	3.659100	-10.998000	25.306340	0.000461	20.836478
978.260839	-3.007300	3.657300	-10.998000	25.302360	0.000463	20.845758
979.260056	-3.013000	3.658400	-11.021000	25.281754	0.000463	20.829811
980.260251	-3.018400	3.657600	-11.039000	25.263459	0.000459	20.833727
981.260005	-3.015800	3.657200	-11.029000	25.259873	0.000460	20.808791
982.265961	-2.993000	3.657700	-10.946000	25.244018	0.000460	20.806623
983.260018	-3.021000	3.657600	-11.049000	25.274489	0.000462	20.828681
984.260016	-3.011900	3.655600	-11.009000	25.279482	0.000458	20.829427
985.261497	-3.006100	3.655800	-10.989000	25.331528	0.000458	20.825733
986.261406	-2.999800	3.656200	-10.967000	25.322358	0.000457	20.800405
987.261895	-2.982400	3.656500	-10.904000	25.271602	0.000459	20.812032
988.264493	-2.999800	3.657100	-10.970000	25.267204	0.000458	20.830375
989.261621	-2.972300	3.656100	-10.866000	25.284697	0.000456	20.810956
990.265414	-2.991100	3.656500	-10.936000	25.313028	0.000456	20.810477
991.265983	-2.997800	3.656100	-10.959000	25.292200	0.000456	20.798100
992.274432	-2.991500	3.654800	-10.933000	25.297070	0.000455	20.816266
993.264597	-3.001700	3.654600	-10.968000	25.340192	0.000455	20.818311
994.267604	-2.993300	3.655400	-10.941000	25.363085	0.000454	20.811425
995.263037	-2.984100	3.654100	-10.903000	25.364172	0.000452	20.833380
996.264216	-2.985100	3.654500	-10.908000	25.325721	0.000455	20.832230
997.264848	-3.014300	3.653900	-11.012000	25.311332	0.000454	20.828688
998.266189	-3.007400	3.653300	-10.986000	25.325027	0.000453	20.811619
999.267387	-2.993900	3.653100	-10.936000	25.333794	0.000451	20.812835
1000.267952	-3.002200	3.652500	-10.965000	25.339912	0.000452	20.841737
1001.268336	-2.984000	3.653700	-10.902000	25.345279	0.000452	20.810617
1002.269195	-2.983100	3.652800	-10.896000	25.326833	0.000452	20.828131
1003.269176	-2.998100	3.652900	-10.951000	25.358522	0.000450	20.822965
1004.270552	-3.005400	3.651800	-10.973000	25.340130	0.000451	20.827257
1005.271407	-2.991100	3.651700	-10.922000	25.301283	0.000450	20.835194
1006.272592	-2.996300	3.651200	-10.939000	25.304958	0.000451	20.828927
1007.273175	-2.983700	3.651700	-10.895000	25.365999	0.000450	20.827628
1008.271243	-3.019100	3.648900	-11.016000	25.382178	0.000451	20.844347
1009.272910	-3.018800	3.650000	-11.018000	25.333366	0.000452	20.801501
1010.273288	-3.013600	3.651400	-11.003000	25.370274	0.000451	20.812954
1011.271612	-3.001400	3.651000	-10.957000	25.349849	0.000448	20.798136
1012.272612	-3.008400	3.649600	-10.979000	25.340322	0.000449	20.827925
1013.272577	-3.005200	3.648400	-10.964000	25.332245	0.000448	20.817444
1014.278502	-3.028800	3.648600	-11.050000	25.352703	0.000448	20.798157
1015.273376	-3.004200	3.648800	-10.961000	25.373805	0.000447	20.799431
1016.274391	-2.989900	3.648600	-10.908000	25.384436	0.000448	20.802045
1017.273391	-3.037700	3.647300	-11.078000	25.359084	0.000448	20.823056
1018.272432	-3.037700	3.648400	-11.082000	25.356157	0.000448	20.804943
1019.274338	-3.002000	3.647000	-10.947000	25.293645	0.000447	20.803818
1020.271430	-3.007400	3.647700	-10.969000	25.270677	0.000446	20.823905
1021.273381	-2.999200	3.646600	-10.936000	25.276894	0.000447	20.802647
1022.274300	-3.003100	3.645500	-10.947000	25.263400	0.000446	20.809961
1023.274426	-2.980400	3.647500	-10.869000	25.305131	0.000445	20.821514
1024.273747	-3.009900	3.645300	-10.970000	25.316243	0.000445	20.800429
1025.272935	-3.005000	3.646700	-10.957000	25.310379	0.000445	20.813033
1026.274882	-3.005100	3.646500	-10.958000	25.339707	0.000444	20.798858
1027.274559	-2.964300	3.646600	-10.809000	25.357927	0.000446	20.795815
1028.276733	-2.989700	3.645600	-10.899000	25.338840	0.000444	20.807471
1029.279514	-3.003100	3.645000	-10.946000	25.345624	0.000444	20.783936
1030.276058	-2.962200	3.645500	-10.798000	25.336779	0.000442	20.811091
1031.282461	-2.986700	3.646300	-10.890000	25.361064	0.000442	20.802759
1032.279182	-3.016400	3.643800	-10.990000	25.372824	0.000441	20.775212
1033.277930	-2.995600	3.643800	-10.914000	25.425863	0.000440	20.809504
1034.283360	-3.009700	3.643300	-10.964000	25.432843	0.000441	20.795651
1035.280750	-2.998900	3.642200	-10.922000	25.442115	0.000440	20.796900
1036.277871	-3.013700	3.642900	-10.978000	25.428303	0.000441	20.779711
1037.280973	-3.006000	3.641500	-10.946000	25.404964	0.000441	20.812700
1038.282850	-2.985000	3.644000	-10.876000	25.369597	0.000440	20.793309
1039.279571	-2.981400	3.642100	-10.858000	25.358519	0.000440	20.809212
1040.283705	-3.003200	3.640800	-10.934000	25.369010	0.000440	20.787030
1041.286873	-3.019600	3.639900	-10.991000	25.391254	0.000440	20.795614
1042.281415	-2.986600	3.641500	-10.874000	25.397520	0.000442	20.790526
1043.282125	-3.021600	3.640400	-10.999000	25.364966	0.000439	20.784391
1044.283979	-3.014200	3.641100	-10.974000	25.368867	0.000439	20.775032
1045.286921	-3.013000	3.639400	-10.965000	25.369368	0.000439	20.791656
1046.282011	-3.011100	3.641100	-10.963000	25.333356	0.000437	20.772566
1047.283189	-2.997200	3.639200	-10.905000	25.304307	0.000436	20.768530
1048.286603	-2.996100	3.639800	-10.905000	25.319394	0.000437	20.766134
1049.284674	-2.985600	3.638300	-10.861000	25.275623	0.000434	20.780982
1050.285230	-2.973500	3.639800	-10.822000	25.263993	0.000435	20.767409
1051.288838	-2.975600	3.639900	-10.830000	25.261238	0.000436	20.770332
1052.284526	-2.983600	3.638400	-10.854000	25.284929	0.000437	20.796964
1053.287941	-3.003300	3.638600	-10.928000	25.325891	0.000434	20.772184
1054.287968	-3.012500	3.638700	-10.961000	25.344731	0.000435	20.772134
1055.286879	-3.021800	3.636600	-10.989000	25.420737	0.000436	20.768795
1056.290466	-2.998300	3.638600	-10.909000	25.441986	0.000435	20.775907
1057.286258	-3.032200	3.635800	-11.023000	25.445964	0.000433	20.765678
1058.286855	-3.022700	3.636200	-10.990000	25.405631	0.000435	20.768799
1059.287561	-2.989300	3.637200	-10.871000	25.390767	0.000433	20.766675
1060.288661	-3.026200	3.635500	-11.000000	25.365395	0.000434	20.772968
1061.287425	-2.993800	3.636800	-10.887000	25.393259	0.000433	20.779136
1062.286065	-3.017900	3.635100	-10.970000	25.383216	0.000432	20.793707
1063.288785	-2.982200	3.636100	-10.842000	25.396910	0.000431	20.774266
1064.288320	-2.976700	3.636000	-10.823000	25.375168	0.000430	20.769030
1065.288729	-2.991200	3.635200	-10.873000	25.383594	0.000430	20.772275
1066.288627	-2.997800	3.635100	-10.897000	25.427484	0.000431	20.770828
1067.290570	-3.003400	3.634700	-10.916000	25.410411	0.000430	20.771702
1068.290126	-2.999000	3.634600	-10.900000	25.350637	0.000431	20.768107
1069.297023	-2.987300	3.633100	-10.852000	25.361798	0.000431	20.758924
1070.294699	-2.991900	3.634000	-10.872000	25.343381	0.000431	20.748967
1071.292511	-3.019100	3.633000	-10.967000	25.374454	0.000430	20.762623
1072.297296	-2.996600	3.632800	-10.885000	25.430346	0.000429	20.736717
1073.292271	-3.019500	3.632000	-10.965000	25.450502	0.000430	20.761700
1074.293842	-3.007400	3.631100	-10.919000	25.428708	0.000429	20.761151
1075.291967	-3.001600	3.632400	-10.902000	25.403804	0.000430	20.758904
1076.293643	-2.996500	3.630800	-10.878000	25.368581	0.000428	20.756252
1077.294621	-2.998400	3.630400	-10.885000	25.389737	0.000430	20.770383
1078.292250	-3.002200	3.631700	-10.902000	25.443341	0.000428	20.758302
1079.292228	-3.013800	3.630800	-10.942000	25.412649	0.000428	20.761147
1080.295064	-3.015000	3.629600	-10.942000	25.363510	0.000428	20.747841
1081.294280	-3.040100	3.629200	-11.031000	25.394828	0.000428	20.754158
1082.298243	-3.001000	3.629300	-10.891000	25.408965	0.000426	20.743697
1083.295346	-2.982700	3.629600	-10.825000	25.457946	0.000425	20.738827
1084.293390	-3.004600	3.627600	-10.899000	25.501040	0.000426	20.759345
1085.295340	-3.000800	3.628400	-10.887000	25.434390	0.000425	20.765909
1086.296484	-2.997900	3.628900	-10.878000	25.468884	0.000423	20.759295
1087.294524	-2.979600	3.628600	-10.811000	25.429315	0.000424	20.739475
1088.297257	-2.992000	3.628700	-10.856000	25.389108	0.000423	20.758846
1089.301123	-3.004000	3.627000	-10.895000	25.340219	0.000420	20.755749
1090.295957	-2.994200	3.626400	-10.857000	25.401184	0.000423	20.753902
1091.299051	-3.002900	3.627300	-10.891000	25.387938	0.000423	20.733962
1092.297834	-2.991000	3.627000	-10.847000	25.389231	0.000422	20.761814
1093.296314	-2.982600	3.626100	-10.814000	25.373073	0.000423	20.752228
1094.298379	-3.002600	3.627000	-10.889000	25.366167	0.000422	20.755724
1095.297101	-3.011700	3.625400	-10.917000	25.376526	0.000423	20.739099
1096.299016	-2.997900	3.625900	-10.869000	25.437716	0.000423	20.751230
1097.297023	-3.024100	3.624900	-10.961000	25.424326	0.000422	20.756751
1098.299253	-3.007500	3.625300	-10.902000	25.431848	0.000421	20.749605
1099.297635	-2.986200	3.624600	-10.823000	25.392713	0.000420	20.752509
1100.297205	-3.002900	3.623700	-10.880000	25.401283	0.000420	20.752104
1101.298437	-2.981300	3.624700	-10.806000	25.418700	0.000420	20.739722
1102.298923	-2.999200	3.623900	-10.868000	25.435728	0.000419	20.759666
1103.298674	-2.995800	3.622300	-10.851000	25.436697	0.000419	20.726024
1104.300105	-2.988800	3.623200	-10.828000	25.439781	0.000419	20.735760
1105.301379	-3.013800	3.622100	-10.916000	25.426457	0.000419	20.734234
1106.298094	-2.999200	3.622800	-10.865000	25.432969	0.000419	20.771595
1107.303595	-3.005700	3.622200	-10.886000	25.381598	0.000417	20.755572
1108.300527	-3.028200	3.621800	-10.966000	25.373250	0.000415	20.757621
1109.301758	-3.014200	3.620400	-10.912000	25.400687	0.000415	20.741075
1110.302197	-3.008200	3.621400	-10.893000	25.439403	0.000417	20.754821
1111.302402	-3.013900	3.619400	-10.908000	25.469003	0.000417	20.724326
1112.302714	-3.009600	3.621500	-10.899000	25.502005	0.000416	20.750356
1113.304494	-3.029300	3.619600	-10.964000	25.534662	0.000417	20.748538
1114.302550	-3.005600	3.619000	-10.877000	25.567288	0.000415	20.751906
1115.302696	-3.034700	3.619300	-10.982000	25.511723	0.000415	20.767228
1116.303471	-3.031200	3.619400	-10.970000	25.503225	0.000414	20.747313
1117.304968	-2.995000	3.619500	-10.840000	25.487068	0.000415	20.747210
1118.304719	-2.996600	3.618100	-10.841000	25.502403	0.000413	20.751704
1119.304898	-3.004100	3.618600	-10.870000	25.513337	0.000414	20.744666
1120.304562	-3.019200	3.618300	-10.923000	25.486350	0.000413	20.747911
1121.305022	-3.007500	3.618000	-10.880000	25.498203	0.000413	20.738003
1122.305490	-3.009500	3.618700	-10.888000	25.488908	0.000413	20.748583
1123.307063	-3.017900	3.617000	-10.915000	25.492484	0.000412	20.750752
1124.308609	-3.015800	3.617400	-10.908000	25.449393	0.000410	20.751576
1125.305858	-3.014400	3.616600	-10.901000	25.426900	0.000410	20.761707
1126.307296	-3.008200	3.617000	-10.879000	25.459161	0.000412	20.746686
1127.308425	-2.991800	3.617200	-10.821000	25.413905	0.000411	20.746760
1128.306082	-3.019700	3.616100	-10.918000	25.412508	0.000409	20.747729
1129.306377	-2.985500	3.614700	-10.791000	25.471704	0.000411	20.738419
1130.305914	-2.985200	3.616900	-10.797000	25.458011	0.000409	20.744583
1131.306886	-2.996300	3.616200	-10.835000	25.459850	0.000408	20.740740
1132.308087	-3.006300	3.614900	-10.865000	25.469741	0.000407	20.758260
1133.309271	-2.985000	3.616100	-10.793000	25.474635	0.000410	20.733302
1134.308016	-3.001100	3.614700	-10.847000	25.467853	0.000409	20.733603
1135.308577	-3.005200	3.613200	-10.857000	25.458680	0.000408	20.753790
1136.308716	-3.008800	3.614300	-10.874000	25.511366	0.000406	20.746480
1137.312368	-3.006800	3.613000	-10.863000	25.517803	0.000407	20.748677
1138.309464	-3.003900	3.613100	-10.853000	25.518473	0.000406	20.761204
1139.314679	-2.996900	3.613000	-10.827000	25.494343	0.000408	20.749774
1140.311494	-3.012900	3.612200	-10.882000	25.451105	0.000405	20.736699
1141.308733	-2.968900	3.612600	-10.725000	25.432143	0.000405	20.736151
1142.313273	-2.982100	3.612300	-10.771000	25.417382	0.000406	20.731286
1143.311806	-2.965600	3.610800	-10.707000	25.416438	0.000407	20.774909
1144.311038	-2.987300	3.612000	-10.789000	25.366035	0.000405	20.759860
1145.311743	-3.000100	3.610200	-10.830000	25.372395	0.000405	20.748702
1146.314974	-3.008900	3.610100	-10.861000	25.400206	0.000406	20.761929
1147.310392	-3.019800	3.610700	-10.902000	25.416709	0.000405	20.756215
1148.313471	-2.997400	3.610500	-10.821000	25.462486	0.000404	20.738646
1149.316122	-2.989100	3.610600	-10.791000	25.477625	0.000402	20.743416
1150.312842	-2.989600	3.609200	-10.789000	25.447755	0.000402	20.755147
1151.314696	-3.004700	3.609700	-10.845000	25.444971	0.000402	20.768947
1152.313469	-3.008900	3.609100	-10.859000	25.425040	0.000403	20.761736
1153.314992	-3.009100	3.608700	-10.858000	25.407667	0.000404	20.753774
1154.311830	-2.999400	3.608600	-10.823000	25.369591	0.000403	20.757740
1155.312901	-3.016300	3.608400	-10.883000	25.396355	0.000400	20.746208
1156.315136	-3.003700	3.606700	-10.833000	25.431897	0.000402	20.754397
1157.314700	-2.996600	3.606600	-10.807000	25.398544	0.000402	20.759311
1158.316962	-2.991200	3.607100	-10.789000	25.365415	0.000401	20.738374
1159.317185	-2.984200	3.608100	-10.766000	25.389498	0.000402	20.754021
1160.317761	-2.990100	3.606000	-10.781000	25.404456	0.000403	20.755291
1161.316902	-2.989900	3.606500	-10.783000	25.417275	0.000402	20.749671
1162.317624	-2.989000	3.605700	-10.777000	25.459000	0.000400	20.746525
1163.322575	-3.002000	3.605600	-10.823000	25.447023	0.000402	20.747774
1164.316333	-2.993200	3.605000	-10.789000	25.425943	0.000400	20.752210
1165.318159	-2.977100	3.605300	-10.732000	25.466850	0.000402	20.772427
1166.324213	-3.011800	3.604400	-10.854000	25.520328	0.000400	20.750264
1167.319167	-3.005800	3.603300	-10.830000	25.505092	0.000400	20.765784
1168.320210	-2.990800	3.604300	-10.778000	25.528375	0.000402	20.734637
1169.320867	-2.970900	3.604900	-10.709000	25.518480	0.000401	20.746038
1170.318945	-3.000200	3.603300	-10.809000	25.524490	0.000399	20.754919
1171.319223	-2.992200	3.603800	-10.782000	25.502545	0.000400	20.745683
1172.318670	-3.003500	3.603100	-10.821000	25.512387	0.000397	20.774059
1173.319204	-2.986800	3.602300	-10.759000	25.500156	0.000397	20.771733
1174.318867	-2.997600	3.602100	-10.796000	25.531835	0.000396	20.752337
1175.320045	-2.986800	3.603000	-10.760000	25.537866	0.000398	20.744169
1176.321121	-3.034800	3.600800	-10.927000	25.495947	0.000396	20.750910
1177.322466	-2.991400	3.600500	-10.770000	25.474617	0.000395	20.753673
1178.321515	-2.983700	3.602000	-10.746000	25.482890	0.000396	20.787111
1179.322315	-3.000700	3.601000	-10.805000	25.448421	0.000394	20.759610
1180.322714	-3.006900	3.600300	-10.825000	25.473619	0.000393	20.757886
1181.324754	-2.999100	3.599900	-10.795000	25.494169	0.000392	20.767143
1182.324183	-3.006700	3.599100	-10.821000	25.494173	0.000393	20.775682
1183.323343	-3.001300	3.599500	-10.802000	25.508908	0.000391	20.789058
1184.327292	-2.998000	3.600500	-10.793000	25.519242	0.000391	20.785685
1185.327488	-3.019800	3.598000	-10.864000	25.497129	0.000392	20.780547
1186.324382	-2.998900	3.598000	-10.789000	25.517551	0.000389	20.769761
1187.331978	-3.023500	3.596500	-10.873000	25.521677	0.000391	20.780543
1188.330716	-2.999600	3.598000	-10.792000	25.571399	0.000388	20.769312
1189.322875	-3.002500	3.597400	-10.800000	25.609317	0.000389	20.772779
1190.326162	-3.001100	3.596500	-10.792000	25.553955	0.000388	20.777397
1191.326999	-2.988000	3.597300	-10.747000	25.546101	0.000389	20.770458
1192.326131	-3.000800	3.594700	-10.786000	25.499432	0.000389	20.769109
1193.325762	-3.004400	3.596200	-10.803000	25.515362	0.000388	20.778469
1194.326940	-2.995800	3.596500	-10.774000	25.480049	0.000388	20.754860
1195.327130	-3.006400	3.596400	-10.812000	25.480964	0.000388	20.787074
1196.325859	-3.008500	3.596000	-10.818000	25.475199	0.000386	20.773698
1197.327156	-3.001000	3.594800	-10.788000	25.443116	0.000386	20.789845
1198.329318	-3.009100	3.595000	-10.817000	25.469110	0.000385	20.775645
1199.326737	-2.990600	3.594600	-10.749000	25.493634	0.000386	20.767555
1200.326571	-2.994200	3.595500	-10.765000	25.488962	0.000386	20.775191
1201.328999	-3.010200	3.594200	-10.818000	25.504149	0.000386	20.769105
1202.326345	-3.005800	3.594100	-10.802000	25.465078	0.000384	20.782975
1203.328069	-3.022400	3.591900	-10.855000	25.454296	0.000384	20.763139
1204.331134	-3.014200	3.592800	-10.828000	25.453997	0.000383	20.780856
1205.328958	-3.006900	3.591900	-10.800000	25.485554	0.000382	20.787416
1206.329135	-2.977500	3.592400	-10.696000	25.499271	0.000382	20.769422
1207.330504	-2.989300	3.591700	-10.735000	25.488638	0.000383	20.766330
1208.331949	-2.984900	3.592300	-10.722000	25.473651	0.000383	20.791584
1209.333103	-3.019700	3.590400	-10.841000	25.550362	0.000382	20.796548
1210.330381	-2.993200	3.591200	-10.748000	25.556873	0.000380	20.765155
1211.329859	-3.024500	3.590100	-10.856000	25.525166	0.000380	20.780254
1212.330106	-2.998200	3.590100	-10.763000	25.540299	0.000380	20.798771
1213.330197	-3.001800	3.589500	-10.774000	25.528319	0.000380	20.778679
1214.329890	-3.002400	3.590000	-10.778000	25.535972	0.000379	20.783519
1215.330195	-2.989100	3.589500	-10.728000	25.561669	0.000378	20.781351
1216.329496	-2.996600	3.588700	-10.753000	25.590321	0.000378	20.792582
1217.329824	-2.982500	3.589600	-10.706000	25.590321	0.000378	20.782151
1218.329439	-2.995800	3.589200	-10.751000	25.623841	0.000376	20.773142
1219.329977	-3.012300	3.588400	-10.809000	25.587361	0.000377	20.787713
1220.330160	-3.021000	3.587900	-10.838000	25.525437	0.000377	20.799966
1221.329584	-2.999300	3.587200	-10.759000	25.547599	0.000376	20.773859
1222.330567	-3.007000	3.588000	-10.788000	25.511051	0.000376	20.806856
1223.333095	-2.998700	3.586000	-10.752000	25.528968	0.000376	20.781227
1224.332496	-2.966900	3.588400	-10.646000	25.536596	0.000374	20.777508
1225.333459	-3.018300	3.586400	-10.823000	25.542685	0.000377	20.785993
1226.336106	-2.994200	3.585200	-10.733000	25.562210	0.000377	20.798964
1227.332521	-3.008900	3.585300	-10.787000	25.534260	0.000375	20.780378
1228.333447	-3.030200	3.583900	-10.858000	25.514971	0.000376	20.798465
1229.336346	-2.988900	3.585000	-10.714000	25.512192	0.000377	20.793778
1230.333553	-3.000600	3.584000	-10.753000	25.464130	0.000373	20.811420
1231.333587	-2.972700	3.586500	-10.660000	25.455651	0.000374	20.800535
1232.335117	-3.006300	3.583700	-10.773000	25.543998	0.000376	20.808175
1233.334134	-2.981400	3.584100	-10.685000	25.570463	0.000377	20.805829
1234.332781	-2.983200	3.584500	-10.693000	25.557489	0.000374	20.812715
1235.335357	-2.992500	3.583700	-10.723000	25.593761	0.000374	20.809313
1236.334402	-2.959800	3.583500	-10.605000	25.592393	0.000375	20.803673
1237.334584	-2.996200	3.581600	-10.730000	25.607477	0.000373	20.791794
1238.335639	-3.027000	3.581200	-10.839000	25.633069	0.000373	20.822239
1239.333427	-2.972800	3.582200	-10.648000	25.635503	0.000372	20.808563
1240.333966	-3.006400	3.581000	-10.765000	25.660270	0.000374	20.806884
1241.336334	-2.993900	3.581600	-10.722000	25.608240	0.000374	20.802992
1242.336155	-3.029200	3.581400	-10.847000	25.575335	0.000371	20.813093
1243.334459	-3.015300	3.580500	-10.796000	25.609923	0.000374	20.810846
1244.335238	-3.006200	3.579900	-10.761000	25.577145	0.000369	20.794523
1245.337356	-2.984900	3.581000	-10.688000	25.608051	0.000371	20.807069
1246.335013	-2.986700	3.580400	-10.693000	25.587454	0.000371	20.806773
1247.336931	-2.986300	3.579300	-10.687000	25.596917	0.000368	20.802052
1248.342975	-2.974000	3.580100	-10.646000	25.602677	0.000370	20.830121
1249.337630	-2.999400	3.579200	-10.734000	25.594651	0.000369	20.809733
1250.339612	-2.985500	3.579800	-10.686000	25.592192	0.000368	20.821962
1251.338211	-2.989400	3.578300	-10.696000	25.634599	0.000369	20.796275
1252.337211	-3.002700	3.577900	-10.742000	25.624685	0.000367	20.818560
1253.339330	-2.972000	3.578600	-10.634000	25.610867	0.000366	20.817010
1254.340340	-3.020200	3.575300	-10.796000	25.632727	0.000366	20.818102
1255.336343	-3.002700	3.577000	-10.739000	25.623240	0.000368	20.834178
1256.339913	-2.997200	3.576900	-10.720000	25.618613	0.000365	20.833324
1257.336387	-2.972600	3.576500	-10.631000	25.674017	0.000364	20.813579
1258.346438	-3.020500	3.576300	-10.801000	25.688700	0.000365	20.806990
1259.338672	-3.004500	3.576700	-10.745000	25.731137	0.000363	20.835864
1260.338947	-2.997800	3.575900	-10.719000	25.755257	0.000362	20.831642
1261.340821	-2.995800	3.574800	-10.708000	25.754740	0.000363	20.815950
1262.339587	-3.011200	3.575000	-10.764000	25.707702	0.000363	20.832714
1263.339298	-3.006700	3.574100	-10.746000	25.664895	0.000362	20.813901
1264.341856	-3.009700	3.573200	-10.754000	25.632168	0.000363	20.819438
1265.342306	-2.965900	3.575500	-10.604000	25.634652	0.000360	20.830467
1266.341964	-2.983300	3.574300	-10.662000	25.655424	0.000359	20.828096
1267.344833	-3.017100	3.573000	-10.779000	25.672346	0.000359	20.834186
1268.343078	-3.011100	3.574000	-10.761000	25.654751	0.000361	20.847808
1269.342834	-3.006000	3.572300	-10.737000	25.594892	0.000359	20.836053
1270.349026	-3.005500	3.572300	-10.736000	25.645231	0.000359	20.821652
1271.347806	-2.991300	3.572200	-10.685000	25.608657	0.000358	20.844662
1272.346750	-2.978200	3.571300	-10.635000	25.643417	0.000358	20.840217
1273.350234	-2.998100	3.572200	-10.708000	25.597327	0.000358	20.830912
1274.351873	-2.988500	3.570900	-10.670000	25.564894	0.000359	20.842435
1275.349080	-2.986800	3.570600	-10.664000	25.613321	0.000357	20.851242
1276.351169	-2.987500	3.570800	-10.667000	25.629717	0.000356	20.846373
1277.350225	-2.985100	3.571000	-10.659000	25.636774	0.000356	20.858675
1278.348995	-2.996800	3.569600	-10.697000	25.593685	0.000355	20.859496
1279.355964	-3.013400	3.569100	-10.754000	25.550225	0.000355	20.835764
1280.350684	-3.009900	3.569200	-10.742000	25.511533	0.000357	20.821565
1281.355022	-2.990500	3.570500	-10.676000	25.523485	0.000355	20.847317
1282.350764	-3.011600	3.569000	-10.747000	25.558867	0.000354	20.838279
1283.351660	-3.007600	3.568200	-10.731000	25.577157	0.000354	20.843371
1284.355998	-3.004700	3.567600	-10.719000	25.585753	0.000352	20.855797
1285.352817	-3.001500	3.567900	-10.708000	25.652641	0.000355	20.844266
1286.355108	-3.007600	3.567400	-10.728000	25.662005	0.000353	20.840394
1287.355140	-2.998700	3.567900	-10.698000	25.675248	0.000353	20.849428
1288.354179	-3.021900	3.567000	-10.778000	25.692292	0.000354	20.842839
1289.357845	-3.004100	3.567200	-10.716000	25.675839	0.000352	20.848125
1290.354699	-3.021000	3.566500	-10.774000	25.610964	0.000353	20.832280
1291.353167	-3.021700	3.566100	-10.775000	25.629717	0.000353	20.832623
1292.356737	-3.011300	3.566200	-10.737000	25.628272	0.000353	20.853456
1293.354411	-2.996300	3.566200	-10.683000	25.600492	0.000353	20.860642
1294.356233	-3.011200	3.564900	-10.734000	25.566770	0.000349	20.857121
1295.366522	-3.001400	3.564200	-10.697000	25.536848	0.000351	20.833711
1296.355103	-2.991300	3.564800	-10.663000	25.638498	0.000349	20.835752
1297.355644	-3.000200	3.564400	-10.692000	25.667173	0.000352	20.840844
1298.357733	-3.007500	3.564100	-10.719000	25.660165	0.000352	20.836651
1299.358010	-3.023800	3.563400	-10.774000	25.676532	0.000348	20.868735
1300.357603	-2.983600	3.564400	-10.634000	25.720386	0.000349	20.865841
1301.361573	-2.986800	3.564100	-10.644000	25.652205	0.000349	20.860423
1302.359447	-3.002200	3.561800	-10.691000	25.644878	0.000348	20.853064
1303.357576	-3.005000	3.562300	-10.703000	25.630690	0.000348	20.849720
1304.357750	-2.995600	3.562200	-10.670000	25.644377	0.000347	20.866785
1305.360370	-2.991800	3.561600	-10.655000	25.628646	0.000349	20.860469
1306.358346	-2.998600	3.562000	-10.680000	25.646064	0.000348	20.867057
1307.358858	-2.995200	3.560200	-10.663000	25.677423	0.000349	20.867733
1308.360095	-3.014700	3.559900	-10.730000	25.699730	0.000346	20.864060
1309.364299	-3.003800	3.560000	-10.692000	25.693917	0.000347	20.884772
1310.362107	-2.973700	3.560500	-10.586000	25.668203	0.000347	20.866059
1311.362647	-2.980200	3.560000	-10.609000	25.634110	0.000347	20.880180
1312.364655	-3.015600	3.559500	-10.733000	25.624840	0.000343	20.864707
1313.359955	-3.021300	3.558100	-10.749000	25.594395	0.000346	20.869217
1314.365603	-2.993300	3.559800	-10.655000	25.619175	0.000346	20.873715
1315.366601	-2.988900	3.558600	-10.635000	25.609585	0.000345	20.856972
1316.361033	-3.029200	3.558500	-10.778000	25.551784	0.000345	20.880951
1317.361577	-2.997800	3.557600	-10.664000	25.554769	0.000345	20.855975
1318.365386	-2.990100	3.558400	-10.640000	25.570670	0.000344	20.872891
1319.361809	-2.992700	3.558300	-10.648000	25.577826	0.000343	20.870120
1320.364766	-2.967700	3.557500	-10.557000	25.597158	0.000344	20.871992
1321.363945	-2.988600	3.558200	-10.633000	25.641413	0.000341	20.860489
1322.366695	-3.003000	3.557600	-10.683000	25.620218	0.000342	20.868599
1323.364473	-2.985900	3.556600	-10.619000	25.618998	0.000342	20.880176
1324.366210	-3.005700	3.555100	-10.685000	25.620016	0.000341	20.875034
1325.369700	-3.008900	3.555700	-10.698000	25.634085	0.000341	20.881103
1326.366764	-2.979000	3.555900	-10.591000	25.673014	0.000339	20.876106
1327.365948	-3.006100	3.554600	-10.685000	25.705666	0.000339	20.877607
1328.369665	-2.999300	3.555100	-10.661000	25.705818	0.000338	20.859743
1329.368446	-2.997500	3.554200	-10.653000	25.701019	0.000337	20.889060
1330.366032	-3.000200	3.553300	-10.659000	25.710062	0.000338	20.894824
1331.368690	-2.968600	3.554400	-10.550000	25.727307	0.000339	20.886067
1332.367650	-2.993100	3.554200	-10.637000	25.717521	0.000337	20.892358
1333.366441	-3.002200	3.552800	-10.665000	25.759681	0.000336	20.892033
1334.371075	-3.001500	3.552900	-10.663000	25.744030	0.000335	20.883898
1335.368172	-2.974200	3.554800	-10.570000	25.718912	0.000336	20.888067
1336.371236	-3.016800	3.551800	-10.715000	25.710341	0.000336	20.893208
1337.372701	-3.008300	3.550400	-10.680000	25.673396	0.000334	20.893084
1338.369355	-2.987500	3.552900	-10.613000	25.662513	0.000336	20.903016
1339.367594	-3.001100	3.551500	-10.656000	25.693326	0.000335	20.887498
1340.367826	-3.016400	3.550700	-10.709000	25.701869	0.000335	20.899870
1341.368407	-3.012200	3.550200	-10.693000	25.707090	0.000335	20.888520
1342.368188	-3.010500	3.549100	-10.684000	25.727139	0.000333	20.890639
1343.369270	-3.013700	3.549400	-10.695000	25.709052	0.000334	20.892387
1344.370207	-3.017800	3.549800	-10.712000	25.715756	0.000334	20.907654
1345.368706	-2.988000	3.550200	-10.607000	25.716753	0.000334	20.898699
1346.369050	-3.004600	3.548300	-10.660000	25.698589	0.000334	20.899895
1347.369392	-3.009900	3.548200	-10.679000	25.733054	0.000332	20.898002
1348.369386	-3.021700	3.547400	-10.718000	25.698441	0.000331	20.900694
1349.369513	-3.015600	3.547700	-10.698000	25.717352	0.000330	20.889819
1350.370112	-2.994600	3.549000	-10.627000	25.730496	0.000331	20.919139
1351.368604	-3.003600	3.547200	-10.654000	25.703338	0.000333	20.896131
1352.368739	-2.992200	3.547500	-10.614000	25.743188	0.000332	20.909604
1353.370935	-3.014800	3.546400	-10.690000	25.692033	0.000332	20.895681
1354.370031	-3.012900	3.544900	-10.680000	25.698470	0.000332	20.895508
1355.372485	-2.990700	3.547800	-10.610000	25.769377	0.000332	20.892288
1356.368930	-3.026200	3.544400	-10.725000	25.751041	0.000331	20.904215
1357.371502	-2.992600	3.545300	-10.609000	25.785077	0.000333	20.888145
1358.370069	-3.014900	3.545300	-10.688000	25.803339	0.000331	20.927822
1359.371472	-3.016600	3.543700	-10.689000	25.752773	0.000331	20.892206
1360.375280	-3.020700	3.544300	-10.706000	25.752999	0.000330	20.912345
1361.376225	-3.001600	3.543500	-10.635000	25.730738	0.000330	20.919383
1362.371334	-3.005300	3.542900	-10.646000	25.743583	0.000330	20.909999
1363.372809	-3.004900	3.545200	-10.652000	25.706359	0.000329	20.899639
1364.375341	-2.999600	3.541900	-10.623000	25.682111	0.000328	20.911319
1365.372596	-3.019500	3.543400	-10.698000	25.659451	0.000328	20.889984
1366.375166	-3.007300	3.542700	-10.653000	25.643819	0.000330	20.891352
1367.373538	-3.017900	3.541700	-10.686000	25.628211	0.000328	20.891324
1368.374623	-2.996900	3.542100	-10.615000	25.608033	0.000329	20.890025
1369.378448	-2.990600	3.542100	-10.592000	25.622866	0.000330	20.901127
1370.377018	-2.989600	3.541000	-10.586000	25.656134	0.000328	20.917944
1371.382425	-3.012100	3.540900	-10.665000	25.697624	0.000328	20.892762
1372.379069	-2.996200	3.541600	-10.610000	25.694615	0.000328	20.881680
1373.377760	-2.982400	3.540400	-10.558000	25.717993	0.000327	20.886195
1374.379003	-3.023100	3.538900	-10.698000	25.712747	0.000328	20.907002
1375.377681	-3.012200	3.538700	-10.658000	25.678437	0.000326	20.913318
1376.378222	-2.992500	3.540600	-10.595000	25.690830	0.000327	20.892103
1377.381490	-3.011600	3.538800	-10.656000	25.709935	0.000327	20.918876
1378.380182	-2.998100	3.538100	-10.607000	25.740393	0.000327	20.887832
1379.380961	-3.004500	3.536500	-10.624000	25.775448	0.000327	20.896015
1380.386590	-2.999600	3.537500	-10.610000	25.796439	0.000327	20.877748
1381.382504	-2.997600	3.537400	-10.602000	25.771471	0.000326	20.914778
1382.388728	-3.002000	3.536600	-10.616000	25.805851	0.000325	20.886727
1383.384902	-3.005500	3.536600	-10.628000	25.813502	0.000323	20.877818
1384.385570	-3.002200	3.536300	-10.616000	25.777521	0.000323	20.893356
1385.386362	-2.998100	3.536300	-10.602000	25.718445	0.000322	20.890442
1386.386518	-3.012000	3.535800	-10.649000	25.734712	0.000321	20.898246
1387.388597	-2.983900	3.535900	-10.550000	25.721023	0.000322	20.884971
1388.386004	-3.009800	3.535000	-10.639000	25.733469	0.000321	20.896049
1389.386501	-3.014200	3.533300	-10.649000	25.700847	0.000324	20.890310
1390.386199	-3.008800	3.534000	-10.632000	25.714980	0.000321	20.889807
1391.385016	-3.011100	3.533100	-10.638000	25.737689	0.000321	20.882745
1392.385926	-3.015400	3.532900	-10.653000	25.731925	0.000322	20.895447
1393.388572	-3.005400	3.533900	-10.620000	25.748792	0.000321	20.875880
1394.387279	-3.000900	3.533300	-10.602000	25.681935	0.000318	20.879850
1395.388518	-3.002500	3.532500	-10.606000	25.691521	0.000319	20.893744
1396.389482	-3.002100	3.530300	-10.598000	25.710904	0.000317	20.895195
1397.388744	-3.025800	3.532200	-10.687000	25.726331	0.000318	20.881768
1398.392114	-2.994900	3.532400	-10.579000	25.739946	0.000317	20.879323
1399.388259	-3.020800	3.531400	-10.667000	25.719697	0.000317	20.863726
1400.388798	-2.985800	3.532300	-10.546000	25.710982	0.000318	20.869197
1401.388755	-3.018400	3.531000	-10.657000	25.716869	0.000316	20.869420
1402.389612	-2.988400	3.530200	-10.549000	25.719849	0.000316	20.900860
1403.392039	-3.022400	3.528900	-10.664000	25.773265	0.000316	20.872013
1404.392213	-3.007200	3.530100	-10.615000	25.735131	0.000316	20.876857
1405.389850	-3.004900	3.529200	-10.604000	25.762806	0.000314	20.870991
1406.389624	-3.007600	3.529400	-10.614000	25.812472	0.000315	20.877257
1407.391395	-3.005100	3.529300	-10.605000	25.857186	0.000316	20.888982
1408.390338	-3.007700	3.528600	-10.612000	25.868814	0.000313	20.875060
1409.393711	-2.990300	3.529400	-10.553000	25.885436	0.000313	20.855724
1410.393463	-2.996400	3.528200	-10.571000	25.845090	0.000311	20.868772
1411.391210	-2.998700	3.528300	-10.580000	25.822762	0.000310	20.864835
1412.391582	-2.991000	3.527900	-10.551000	25.799058	0.000312	20.868999
1413.390891	-3.006800	3.526100	-10.600000	25.799584	0.000312	20.855303
1414.391384	-2.997400	3.525300	-10.566000	25.791756	0.000311	20.859294
1415.392389	-3.006700	3.526100	-10.601000	25.790168	0.000313	20.859121
1416.392147	-2.984000	3.526000	-10.521000	25.789695	0.000311	20.847268
1417.394763	-3.018600	3.525000	-10.639000	25.772132	0.000309	20.841005
1418.394399	-3.001900	3.525600	-10.583000	25.764452	0.000312	20.857472
1419.397238	-3.018300	3.524900	-10.638000	25.735090	0.000310	20.846472
1420.396539	-3.009000	3.525000	-10.606000	25.771737	0.000311	20.871902
1421.396174	-3.015100	3.524200	-10.624000	25.794075	0.000308	20.867787
1422.397058	-3.024000	3.523500	-10.654000	25.811191	0.000306	20.850368
1423.395846	-3.000100	3.522400	-10.567000	25.817877	0.000307	20.855187
1424.398568	-2.996500	3.524200	-10.559000	25.797654	0.000307	20.844831
1425.397079	-2.984000	3.523100	-10.512000	25.722874	0.000306	20.850322
1426.397119	-2.986200	3.523000	-10.520000	25.706503	0.000306	20.858061
1427.397506	-2.984900	3.522500	-10.514000	25.716023	0.000306	20.849131
1428.397764	-3.006900	3.520800	-10.586000	25.708145	0.000306	20.856391
1429.398288	-3.014100	3.520700	-10.611000	25.692694	0.000306	20.837080
1430.398353	-3.023300	3.520200	-10.641000	25.651249	0.000306	20.850928
1431.398275	-2.992900	3.521600	-10.538000	25.691881	0.000307	20.833892
1432.400651	-3.001500	3.520300	-10.565000	25.723009	0.000305	20.851881
1433.399498	-3.006500	3.519500	-10.580000	25.755433	0.000303	20.854103
1434.404499	-2.986300	3.520600	-10.512000	25.811035	0.000304	20.838358
1435.399658	-2.997900	3.519800	-10.551000	25.826267	0.000305	20.846072
1436.399696	-2.979800	3.519300	-10.486000	25.836228	0.000306	20.823837
1437.399666	-2.994000	3.519300	-10.535000	25.825200	0.000304	20.834094
1438.402052	-2.989200	3.519200	-10.519000	25.820114	0.000303	20.849374
1439.401810	-3.003900	3.516200	-10.562000	25.831118	0.000304	20.843359
1440.406341	-3.020500	3.517900	-10.625000	25.853430	0.000303	20.837797
1441.403298	-3.010600	3.516900	-10.587000	25.772242	0.000302	20.865771
1442.402940	-2.991300	3.518200	-10.524000	25.721511	0.000303	20.860807
1443.407906	-2.995600	3.516600	-10.534000	25.737811	0.000300	20.851576
1444.402985	-2.984800	3.516600	-10.495000	25.755404	0.000301	20.845540
1445.408845	-3.007100	3.515600	-10.571000	25.740319	0.000303	20.821853
1446.403275	-2.981600	3.516300	-10.483000	25.744945	0.000301	20.833138
1447.403990	-2.994100	3.516200	-10.527000	25.726235	0.000302	20.821457
1448.403463	-3.004700	3.515200	-10.561000	25.775407	0.000300	20.821062
1449.406366	-3.024000	3.514400	-10.626000	25.792203	0.000301	20.835562
1450.404165	-2.991500	3.514500	-10.513000	25.782069	0.000299	20.825383
1451.403312	-2.996800	3.513300	-10.528000	25.792851	0.000301	20.842851
1452.403889	-3.034100	3.512200	-10.655000	25.776355	0.000300	20.819169
1453.403329	-3.008200	3.512600	-10.565000	25.794444	0.000300	20.834020
1454.405392	-2.991500	3.514000	-10.510000	25.779413	0.000298	20.838836
1455.406453	-2.991000	3.512000	-10.504000	25.758421	0.000300	20.828182
1456.408051	-2.993100	3.513800	-10.516000	25.785430	0.000298	20.831604
1457.405474	-3.021700	3.511300	-10.608000	25.822897	0.000300	20.824669
1458.407746	-2.983600	3.511000	-10.474000	25.844807	0.000297	20.804953
1459.408278	-2.987500	3.511300	-10.489000	25.834500	0.000300	20.824945
1460.409913	-3.009000	3.509600	-10.559000	25.785114	0.000298	20.839347
1461.410005	-3.004000	3.511100	-10.546000	25.800888	0.000297	20.836700
1462.405878	-3.000800	3.511200	-10.535000	25.774360	0.000297	20.833286
1463.410243	-2.986500	3.510800	-10.484000	25.768843	0.000297	20.813521
1464.408111	-2.992400	3.508400	-10.498000	25.751205	0.000296	20.819986
1465.416991	-2.998600	3.510500	-10.525000	25.722061	0.000296	20.830066
1466.410693	-2.980000	3.509500	-10.457000	25.717393	0.000295	20.824904
1467.413737	-3.006500	3.509400	-10.550000	25.715653	0.000297	20.807983
1468.411226	-2.994100	3.508600	-10.504000	25.704155	0.000296	20.810185
1469.409540	-2.989700	3.508000	-10.487000	25.719040	0.000294	20.812333
1470.415034	-3.001400	3.508400	-10.529000	25.725427	0.000293	20.804524
1471.408933	-2.979800	3.507900	-10.452000	25.678987	0.000294	20.814778
1472.413954	-2.987300	3.507400	-10.476000	25.723440	0.000294	20.799210
1473.410780	-2.975800	3.507800	-10.437000	25.763712	0.000293	20.811686
1474.411297	-2.988900	3.505400	-10.476000	25.801085	0.000294	20.818881
1475.413002	-2.997600	3.507400	-10.513000	25.818501	0.000293	20.813616
1476.413359	-3.002500	3.505400	-10.524000	25.819671	0.000292	20.831386
1477.416729	-2.985000	3.506100	-10.464000	25.775649	0.000292	20.826521
1478.414092	-3.006200	3.504300	-10.534000	25.783132	0.000293	20.826925
1479.413534	-2.971500	3.505600	-10.417000	25.726289	0.000290	20.822460
1480.415555	-2.993200	3.503900	-10.486000	25.703556	0.000290	20.811480
1481.416873	-2.993500	3.504900	-10.491000	25.724278	0.000291	20.809534
1482.416790	-2.999300	3.503200	-10.506000	25.743406	0.000289	20.805988
1483.419544	-2.993600	3.503500	-10.487000	25.817200	0.000290	20.800455
1484.416454	-3.007300	3.503100	-10.534000	25.828405	0.000291	20.811237
1485.417973	-3.023700	3.502900	-10.590000	25.786124	0.000292	20.798163
1486.422141	-2.993400	3.504700	-10.489000	25.771438	0.000291	20.792419
1487.419263	-2.983300	3.503700	-10.451000	25.808511	0.000290	20.829658
1488.421583	-3.010000	3.500400	-10.535000	25.828282	0.000291	20.826760
1489.417622	-2.977600	3.503200	-10.430000	25.862669	0.000292	20.800138
1490.421992	-2.997500	3.501000	-10.493000	25.829157	0.000290	20.796819
1491.419714	-3.004300	3.501100	-10.517000	25.842964	0.000288	20.822068
1492.420115	-2.978600	3.502300	-10.431000	25.835391	0.000289	20.800237
1493.421758	-3.029600	3.499500	-10.601000	25.792117	0.000289	20.819355
1494.420709	-3.006200	3.499800	-10.520000	25.757929	0.000289	20.809196
1495.425742	-3.000100	3.501000	-10.502000	25.706298	0.000290	20.787208
1496.423190	-3.002200	3.500200	-10.507000	25.700342	0.000289	20.803985
1497.419661	-2.995700	3.499900	-10.484000	25.732808	0.000289	20.822369
1498.419961	-3.011400	3.498700	-10.534000	25.785505	0.000287	20.800859
1499.419936	-3.001000	3.498300	-10.498000	25.771540	0.000287	20.791574
1500.421974	-3.014900	3.496900	-10.542000	25.764735	0.000287	20.803230
1501.423315	-3.000700	3.497700	-10.495000	25.768610	0.000289	20.799061
1502.424354	-2.986300	3.498200	-10.446000	25.772759	0.000285	20.798488
1503.423547	-2.973300	3.498500	-10.401000	25.797256	0.000288	20.800810
1504.426375	-2.981800	3.497100	-10.427000	25.808408	0.000287	20.791623
1505.423916	-3.001900	3.494700	-10.490000	25.823710	0.000288	20.772855
1506.424119	-2.982500	3.496600	-10.428000	25.833323	0.000286	20.775873
1507.425038	-2.996400	3.495200	-10.472000	25.854711	0.000284	20.782660
1508.424257	-2.987700	3.495900	-10.444000	25.823484	0.000286	20.800129
1509.427870	-3.002200	3.496200	-10.495000	25.793024	0.000284	20.798455
1510.424978	-3.014200	3.493200	-10.528000	25.794313	0.000285	20.806862
1511.424788	-2.985400	3.495400	-10.435000	25.768174	0.000284	20.797202
1512.428951	-3.014100	3.494100	-10.530000	25.761890	0.000283	20.799898
1513.425795	-3.026000	3.493500	-10.570000	25.803552	0.000283	20.785323
1514.428955	-2.990500	3.492700	-10.444000	25.805317	0.000282	20.782829
1515.427281	-2.987700	3.493800	-10.438000	25.795027	0.000281	20.790984
1516.428732	-2.965800	3.494400	-10.363000	25.849757	0.000283	20.783847
1517.427483	-2.999400	3.491700	-10.472000	25.889725	0.000281	20.788910
1518.427877	-2.990800	3.492500	-10.444000	25.863638	0.000281	20.784989
1519.429053	-2.984500	3.491400	-10.419000	25.793184	0.000281	20.790081
1520.427525	-2.976000	3.491500	-10.390000	25.778970	0.000278	20.797140
1521.426633	-2.989800	3.491000	-10.436000	25.753233	0.000280	20.791203
1522.427118	-2.984400	3.491600	-10.419000	25.752810	0.000279	20.788407
1523.429431	-2.996100	3.491500	-10.460000	25.805403	0.000279	20.782441
1524.427531	-3.007300	3.489900	-10.494000	25.798545	0.000280	20.776025
1525.430840	-2.993400	3.488900	-10.443000	25.774520	0.000280	20.799783
1526.429736	-3.003900	3.488800	-10.479000	25.796854	0.000279	20.794716
1527.428385	-2.983900	3.490500	-10.414000	25.830265	0.000280	20.780388
1528.429081	-2.997000	3.488200	-10.453000	25.860670	0.000279	20.791017
1529.426906	-2.974200	3.490300	-10.379000	25.856894	0.000278	20.786276
1530.427840	-3.024900	3.488100	-10.551000	25.814511	0.000277	20.798228
1531.431113	-3.004100	3.488100	-10.477000	25.780599	0.000276	20.777440
1532.429608	-3.027400	3.486200	-10.553000	25.764817	0.000276	20.772018
1533.428806	-3.012000	3.487100	-10.502000	25.792618	0.000276	20.790460
1534.431315	-2.989100	3.486800	-10.421000	25.830232	0.000275	20.760914
1535.431381	-3.007700	3.485700	-10.483000	25.829608	0.000276	20.770719
1536.434842	-3.006400	3.486000	-10.479000	25.843350	0.000275	20.788791
1537.430735	-2.985800	3.486900	-10.410000	25.845603	0.000276	20.785838
1538.430771	-2.983800	3.485500	-10.399000	25.873229	0.000273	20.774710
1539.431557	-2.984000	3.484900	-10.398000	25.870024	0.000275	20.768171
1540.432530	-3.005800	3.483000	-10.469000	25.847269	0.000275	20.780400
1541.433143	-2.985800	3.484800	-10.404000	25.793159	0.000274	20.771564
1542.430568	-2.965900	3.484900	-10.335000	25.782775	0.000273	20.764452
1543.430712	-2.998600	3.483800	-10.445000	25.770428	0.000272	20.759162
1544.431825	-3.006700	3.482300	-10.469000	25.832038	0.000273	20.771737
1545.432894	-3.017300	3.482200	-10.505000	25.859410	0.000272	20.765095
1546.432311	-3.000300	3.482100	-10.447000	25.891465	0.000271	20.770269
1547.433071	-3.005700	3.480500	-10.460000	25.917621	0.000269	20.780899
1548.432326	-2.980900	3.482000	-10.379000	25.908501	0.000270	20.774108
1549.433391	-2.991400	3.483400	-10.419000	25.937017	0.000274	20.762926
1550.434255	-3.000900	3.480500	-10.444000	25.907734	0.000272	20.761957
1551.435905	-2.987600	3.481200	-10.400000	25.920276	0.000273	20.770290
1552.436095	-2.992400	3.481800	-10.417000	25.902115	0.000272	20.801358
1553.431806	-3.013500	3.479500	-10.485000	25.852030	0.000270	20.757681
1554.433007	-2.970100	3.481400	-10.339000	25.843957	0.000271	20.778495
1555.433846	-2.986300	3.479700	-10.390000	25.811384	0.000271	20.773749
1556.434646	-2.994800	3.479800	-10.420000	25.789872	0.000268	20.784383
1557.435030	-3.000200	3.478900	-10.437000	25.810362	0.000267	20.761343
1558.437265	-2.997000	3.478100	-10.423000	25.797642	0.000270	20.768954
1559.432509	-2.984000	3.478500	-10.378000	25.824395	0.000269	20.770698
1560.434279	-3.010700	3.477100	-10.467000	25.855548	0.000269	20.781604
1561.435160	-2.986900	3.477300	-10.385000	25.811248	0.000267	20.755121
1562.434625	-3.013900	3.477900	-10.481000	25.819794	0.000266	20.772240
1563.436682	-2.995400	3.476300	-10.412000	25.800515	0.000269	20.771840
1564.435009	-2.974300	3.477700	-10.343000	25.780833	0.000266	20.770088
1565.434896	-2.991100	3.476300	-10.397000	25.787910	0.000267	20.767713
1566.435890	-3.000700	3.475700	-10.429000	25.771713	0.000266	20.769461
1567.435444	-2.972500	3.477100	-10.334000	25.860748	0.000267	20.761223
1568.436990	-2.990100	3.475500	-10.391000	25.864968	0.000265	20.749814
1569.435702	-2.989100	3.475100	-10.386000	25.843830	0.000265	20.777893
1570.435722	-2.985000	3.474800	-10.372000	25.862583	0.000263	20.774921
1571.435931	-2.983700	3.474000	-10.364000	25.877211	0.000264	20.771597
1572.436549	-3.000000	3.474100	-10.421000	25.906273	0.000263	20.757644
1573.436561	-3.004600	3.474400	-10.438000	25.942094	0.000265	20.784622
1574.436910	-2.998300	3.473100	-10.412000	25.944232	0.000264	20.767804
1575.436447	-3.005900	3.473000	-10.438000	25.945373	0.000261	20.768002
1576.436728	-2.992700	3.473000	-10.393000	25.892360	0.000263	20.758366
1577.437951	-3.002500	3.471900	-10.424000	25.853110	0.000262	20.760189
1578.436332	-3.013700	3.471700	-10.461000	25.851768	0.000262	20.762159
1579.438566	-2.995800	3.471800	-10.400000	25.856759	0.000260	20.771915
1580.438600	-3.010200	3.471400	-10.449000	25.830450	0.000261	20.759236
1581.438052	-2.987900	3.471000	-10.370000	25.801430	0.000260	20.763751
1582.438390	-2.982200	3.471800	-10.353000	25.794473	0.000259	20.731631
1583.439460	-3.006000	3.470100	-10.430000	25.849999	0.000258	20.772237
1584.439446	-2.984400	3.470300	-10.356000	25.878742	0.000259	20.770290
1585.442368	-3.001200	3.469300	-10.412000	25.852084	0.000258	20.754890
1586.440438	-2.996100	3.468800	-10.392000	25.831385	0.000260	20.772505
1587.440550	-2.975800	3.471200	-10.328000	25.843883	0.000260	20.776051
1588.442381	-3.008200	3.469500	-10.435000	25.804308	0.000258	20.782289
1589.442802	-2.972600	3.468600	-10.310000	25.777024	0.000259	20.773849
1590.445835	-3.019600	3.467700	-10.470000	25.766020	0.000256	20.758053
1591.442509	-3.006400	3.468600	-10.427000	25.809147	0.000258	20.779089
1592.444474	-2.985600	3.468300	-10.355000	25.854210	0.000255	20.775993
1593.442468	-2.992500	3.468000	-10.378000	25.830983	0.000254	20.780161
1594.442129	-3.006000	3.467000	-10.421000	25.806487	0.000257	20.749390
1595.442807	-3.016800	3.466100	-10.456000	25.754165	0.000256	20.772699
1596.442721	-2.997100	3.466900	-10.388000	25.763278	0.000254	20.778059
1597.443511	-3.007300	3.465200	-10.420000	25.751924	0.000253	20.771396
1598.441702	-2.983700	3.466900	-10.343000	25.741736	0.000257	20.785818
1599.446845	-3.003700	3.465700	-10.408000	25.768889	0.000255	20.774686
1600.443602	-3.019300	3.463900	-10.458000	25.786802	0.000256	20.771342
1601.445430	-3.018500	3.464300	-10.456000	25.814947	0.000255	20.776855
1602.443913	-2.992900	3.463500	-10.364000	25.841951	0.000253	20.766522
1603.444077	-2.998000	3.462900	-10.381000	25.870764	0.000255	20.771285
1604.443664	-3.011900	3.464900	-10.434000	25.922362	0.000253	20.751996
1605.444573	-3.022200	3.462800	-10.464000	25.896551	0.000252	20.780120
1606.445986	-2.986600	3.462100	-10.339000	25.894412	0.000251	20.780343
1607.445137	-3.003300	3.462800	-10.399000	25.887086	0.000251	20.772035
1608.446904	-3.001500	3.462300	-10.391000	25.940301	0.000249	20.782821
1609.445750	-3.015300	3.461300	-10.436000	25.964018	0.000252	20.782467
1610.449481	-3.001300	3.461800	-10.390000	25.916723	0.000251	20.789006
1611.450067	-3.025000	3.461800	-10.470000	25.910665	0.000250	20.772963
1612.448774	-3.011500	3.461400	-10.423000	25.876456	0.000250	20.773210
1613.447287	-2.989200	3.460200	-10.342000	25.917051	0.000250	20.778430
1614.448371	-2.984000	3.461700	-10.327000	25.909873	0.000250	20.783072
1615.448190	-3.018300	3.459700	-10.441000	25.929819	0.000250	20.789834
1616.448472	-2.997900	3.460100	-10.372000	25.914075	0.000247	20.789191
1617.454243	-2.991900	3.460300	-10.352000	25.954267	0.000247	20.776463
1618.448226	-3.004200	3.458200	-10.388000	25.976547	0.000247	20.788890
1619.447733	-3.023200	3.458400	-10.455000	25.886355	0.000247	20.779362
1620.448135	-3.021900	3.458500	-10.449000	25.897109	0.000245	20.772620
1621.450531	-3.005800	3.458500	-10.395000	25.929183	0.000245	20.787773
1622.454521	-3.005500	3.457400	-10.390000	25.962524	0.000246	20.803251
1623.452167	-2.980200	3.459000	-10.308000	25.966250	0.000246	20.785183
1624.453604	-2.992800	3.458500	-10.350000	25.949309	0.000245	20.786655
1625.457744	-3.012000	3.456100	-10.409000	25.989901	0.000246	20.797091
1626.453322	-3.005300	3.457600	-10.391000	25.968097	0.000242	20.776607
1627.455966	-3.013400	3.455600	-10.412000	25.980294	0.000244	20.794551
1628.454165	-3.014700	3.456600	-10.420000	25.934813	0.000242	20.794852
1629.453026	-3.010800	3.455100	-10.402000	25.905280	0.000242	20.771346
1630.453289	-3.018600	3.455200	-10.429000	25.871871	0.000242	20.767656
1631.454594	-3.010200	3.454600	-10.398000	25.883745	0.000244	20.779584
1632.454629	-3.013200	3.454500	-10.408000	25.887972	0.000243	20.785727
1633.455682	-3.006000	3.455000	-10.385000	25.921064	0.000242	20.787677
1634.454731	-3.023900	3.452700	-10.440000	25.868202	0.000241	20.789574
1635.454859	-3.000600	3.452600	-10.359000	25.889720	0.000242	20.789854
1636.454427	-2.994800	3.453000	-10.340000	25.912228	0.000240	20.783542
1637.455986	-3.005700	3.451700	-10.373000	25.913422	0.000240	20.791380
1638.456774	-2.981300	3.453200	-10.295000	25.927631	0.000241	20.797119
1639.455244	-2.994500	3.451400	-10.334000	25.898520	0.000242	20.791108
1640.457161	-3.015000	3.451900	-10.407000	25.926617	0.000240	20.781876
1641.459132	-3.008800	3.452700	-10.388000	25.877633	0.000240	20.793833
1642.457412	-3.002300	3.452100	-10.364000	25.902156	0.000239	20.781484
1643.461334	-3.002700	3.450300	-10.359000	25.881065	0.000240	20.786849
1644.458838	-3.009600	3.450100	-10.382000	25.880744	0.000240	20.781311
1645.459105	-2.987900	3.452000	-10.313000	25.880794	0.000241	20.802224
1646.459170	-2.989400	3.449700	-10.312000	25.858638	0.000239	20.773803
1647.460681	-2.994900	3.450200	-10.332000	25.876123	0.000240	20.779988
1648.459898	-2.990100	3.448800	-10.311000	25.918331	0.000240	20.805794
1649.461495	-3.004000	3.447900	-10.357000	25.957184	0.000238	20.778920
1650.462002	-2.978700	3.450300	-10.275000	26.015734	0.000238	20.793173
1651.464432	-2.978100	3.449400	-10.271000	26.025247	0.000241	20.804627
1652.466246	-3.005800	3.447300	-10.361000	25.995564	0.000240	20.785236
1653.463789	-3.019500	3.447700	-10.409000	26.008159	0.000239	20.793149
1654.464210	-2.990000	3.448000	-10.309000	25.948697	0.000238	20.812593
1655.463773	-3.020000	3.447300	-10.410000	25.903359	0.000239	20.799288
1656.464424	-2.982200	3.448000	-10.282000	25.901750	0.000239	20.784395
1657.465125	-3.011300	3.445800	-10.375000	25.922066	0.000236	20.786313
1658.463602	-3.008400	3.444700	-10.362000	25.961144	0.000237	20.792382
1659.464314	-3.005700	3.447400	-10.361000	25.955481	0.000237	20.798546
1660.463826	-2.999400	3.447400	-10.339000	25.991202	0.000235	20.783224
1661.463094	-3.036300	3.445400	-10.461000	26.012143	0.000236	20.794307
1662.464428	-2.987700	3.446300	-10.296000	25.992987	0.000236	20.800191
1663.465246	-2.999500	3.445200	-10.333000	25.960299	0.000235	20.781575
1664.464138	-3.028500	3.443500	-10.428000	25.911095	0.000236	20.796629
1665.463542	-3.012200	3.444800	-10.375000	25.890303	0.000235	20.793285
1666.465064	-3.012700	3.444500	-10.376000	25.906675	0.000234	20.800723
1667.463413	-2.986300	3.444800	-10.287000	25.945652	0.000234	20.799577
1668.466862	-3.001900	3.442600	-10.334000	25.908042	0.000235	20.805415
1669.464585	-2.992200	3.443000	-10.301000	25.920342	0.000233	20.808289
1670.465318	-2.987600	3.443700	-10.287000	25.927520	0.000233	20.804120
1671.465096	-2.990900	3.442000	-10.294000	25.946969	0.000235	20.813702
1672.465191	-2.986100	3.441300	-10.275000	25.992306	0.000233	20.808990
1673.467585	-3.006600	3.440800	-10.345000	25.942775	0.000231	20.832721
1674.467816	-3.003600	3.440200	-10.332000	25.955990	0.000230	20.816601
1675.464630	-3.008000	3.440200	-10.346000	25.997021	0.000232	20.796657
1676.465216	-2.999400	3.441200	-10.321000	26.020843	0.000233	20.814902
1677.467738	-2.964400	3.441100	-10.200000	25.969303	0.000230	20.811010
1678.465254	-2.974300	3.441300	-10.234000	25.980281	0.000229	20.821091
1679.469293	-3.014900	3.440000	-10.371000	26.000874	0.000230	20.820917
1680.465322	-3.004000	3.438600	-10.328000	26.043574	0.000228	20.805971
1681.465240	-3.003600	3.437600	-10.325000	26.017048	0.000230	20.798760
1682.465058	-2.990400	3.439100	-10.283000	25.976038	0.000228	20.802603
1683.466631	-3.001800	3.438900	-10.322000	25.972833	0.000231	20.816452
1684.467175	-2.980600	3.438200	-10.247000	25.967292	0.000227	20.821791
1685.465366	-3.012700	3.437900	-10.356000	26.017347	0.000227	20.800484
1686.467680	-2.998900	3.436900	-10.305000	26.047280	0.000231	20.802582
1687.464315	-3.000800	3.436300	-10.311000	26.010100	0.000227	20.818332
1688.464716	-3.010500	3.435200	-10.340000	26.029745	0.000227	20.814362
1689.465537	-2.990000	3.437100	-10.276000	26.012287	0.000228	20.805357
1690.466549	-2.971400	3.437000	-10.212000	25.983798	0.000227	20.808503
1691.465786	-2.996700	3.437600	-10.301000	25.976896	0.000225	20.836655
1692.466300	-2.998200	3.435400	-10.299000	25.977544	0.000227	20.816918
1693.467917	-2.999500	3.436000	-10.305000	25.995929	0.000227	20.817372
1694.467571	-2.982900	3.436100	-10.248000	25.943891	0.000225	20.809662
1695.469769	-3.008000	3.434500	-10.330000	25.932170	0.000223	20.806421
1696.468984	-3.005600	3.435000	-10.324000	25.893414	0.000225	20.820592
1697.469760	-3.004400	3.433600	-10.315000	25.880905	0.000224	20.806128
1698.473595	-2.999100	3.435000	-10.301000	25.870546	0.000225	20.833179
1699.469826	-2.993300	3.434000	-10.278000	25.881681	0.000226	20.825874
1700.473187	-3.015100	3.433200	-10.350000	25.871522	0.000227	20.811876
1701.468732	-3.013100	3.433300	-10.345000	25.914400	0.000223	20.818914
1702.469729	-3.003000	3.431800	-10.305000	25.989844	0.000226	20.825008
1703.469831	-3.019900	3.431000	-10.360000	26.015575	0.000224	20.813402
1704.469615	-2.988200	3.431300	-10.252000	26.040066	0.000223	20.804818
1705.470571	-2.993800	3.431400	-10.272000	26.039204	0.000224	20.818176
1706.473482	-3.021600	3.431100	-10.366000	26.052369	0.000222	20.819075
1707.474019	-2.992900	3.430100	-10.265000	26.051921	0.000223	20.813410
1708.472703	-2.996100	3.431600	-10.280000	26.095366	0.000223	20.816284
1709.473205	-2.978500	3.431500	-10.220000	26.051232	0.000224	20.829313
1710.474587	-2.987500	3.429900	-10.246000	26.028703	0.000223	20.833703
1711.474050	-2.956800	3.430600	-10.143000	26.021476	0.000221	20.822176
1712.474531	-3.023300	3.428300	-10.363000	26.007470	0.000223	20.825173
1713.473758	-3.020900	3.428900	-10.357000	25.978628	0.000220	20.836499
1714.476416	-2.978400	3.429400	-10.214000	25.950861	0.000219	20.819034
1715.475412	-2.994600	3.428400	-10.266000	25.942792	0.000219	20.829894
1716.479646	-2.992100	3.427600	-10.255000	25.937379	0.000218	20.845318
1717.475893	-2.991500	3.428700	-10.255000	25.984353	0.000219	20.823285
1718.475682	-2.993800	3.427200	-10.260000	26.000527	0.000217	20.824361
1719.476765	-3.001300	3.426500	-10.283000	25.976560	0.000218	20.833473
1720.478572	-3.012400	3.426900	-10.322000	25.996033	0.000218	20.814631
1721.480138	-3.018700	3.426400	-10.342000	26.015534	0.000218	20.808620
1722.480869	-2.988100	3.426500	-10.238000	26.012383	0.000217	20.825367
1723.476803	-3.003400	3.427000	-10.292000	26.016659	0.000217	20.821603
1724.478815	-3.015100	3.425100	-10.326000	26.014476	0.000215	20.844065
1725.478800	-3.002300	3.425600	-10.283000	25.992820	0.000215	20.834162
1726.479141	-3.018200	3.424300	-10.334000	25.949548	0.000215	20.846164
1727.482055	-2.989400	3.424000	-10.235000	25.972108	0.000216	20.825207
1728.477868	-2.980100	3.424200	-10.203000	25.985819	0.000214	20.819068
1729.479948	-2.995000	3.423800	-10.253000	26.006540	0.000215	20.835144
1730.481990	-3.035500	3.422800	-10.388000	25.982495	0.000216	20.838013
1731.478559	-3.010400	3.422900	-10.303000	25.941464	0.000213	20.837568
1732.482578	-3.017400	3.422800	-10.327000	25.974033	0.000212	20.834253
1733.479426	-2.994400	3.424100	-10.252000	25.958360	0.000216	20.842689
1734.480649	-3.012100	3.421000	-10.304000	25.990703	0.000215	20.842940
1735.478252	-3.003000	3.421900	-10.275000	26.005338	0.000215	20.846738
1736.478678	-3.005100	3.420600	-10.278000	25.990511	0.000215	20.847962
1737.478620	-2.986900	3.421300	-10.219000	26.012987	0.000216	20.842569
1738.482317	-2.990600	3.421700	-10.232000	26.023173	0.000214	20.833837
1739.479680	-2.992100	3.421100	-10.235000	25.987080	0.000214	20.846886
1740.479053	-3.029400	3.419000	-10.356000	26.006680	0.000214	20.832914
1741.482335	-3.013200	3.420200	-10.305000	26.013439	0.000213	20.852032
1742.478233	-2.996300	3.420500	-10.248000	26.014477	0.000217	20.831264
1743.480736	-2.992500	3.420300	-10.234000	26.033334	0.000214	20.846416
1744.479733	-3.023500	3.418600	-10.336000	26.034700	0.000216	20.859642
1745.478654	-2.995400	3.419600	-10.243000	26.031639	0.000214	20.847558
1746.478766	-3.001500	3.417100	-10.255000	26.036338	0.000211	20.864132
1747.478690	-2.990800	3.418500	-10.223000	26.023965	0.000214	20.862132
1748.480194	-3.016500	3.417300	-10.307000	25.995201	0.000213	20.842244
1749.479330	-3.005500	3.418700	-10.274000	26.034790	0.000213	20.847405
1750.479366	-2.993500	3.418300	-10.232000	26.026492	0.000213	20.845233
1751.478867	-2.971000	3.418500	-10.155000	26.024855	0.000209	20.863501
1752.480249	-3.031000	3.416000	-10.353000	25.988988	0.000211	20.848329
1753.480113	-2.983000	3.417200	-10.193000	25.974181	0.000209	20.851945
1754.482202	-2.995300	3.417100	-10.234000	25.971501	0.000208	20.859683
1755.480363	-3.018400	3.415100	-10.307000	25.981605	0.000210	20.849446
1756.478931	-2.982000	3.415800	-10.185000	25.981059	0.000208	20.841786
1757.480447	-3.010400	3.414500	-10.278000	26.026345	0.000209	20.852196
1758.479465	-3.011400	3.415100	-10.283000	26.021498	0.000207	20.864870
1759.482518	-2.978100	3.415100	-10.169000	25.999317	0.000208	20.892369
1760.483813	-2.989800	3.413900	-10.206000	26.022614	0.000207	20.863146
1761.480896	-2.991400	3.413900	-10.211000	26.068936	0.000207	20.865117
1762.480858	-2.987500	3.412700	-10.195000	26.098047	0.000209	20.869710
1763.481930	-3.012600	3.412500	-10.279000	26.136840	0.000207	20.845154
1764.483519	-2.991400	3.413300	-10.210000	26.142622	0.000207	20.868032
1765.482439	-2.987300	3.413200	-10.195000	26.129930	0.000207	20.876615
1766.481571	-3.012900	3.413200	-10.282000	26.078789	0.000205	20.864111
1767.482310	-2.995300	3.413400	-10.223000	26.080479	0.000207	20.881930
1768.482911	-3.002200	3.412200	-10.243000	26.028240	0.000205	20.871169
1769.486378	-3.026700	3.411100	-10.323000	26.021309	0.000205	20.863731
1770.485993	-2.992200	3.412600	-10.210000	25.990013	0.000204	20.891082
1771.483793	-2.977000	3.411100	-10.153000	26.008444	0.000204	20.870720
1772.485150	-3.005800	3.410700	-10.251000	26.047412	0.000204	20.856768
1773.487204	-2.995300	3.410000	-10.213000	26.049247	0.000203	20.868093
1774.486936	-3.030600	3.408500	-10.328000	26.081361	0.000203	20.881393
1775.488882	-2.995700	3.411100	-10.217000	26.051627	0.000201	20.884234
1776.487515	-3.015800	3.408900	-10.280000	26.021001	0.000202	20.877646
1777.485392	-3.004500	3.409600	-10.243000	26.051922	0.000202	20.903021
1778.489516	-2.992400	3.409500	-10.202000	26.085108	0.000203	20.873304
1779.487253	-3.031100	3.407800	-10.329000	26.104176	0.000202	20.911901
1780.491315	-3.005600	3.408400	-10.243000	26.117467	0.000202	20.870732
1781.488384	-2.985100	3.408300	-10.174000	26.053034	0.000201	20.881381
1782.489043	-2.999000	3.406900	-10.216000	26.006884	0.000202	20.874368
1783.487937	-3.007900	3.406900	-10.247000	26.007577	0.000202	20.905408
1784.487952	-3.006000	3.406900	-10.240000	26.067089	0.000200	20.885544
1785.492013	-2.985500	3.407900	-10.172000	26.136158	0.000203	20.881925
1786.489940	-3.019900	3.404600	-10.281000	26.164397	0.000202	20.892755
1787.488869	-2.995600	3.405300	-10.199000	26.172788	0.000199	20.917306
1788.487361	-3.018000	3.405000	-10.276000	26.169259	0.000203	20.910916
1789.491316	-2.990500	3.405200	-10.183000	26.144594	0.000201	20.906521
1790.491379	-3.016400	3.404600	-10.269000	26.102321	0.000200	20.921416
1791.491583	-2.995500	3.404500	-10.197000	26.087171	0.000203	20.903350
1792.491872	-2.998100	3.403400	-10.202000	26.097299	0.000201	20.913525
1793.489635	-3.026600	3.404500	-10.303000	26.105120	0.000200	20.889143
1794.493490	-2.997200	3.403600	-10.200000	26.156079	0.000200	20.907155
1795.492567	-3.011600	3.402700	-10.246000	26.102313	0.000200	20.898650
1796.495239	-2.952600	3.404600	-10.051000	26.087384	0.000198	20.907831
1797.491312	-2.979900	3.403600	-10.141000	26.099252	0.000196	20.901738
1798.494351	-3.000400	3.402500	-10.208000	26.137770	0.000198	20.919103
1799.496853	-2.992200	3.402000	-10.178000	26.199338	0.000195	20.913640
1800.494904	-3.004000	3.401500	-10.217000	26.213219	0.000198	20.916683
1801.497792	-3.003900	3.400000	-10.212000	26.250741	0.000198	20.929731
1802.495384	-3.012600	3.400500	-10.243000	26.288708	0.000197	20.923790
1803.495014	-2.999100	3.400700	-10.198000	26.256895	0.000197	20.909365
1804.495014	-2.971500	3.400200	-10.103000	26.234920	0.000196	20.923316
1805.495361	-2.989200	3.399900	-10.162000	26.226053	0.000195	20.924837
1806.495445	-2.993300	3.399700	-10.174000	26.192946	0.000193	20.913380
1807.497739	-2.986200	3.399500	-10.150000	26.140966	0.000195	20.922788
1808.495723	-2.981200	3.399000	-10.132000	26.118090	0.000195	20.917820
1809.496387	-2.993600	3.398800	-10.174000	26.127434	0.000193	20.926734
1810.499026	-3.006400	3.398300	-10.216000	26.107610	0.000192	20.912980
1811.497965	-3.001600	3.397800	-10.198000	26.139419	0.000193	20.905114
1812.498923	-2.996800	3.398000	-10.182000	26.108780	0.000192	20.915578
1813.497023	-3.010200	3.398100	-10.227000	26.175068	0.000193	20.910115
1814.497258	-2.996200	3.398300	-10.181000	26.205559	0.000191	20.919416
1815.497077	-3.007700	3.396700	-10.216000	26.203597	0.000195	20.900377
1816.497638	-2.981500	3.396400	-10.125000	26.143223	0.000193	20.897557
1817.498231	-3.008600	3.396500	-10.218000	26.156510	0.000193	20.913751
1818.498875	-2.997400	3.395500	-10.177000	26.143248	0.000192	20.916072
1819.497451	-2.975100	3.397400	-10.107000	26.170042	0.000193	20.892738
1820.498106	-3.021200	3.395800	-10.257000	26.171531	0.000190	20.904191
1821.496434	-2.992800	3.395400	-10.161000	26.189265	0.000190	20.894511
1822.498933	-2.990500	3.395600	-10.154000	26.214643	0.000194	20.914794
1823.498164	-3.002300	3.394700	-10.191000	26.223111	0.000191	20.883952
1824.498075	-2.997200	3.395200	-10.175000	26.235551	0.000193	20.899297
1825.498121	-3.006400	3.394500	-10.205000	26.233590	0.000192	20.900645
1826.498802	-3.001200	3.393600	-10.184000	26.185782	0.000190	20.891484
1827.497920	-2.996700	3.392900	-10.166000	26.158984	0.000189	20.884472
1828.501760	-3.007900	3.393600	-10.206000	26.160567	0.000192	20.902183
1829.497383	-3.021300	3.391300	-10.245000	26.136900	0.000190	20.903531
1830.497568	-2.994100	3.392100	-10.156000	26.157638	0.000190	20.893076
1831.499444	-3.000700	3.391700	-10.176000	26.124504	0.000188	20.890128
1832.502766	-2.990900	3.390200	-10.139000	26.180628	0.000189	20.881091
1833.498771	-3.015300	3.389700	-10.219000	26.194509	0.000189	20.908313
1834.501034	-2.981500	3.390800	-10.109000	26.238665	0.000187	20.877772
1835.499539	-3.013000	3.391100	-10.216000	26.266996	0.000189	20.905765
1836.502029	-3.017000	3.389400	-10.225000	26.260788	0.000188	20.871081
1837.501226	-2.996700	3.389300	-10.155000	26.218864	0.000186	20.869254
1838.499652	-3.018900	3.389600	-10.232000	26.192564	0.000186	20.902092
1839.502433	-3.001200	3.390100	-10.173000	26.150239	0.000186	20.890858
1840.501361	-3.009500	3.390700	-10.203000	26.133153	0.000186	20.887914
1841.500734	-2.986200	3.389600	-10.121000	26.142813	0.000183	20.884818
1842.500648	-3.011300	3.388100	-10.202000	26.177107	0.000184	20.892725
1843.500942	-3.026500	3.387100	-10.250000	26.164162	0.000187	20.902001
1844.502218	-3.004300	3.387900	-10.177000	26.164806	0.000184	20.882736
1845.500793	-3.009500	3.386900	-10.192000	26.149509	0.000182	20.901977
1846.502250	-2.992200	3.387100	-10.134000	26.111607	0.000184	20.867688
1847.502031	-2.977400	3.386400	-10.082000	26.097720	0.000183	20.857055
1848.503069	-2.983400	3.387800	-10.106000	26.075365	0.000185	20.895755
1849.503364	-2.999800	3.386100	-10.157000	26.039076	0.000183	20.902442
1850.505307	-3.028400	3.385700	-10.252000	26.066394	0.000182	20.886743
1851.504328	-3.011100	3.386200	-10.194000	26.098434	0.000180	20.902339
1852.505475	-3.007700	3.384500	-10.179000	26.138147	0.000180	20.871122
1853.504496	-3.000000	3.384900	-10.153000	26.179446	0.000182	20.884171
1854.503112	-3.003800	3.385700	-10.170000	26.187665	0.000183	20.896695
1855.507940	-3.005200	3.383700	-10.168000	26.170157	0.000184	20.898068
1856.503501	-2.992700	3.384800	-10.129000	26.169783	0.000180	20.879203
1857.504658	-3.026900	3.382700	-10.237000	26.215623	0.000181	20.868368
1858.504539	-3.006400	3.383000	-10.169000	26.191538	0.000180	20.902484
1859.504069	-3.016600	3.383300	-10.205000	26.209046	0.000180	20.878353
1860.509024	-2.993000	3.384400	-10.128000	26.205669	0.000181	20.894399
1861.508943	-2.996100	3.382400	-10.132000	26.214630	0.000179	20.876853
1862.506195	-2.999000	3.382400	-10.143000	26.191411	0.000180	20.865849
1863.509645	-2.986400	3.382700	-10.101000	26.187312	0.000179	20.884014
1864.510867	-3.033100	3.381700	-10.256000	26.178671	0.000180	20.880073
1865.507128	-2.994000	3.381800	-10.124000	26.194492	0.000179	20.883169
1866.510695	-3.002800	3.381200	-10.152000	26.207204	0.000177	20.857063
1867.508114	-3.008400	3.379600	-10.166000	26.247880	0.000179	20.858584
1868.507910	-3.010900	3.379200	-10.174000	26.286151	0.000179	20.889930
1869.507994	-3.001500	3.379300	-10.143000	26.288707	0.000177	20.866422
1870.513184	-3.002000	3.379300	-10.144000	26.324762	0.000177	20.860930
1871.511171	-2.981300	3.380300	-10.077000	26.350657	0.000177	20.877471
1872.509685	-3.008000	3.379100	-10.163000	26.368835	0.000175	20.872981
1873.510879	-2.981200	3.378800	-10.072000	26.345172	0.000176	20.861054
1874.509547	-3.022800	3.378100	-10.210000	26.333078	0.000176	20.871658
1875.509547	-2.992300	3.379500	-10.111000	26.373770	0.000175	20.877941
1876.512297	-2.985600	3.378300	-10.085000	26.378915	0.000171	20.850871
1877.510144	-3.011300	3.377900	-10.170000	26.364806	0.000174	20.862295
1878.508146	-2.997200	3.376400	-10.118000	26.356983	0.000173	20.862019
1879.512011	-3.021800	3.376900	-10.202000	26.380777	0.000173	20.838044
1880.511723	-3.026300	3.376200	-10.216000	26.405875	0.000174	20.867535
1881.516120	-3.015500	3.376500	-10.181000	26.400985	0.000173	20.862147
1882.512155	-3.004100	3.376200	-10.141000	26.391373	0.000172	20.869555
1883.514025	-2.994500	3.375000	-10.105000	26.369824	0.000171	20.855958
1884.514402	-2.992900	3.376600	-10.105000	26.349262	0.000173	20.859475
1885.515413	-2.999800	3.375700	-10.125000	26.288650	0.000171	20.867312
1886.518643	-2.994600	3.374500	-10.105000	26.266421	0.000170	20.858725
1887.520823	-3.006700	3.374300	-10.144000	26.247921	0.000170	20.877591
1888.516491	-3.001400	3.374400	-10.127000	26.276235	0.000169	20.843932
1889.516170	-3.022800	3.373600	-10.196000	26.206104	0.000169	20.840312
1890.517973	-2.999600	3.373900	-10.120000	26.187152	0.000167	20.871052
1891.516532	-3.011800	3.374100	-10.161000	26.175757	0.000169	20.849646
1892.517385	-2.990600	3.374800	-10.092000	26.190135	0.000169	20.846076
1893.517251	-3.008800	3.372700	-10.147000	26.203642	0.000167	20.860596
1894.518495	-2.992200	3.373200	-10.093000	26.230669	0.000168	20.844134
1895.521653	-3.020800	3.370300	-10.180000	26.246662	0.000167	20.845507
1896.518046	-2.994000	3.372400	-10.097000	26.272559	0.000167	20.839289
1897.521387	-2.990100	3.371900	-10.082000	26.284580	0.000167	20.848999
1898.518923	-3.005600	3.371500	-10.133000	26.297471	0.000166	20.861479
1899.519151	-2.975400	3.371400	-10.029000	26.299034	0.000167	20.866842
1900.519653	-2.984200	3.370600	-10.057000	26.312893	0.000167	20.845210
1901.519810	-3.011500	3.369800	-10.147000	26.354435	0.000165	20.835278
1902.520244	-2.990900	3.370200	-10.079000	26.423117	0.000167	20.825597
1903.525770	-3.019000	3.368700	-10.169000	26.406827	0.000164	20.856164
1904.520465	-3.014500	3.369000	-10.155000	26.361807	0.000164	20.859755
1905.520487	-3.012400	3.368100	-10.145000	26.311285	0.000165	20.854973
1906.524311	-2.996900	3.369300	-10.097000	26.287940	0.000164	20.820134
1907.520926	-3.027900	3.368200	-10.198000	26.259184	0.000165	20.842917
1908.526267	-3.009400	3.367800	-10.133000	26.270188	0.000163	20.836432
1909.521159	-3.016800	3.367200	-10.157000	26.310242	0.000163	20.856296
1910.520169	-3.015000	3.366300	-10.148000	26.336589	0.000162	20.838205
1911.522743	-2.989500	3.368300	-10.069000	26.342378	0.000161	20.856350
1912.521154	-2.997800	3.367200	-10.093000	26.317525	0.000161	20.825209
1913.522931	-3.003800	3.367000	-10.113000	26.361500	0.000160	20.857075
1914.521594	-3.009900	3.366100	-10.131000	26.362866	0.000160	20.836164
1915.522371	-3.016000	3.364800	-10.148000	26.346682	0.000161	20.842658
1916.522693	-3.022300	3.363900	-10.165000	26.322074	0.000159	20.841635
1917.522359	-2.993700	3.365000	-10.073000	26.340208	0.000159	20.838997
1918.522120	-3.027000	3.363800	-10.181000	26.400542	0.000159	20.825193
1919.525327	-3.004400	3.364700	-10.109000	26.398138	0.000160	20.827044
1920.522841	-3.004500	3.362700	-10.102000	26.440650	0.000159	20.833262
1921.523430	-2.986600	3.364100	-10.046000	26.439907	0.000157	20.842472
1922.525036	-3.009100	3.362500	-10.117000	26.419207	0.000158	20.840159
1923.524618	-3.001600	3.362300	-10.091000	26.369024	0.000158	20.833818
1924.525221	-3.005600	3.361900	-10.103000	26.360683	0.000156	20.833971
1925.523215	-2.984200	3.362400	-10.033000	26.309955	0.000158	20.813335
1926.523283	-3.001600	3.361900	-10.090000	26.282964	0.000156	20.815133
1927.523983	-2.973500	3.363500	-9.999700	26.291981	0.000157	20.836523
1928.522723	-3.001600	3.361600	-10.089000	26.332811	0.000158	20.828244
1929.525592	-2.981800	3.362500	-10.025000	26.349250	0.000156	20.830541
1930.527560	-2.998000	3.360600	-10.075000	26.361221	0.000158	20.831192
1931.524951	-3.004100	3.361100	-10.097000	26.395784	0.000157	20.833212
1932.524967	-2.992100	3.360000	-10.053000	26.399738	0.000156	20.847618
1933.527947	-3.004700	3.359200	-10.093000	26.371904	0.000155	20.820118
1934.525314	-2.982300	3.359500	-10.018000	26.370468	0.000156	20.828632
1935.528509	-3.023700	3.358500	-10.154000	26.383333	0.000156	20.821647
1936.524571	-3.009800	3.358800	-10.108000	26.340852	0.000156	20.839644
1937.524353	-3.001000	3.357500	-10.075000	26.350563	0.000157	20.803886
1938.528315	-2.980000	3.358100	-10.006000	26.360347	0.000155	20.823676
1939.529095	-3.026400	3.357600	-10.160000	26.358411	0.000155	20.830739
1940.525977	-3.005200	3.357000	-10.086000	26.325012	0.000154	20.823251
1941.524723	-3.021800	3.356400	-10.142000	26.346017	0.000153	20.809749
1942.525373	-3.022500	3.356200	-10.143000	26.330776	0.000153	20.804389
1943.526231	-3.007800	3.358300	-10.101000	26.330153	0.000153	20.796650
1944.525967	-2.998700	3.357400	-10.067000	26.359556	0.000156	20.827148
1945.528439	-2.971200	3.357500	-9.974900	26.373561	0.000155	20.821784
1946.527466	-2.991700	3.356800	-10.042000	26.345849	0.000153	20.811950
1947.526960	-2.994300	3.355800	-10.047000	26.358140	0.000155	20.798699
1948.528025	-2.985300	3.356500	-10.019000	26.413682	0.000153	20.824175
1949.525895	-2.997000	3.356800	-10.059000	26.365586	0.000151	20.806656
1950.533416	-2.986500	3.354000	-10.016000	26.368220	0.000150	20.814993
1951.527325	-3.017600	3.353900	-10.120000	26.411820	0.000152	20.809027
1952.527203	-2.991300	3.355100	-10.035000	26.435428	0.000149	20.825169
1953.527930	-2.971300	3.355400	-9.968700	26.464007	0.000150	20.824971
1954.528421	-2.999200	3.352800	-10.055000	26.404612	0.000151	20.798938
1955.527352	-3.003800	3.352300	-10.069000	26.388002	0.000150	20.813063
1956.530509	-2.987800	3.352400	-10.016000	26.427876	0.000151	20.808095
1957.529292	-2.996500	3.351300	-10.041000	26.477679	0.000149	20.806945
1958.529076	-2.985900	3.354000	-10.013000	26.458913	0.000146	20.816057
1959.530729	-2.980400	3.351500	-9.988000	26.434058	0.000148	20.809093
1960.529695	-3.025800	3.350500	-10.137000	26.435596	0.000147	20.814432
1961.532781	-3.003900	3.351000	-10.065000	26.412607	0.000146	20.794646
1962.530034	-3.007400	3.351300	-10.077000	26.384346	0.000145	20.825036
1963.530633	-3.004900	3.351400	-10.070000	26.380523	0.000146	20.811711
1964.531370	-3.003500	3.350100	-10.061000	26.410913	0.000146	20.834194
1965.530637	-2.988900	3.349900	-10.011000	26.420746	0.000142	20.803300
1966.531950	-3.007300	3.349200	-10.071000	26.502209	0.000145	20.821643
1967.531687	-2.998500	3.349400	-10.042000	26.523092	0.000143	20.799012
1968.533027	-2.998600	3.350100	-10.045000	26.541337	0.000143	20.789376
1969.532407	-3.005700	3.347700	-10.061000	26.580836	0.000143	20.807270
1970.531303	-2.985500	3.348500	-9.996000	26.634361	0.000142	20.817454
1971.531981	-2.977200	3.349300	-9.970500	26.640193	0.000142	20.775902
1972.531347	-3.032800	3.346500	-10.148000	26.603029	0.000142	20.797812
1973.530462	-2.999300	3.347600	-10.040000	26.570930	0.000141	20.784511
1974.532669	-3.003300	3.347000	-10.051000	26.511873	0.000142	20.779201
1975.533722	-3.013000	3.346700	-10.083000	26.427133	0.000139	20.808297
1976.533091	-2.985200	3.347000	-9.990700	26.431133	0.000141	20.786713
1977.535800	-3.010300	3.346400	-10.073000	26.420508	0.000141	20.795949
1978.533913	-3.013000	3.346200	-10.082000	26.402036	0.000140	20.812944
1979.534832	-3.028600	3.344500	-10.127000	26.409736	0.000139	20.794130
1980.535701	-2.984500	3.346700	-9.986800	26.390119	0.000140	20.813769
1981.534513	-3.001600	3.346400	-10.043000	26.390914	0.000138	20.799870
1982.538075	-3.001400	3.344500	-10.037000	26.429554	0.000141	20.789867
1983.534915	-2.986400	3.343500	-9.984000	26.472605	0.000137	20.795681
1984.535910	-2.996800	3.343800	-10.020000	26.511016	0.000138	20.792090
1985.537162	-2.994200	3.343100	-10.008000	26.514117	0.000139	20.769128
1986.536314	-2.984800	3.343600	-9.978600	26.483783	0.000137	20.806916
1987.539093	-2.978400	3.343800	-9.958300	26.400633	0.000136	20.788775
1988.536880	-3.013200	3.341800	-10.069000	26.429784	0.000136	20.787253
1989.537338	-3.014100	3.341500	-10.071000	26.464151	0.000134	20.779123
1990.537990	-2.977500	3.343900	-9.955400	26.542703	0.000132	20.788853
1991.539818	-3.015500	3.341400	-10.076000	26.545336	0.000137	20.792923
1992.537225	-3.000100	3.341600	-10.024000	26.521558	0.000134	20.787039
1993.541802	-3.004700	3.341100	-10.038000	26.578285	0.000134	20.782895
1994.537141	-2.996500	3.341900	-10.013000	26.578088	0.000135	20.774637
1995.535569	-3.011800	3.341600	-10.063000	26.574098	0.000134	20.789117
1996.536690	-2.996800	3.341100	-10.011000	26.583802	0.000135	20.773268
1997.537499	-3.008000	3.340400	-10.046000	26.565111	0.000134	20.772971
1998.543151	-2.991600	3.340600	-9.992900	26.582961	0.000131	20.779535
1999.539339	-2.979900	3.340100	-9.951700	26.547309	0.000134	20.785897
2000.538088	-2.993400	3.338600	-9.992900	26.550267	0.000131	20.799301
2001.540187	-2.984500	3.340500	-9.969700	26.538897	0.000130	20.782656
2002.540363	-2.992900	3.338700	-9.992000	26.524278	0.000131	20.781712
2003.540518	-3.000900	3.337700	-10.014000	26.524401	0.000130	20.780888
2004.541254	-3.005000	3.338400	-10.030000	26.451608	0.000133	20.770782
2005.540829	-3.015900	3.337000	-10.063000	26.458634	0.000131	20.774526
2006.541304	-2.971000	3.338800	-9.918200	26.425415	0.000129	20.773380
2007.540786	-3.003100	3.337000	-10.019000	26.485975	0.000128	20.777350
2008.543011	-3.029800	3.334900	-10.103000	26.524114	0.000129	20.781074
2009.544842	-3.000500	3.335200	-10.006000	26.546403	0.000131	20.772658
2010.543037	-3.009900	3.335700	-10.039000	26.509142	0.000128	20.764127
2011.542483	-3.022100	3.334100	-10.075000	26.539656	0.000130	20.778678
2012.546307	-2.996700	3.334900	-9.992200	26.550903	0.000128	20.784768
2013.542697	-2.975300	3.335600	-9.922900	26.533052	0.000128	20.787687
2014.548069	-2.984900	3.334500	-9.952400	26.501726	0.000127	20.772320
2015.543035	-2.982700	3.335000	-9.946400	26.497161	0.000128	20.782904
2016.542883	-2.973000	3.334300	-9.911900	26.564537	0.000128	20.780929
2017.542058	-3.007100	3.334000	-10.025000	26.553737	0.000126	20.765806
2018.543387	-2.996100	3.332600	-9.983800	26.572679	0.000128	20.771570
2019.543716	-2.989900	3.333800	-9.967300	26.517490	0.000128	20.784846
2020.547796	-3.007300	3.332400	-10.021000	26.493481	0.000129	20.775413
2021.543853	-2.984600	3.333400	-9.947700	26.557933	0.000127	20.767653
2022.542627	-3.004200	3.331900	-10.009000	26.580246	0.000126	20.774909
2023.548859	-3.016600	3.330600	-10.047000	26.552884	0.000128	20.775854
2024.546220	-3.005900	3.331700	-10.014000	26.581883	0.000127	20.783667
2025.548687	-2.987600	3.330600	-9.950100	26.602239	0.000127	20.787060
2026.545994	-2.984200	3.330200	-9.936700	26.617554	0.000128	20.768316
2027.547568	-2.992900	3.330300	-9.966400	26.671515	0.000127	20.777519
2028.547431	-3.004100	3.330100	-10.003000	26.678442	0.000126	20.748921
2029.548121	-2.989100	3.329300	-9.951000	26.635596	0.000126	20.758004
2030.549602	-3.002500	3.328700	-9.993900	26.661779	0.000127	20.768679
2031.547774	-2.993900	3.329300	-9.966300	26.616750	0.000124	20.770827
2032.548554	-2.968000	3.328900	-9.878200	26.546665	0.000122	20.763438
2033.549762	-2.990500	3.328800	-9.953300	26.568359	0.000123	20.784771
2034.549149	-2.980100	3.329000	-9.919600	26.588420	0.000123	20.785497
2035.550429	-3.003900	3.327800	-9.995600	26.573326	0.000123	20.751831
2036.551014	-2.999100	3.327500	-9.978700	26.611282	0.000122	20.768176
2037.551633	-3.008800	3.327200	-10.010000	26.643675	0.000121	20.775136
2038.552574	-3.007200	3.328000	-10.007000	26.604748	0.000123	20.772513
2039.554740	-2.990000	3.327000	-9.947300	26.598990	0.000122	20.781423
2040.553232	-2.981200	3.326200	-9.915400	26.552022	0.000120	20.762659
2041.556484	-3.017900	3.324600	-10.033000	26.535984	0.000120	20.754598
2042.554981	-3.014400	3.326200	-10.026000	26.544401	0.000119	20.773016
2043.555467	-3.021000	3.323800	-10.040000	26.575381	0.000121	20.788985
2044.555777	-2.999700	3.325700	-9.975400	26.600434	0.000119	20.770547
2045.556174	-2.986700	3.325500	-9.931400	26.569696	0.000117	20.779477
2046.559744	-3.010600	3.323500	-10.005000	26.615675	0.000118	20.772118
2047.557819	-2.998300	3.324600	-9.967300	26.600901	0.000118	20.762007
2048.558391	-3.010700	3.322500	-10.002000	26.628115	0.000119	20.762812
2049.565671	-2.974100	3.323200	-9.882900	26.708639	0.000116	20.750355
2050.556942	-3.008900	3.323000	-9.997800	26.746020	0.000115	20.775136
2051.558835	-3.006200	3.320900	-9.982600	26.737060	0.000116	20.771817
2052.557467	-3.016200	3.322500	-10.020000	26.752077	0.000115	20.765104
2053.558069	-2.996600	3.322800	-9.956300	26.767095	0.000116	20.778781
2054.560120	-2.994400	3.321300	-9.944600	26.722591	0.000115	20.789039
2055.561399	-3.003400	3.321000	-9.973300	26.741608	0.000116	20.761216
2056.563872	-2.991800	3.320900	-9.934700	26.668653	0.000113	20.775589
2057.563565	-2.992200	3.321500	-9.937600	26.651206	0.000114	20.772749
2058.561638	-2.972100	3.321600	-9.871000	26.732573	0.000114	20.772522
2059.561211	-3.000300	3.319100	-9.957600	26.713782	0.000113	20.772596
2060.562765	-3.020900	3.318800	-10.025000	26.727090	0.000113	20.776967
2061.560825	-3.021000	3.318900	-10.025000	26.720139	0.000112	20.776616
2062.564745	-2.993700	3.319400	-9.936700	26.750322	0.000112	20.763814
2063.562394	-2.998700	3.318800	-9.951100	26.798331	0.000114	20.769409
2064.561462	-3.013300	3.317400	-9.995100	26.820787	0.000111	20.773021
2065.562695	-3.016000	3.318300	-10.007000	26.799594	0.000110	20.771153
2066.562163	-3.008900	3.318100	-9.983100	26.812130	0.000109	20.777593
2067.565269	-3.012500	3.316700	-9.990600	26.760575	0.000111	20.787398
2068.564933	-2.986100	3.317100	-9.904600	26.763626	0.000109	20.773396
2069.562192	-3.007600	3.316100	-9.972500	26.778746	0.000111	20.764890
2070.562866	-2.998500	3.315700	-9.940900	26.724314	0.000108	20.779865
2071.566619	-3.007900	3.315900	-9.973000	26.749108	0.000108	20.786301
2072.564089	-3.009900	3.315400	-9.977300	26.775670	0.000107	20.784557
2073.566020	-3.003800	3.314500	-9.955200	26.836427	0.000110	20.759822
2074.564914	-3.010300	3.315200	-9.978900	26.857824	0.000109	20.771380
2075.565175	-2.986000	3.315800	-9.900000	26.831691	0.000109	20.766914
2076.567677	-3.003000	3.313900	-9.950800	26.832511	0.000108	20.793818
2077.564432	-3.015100	3.313700	-9.989400	26.807812	0.000107	20.767562
2078.569176	-3.013400	3.313800	-9.984500	26.856335	0.000107	20.768935
2079.564359	-3.022300	3.312900	-10.012000	26.900387	0.000108	20.763917
2080.566535	-2.986600	3.314400	-9.898100	26.912352	0.000106	20.778319
2081.565883	-2.988700	3.313700	-9.902700	26.848372	0.000104	20.774678
2082.565745	-3.007600	3.312600	-9.961800	26.783191	0.000106	20.785955
2083.566021	-2.985300	3.312300	-9.888300	26.716468	0.000105	20.771503
2084.568093	-2.997900	3.311700	-9.927600	26.717711	0.000105	20.777969
2085.570237	-2.999700	3.310500	-9.929300	26.723227	0.000104	20.785411
2086.567579	-3.008700	3.309500	-9.956200	26.723920	0.000103	20.764296
2087.570961	-3.016000	3.309900	-9.981400	26.735711	0.000104	20.778047
2088.567471	-2.998100	3.310700	-9.924800	26.753587	0.000103	20.758087
2089.569958	-3.013900	3.309600	-9.973700	26.737954	0.000103	20.789786
2090.568191	-2.993700	3.310300	-9.908900	26.725044	0.000102	20.765900
2091.567882	-3.008500	3.308900	-9.952700	26.779255	0.000104	20.766824
2092.567345	-3.007300	3.309500	-9.951800	26.841086	0.000100	20.774938
2093.569762	-3.010900	3.308300	-9.960200	26.794698	0.000104	20.788990
2094.572861	-3.015700	3.308400	-9.976700	26.763946	0.000104	20.783201
2095.571539	-2.994500	3.307000	-9.902000	26.718798	0.000103	20.759147
2096.571547	-3.020400	3.306900	-9.986900	26.731930	0.000100	20.776617
2097.571030	-2.999900	3.306200	-9.917500	26.717113	0.000102	20.786376
2098.571684	-3.023200	3.305700	-9.992200	26.716822	0.000103	20.781342
2099.571945	-2.992800	3.307100	-9.896500	26.759366	0.000102	20.771958
2100.574538	-2.996100	3.307500	-9.908100	26.800469	0.000103	20.780093
2101.571903	-3.014600	3.306100	-9.965800	26.762441	0.000102	20.762722
2102.573088	-3.027700	3.303800	-10.002000	26.802905	0.000103	20.778749
2103.573734	-2.987700	3.304400	-9.872000	26.812709	0.000103	20.769167
2104.572501	-2.976000	3.306000	-9.838100	26.838244	9.925478E-5	20.763072
2105.575525	-2.987000	3.305100	-9.871100	26.879229	0.000102	20.783420
2106.572450	-2.987900	3.304400	-9.872400	26.921094	0.000101	20.772886
2107.574503	-3.020900	3.302700	-9.976100	26.917248	9.965081E-5	20.763328
2108.574404	-2.990500	3.302200	-9.874600	26.924621	0.000100	20.790182
2109.573647	-2.999400	3.302700	-9.905000	26.957402	0.000101	20.795171
2110.574642	-3.010400	3.302700	-9.942000	26.972741	0.000101	20.771715
2111.577867	-2.996100	3.303600	-9.897400	26.944199	0.000101	20.781895
2112.574879	-3.015400	3.301800	-9.954900	26.922185	0.000101	20.778724
2113.576921	-3.015900	3.301800	-9.957100	26.961789	9.978282E-5	20.789151
2114.575545	-3.000400	3.301700	-9.905900	26.996582	9.971681E-5	20.791423
2115.575689	-2.978200	3.301300	-9.830700	26.979338	0.000100	20.770762
2116.580027	-2.985800	3.300700	-9.854100	26.984393	9.895776E-5	20.796709
2117.577116	-3.034700	3.299200	-10.011000	27.056683	9.852872E-5	20.798284
2118.578616	-3.014500	3.298900	-9.943400	27.053030	9.750565E-5	20.790817
2119.577766	-3.009300	3.300000	-9.929600	27.001514	9.862773E-5	20.785003
2120.577593	-2.987900	3.300800	-9.862100	26.935625	9.750565E-5	20.800774
2121.579833	-2.988000	3.299000	-9.856900	26.942571	9.668059E-5	20.796853
2122.576581	-2.979800	3.299300	-9.830900	26.932050	9.443643E-5	20.815196
2123.578802	-2.983800	3.298100	-9.840000	26.967783	9.602054E-5	20.801817
2124.578530	-3.002500	3.298100	-9.900500	27.022797	9.423841E-5	20.780327
2125.577914	-2.995000	3.298100	-9.876700	27.009153	9.338035E-5	20.791262
2126.578070	-3.017700	3.296600	-9.946900	27.020066	9.565751E-5	20.791806
2127.580119	-3.034500	3.297400	-10.005000	27.004306	9.496446E-5	20.793975
2128.578987	-2.988600	3.297500	-9.854100	26.997238	9.245628E-5	20.790186
2129.580167	-3.022200	3.295300	-9.958200	26.967803	9.404040E-5	20.809424
2130.581482	-3.021700	3.295600	-9.957600	26.969538	9.354536E-5	20.798840
2131.580054	-3.013500	3.294900	-9.928700	26.952116	9.242328E-5	20.797916
2132.582488	-3.022100	3.294300	-9.955400	26.986738	9.107018E-5	20.801912
2133.579153	-3.043100	3.293800	-10.022000	27.034855	9.212626E-5	20.807152
2134.579672	-3.031000	3.293100	-9.980400	27.051111	9.334735E-5	20.814017
2135.580583	-2.986900	3.293600	-9.836400	27.070638	9.278631E-5	20.802361
2136.581471	-2.986800	3.295200	-9.841100	27.084187	9.031112E-5	20.803660
2137.584460	-3.012200	3.293600	-9.919500	27.093071	9.024512E-5	20.809275
2138.580508	-2.999800	3.293100	-9.877900	27.124384	9.281931E-5	20.798568
2139.580831	-2.975600	3.293800	-9.799600	27.096052	9.077316E-5	20.795678
2140.583144	-2.967600	3.293100	-9.770900	27.009443	8.981609E-5	20.807676
2141.581921	-2.970200	3.292500	-9.778700	27.035827	8.866100E-5	20.821880
2142.583154	-3.016300	3.291200	-9.926500	27.041980	8.909004E-5	20.805309
2143.581468	-2.989800	3.292000	-9.841200	26.967287	8.971708E-5	20.823603
2144.582410	-2.998200	3.290500	-9.864300	27.003716	8.945306E-5	20.802864
2145.581742	-2.994300	3.290100	-9.850700	27.069453	8.876001E-5	20.802118
2146.580935	-3.017800	3.290000	-9.927900	27.076078	8.955207E-5	20.823953
2147.584659	-2.987600	3.289400	-9.826300	27.086495	8.938706E-5	20.823050
2148.581466	-2.975000	3.289600	-9.785400	27.051537	8.806696E-5	20.803540
2149.582103	-3.012400	3.288400	-9.904900	27.100943	8.816597E-5	20.799648
2150.585168	-3.030700	3.288000	-9.964200	27.126721	8.635083E-5	20.802341
2151.582626	-3.001100	3.289300	-9.870700	27.144636	8.885902E-5	20.807082
2152.583595	-2.974400	3.288500	-9.780100	27.150990	8.644984E-5	20.838602
2153.582533	-2.990300	3.287800	-9.830900	27.106006	8.575679E-5	20.809008
2154.581763	-2.975000	3.287100	-9.778800	27.049184	8.371064E-5	20.817295
2155.581276	-3.011100	3.286500	-9.895100	27.060569	8.344662E-5	20.805985
2156.581891	-2.977400	3.287500	-9.787700	27.132755	8.575679E-5	20.815522
2157.582985	-3.014900	3.286300	-9.907600	27.117026	8.407367E-5	20.814401
2158.586499	-2.995900	3.284900	-9.840700	27.068191	8.380965E-5	20.829297
2159.581516	-2.990400	3.286100	-9.826000	27.086307	8.638384E-5	20.810059
2160.582548	-2.999200	3.285700	-9.853900	27.088021	8.384265E-5	20.837386
2161.587821	-2.998400	3.286400	-9.853200	27.063652	8.182950E-5	20.821414
2162.581397	-3.002000	3.284400	-9.858900	27.151912	8.384265E-5	20.829573
2163.587541	-3.003100	3.283800	-9.861100	27.100799	8.308360E-5	20.799030
2164.582735	-2.979900	3.285100	-9.788500	27.108593	8.235754E-5	20.834842
2165.584020	-3.012800	3.283400	-9.891100	27.160005	8.384265E-5	20.833445
2166.583718	-2.981800	3.282800	-9.787600	27.182584	8.245655E-5	20.830551
2167.585871	-2.985800	3.281600	-9.796900	27.212951	8.318260E-5	20.817472
2168.591038	-3.018700	3.282100	-9.906500	27.260148	8.380965E-5	20.822746
2169.586269	-3.004400	3.282200	-9.860500	27.295497	8.037740E-5	20.818949
2170.585969	-3.002700	3.282300	-9.854500	27.344346	7.932132E-5	20.812137
2171.585680	-3.008000	3.280600	-9.867200	27.287086	7.948633E-5	20.830876
2172.585445	-3.017600	3.280800	-9.899400	27.265903	7.938733E-5	20.850345
2173.586777	-2.997900	3.282000	-9.838200	27.248236	7.991536E-5	20.794643
2174.588390	-2.993800	3.279500	-9.817200	27.237099	7.938733E-5	20.834175
2175.585667	-3.031500	3.280000	-9.942500	27.203355	7.819924E-5	20.823467
2176.586192	-3.013700	3.278500	-9.879900	27.201920	7.876028E-5	20.834826
2177.588867	-3.015600	3.278300	-9.884700	27.179067	7.942033E-5	20.840763
2178.585647	-2.990000	3.278300	-9.801000	27.216018	7.823224E-5	20.848531
2179.591355	-3.005900	3.279700	-9.857200	27.222990	7.668113E-5	20.824251
2180.587812	-2.984100	3.278400	-9.782100	27.248716	7.519602E-5	20.853445
2181.587166	-2.983900	3.276800	-9.777000	27.269982	7.582307E-5	20.843068
2182.587679	-2.985000	3.276900	-9.780300	27.307368	7.532803E-5	20.839424
2183.587004	-3.012900	3.275600	-9.866800	27.306204	7.694515E-5	20.837304
2184.590164	-2.992600	3.276300	-9.803600	27.255599	7.740718E-5	20.827653
2185.590633	-3.029200	3.276400	-9.923000	27.275102	7.397493E-5	20.844425
2186.589845	-3.001100	3.275600	-9.830100	27.332137	7.235781E-5	20.830675
2187.588238	-2.998800	3.275200	-9.820500	27.253320	7.394193E-5	20.839111
2188.591238	-3.010700	3.273800	-9.855200	27.272597	7.529503E-5	20.857552
2189.589035	-3.007700	3.275200	-9.850000	27.268306	7.159876E-5	20.843279
2190.590938	-3.014800	3.273800	-9.868700	27.206902	7.423895E-5	20.849319
2191.588429	-3.000800	3.273400	-9.822500	27.230152	7.450297E-5	20.824817
2192.590797	-2.983600	3.273300	-9.765000	27.211296	7.123573E-5	20.840463
2193.593153	-3.007200	3.274300	-9.846100	27.228767	7.334788E-5	20.854242
2194.588843	-3.016500	3.271700	-9.868100	27.270868	7.113672E-5	20.834951
2195.593426	-3.002300	3.271100	-9.819300	27.316989	7.318287E-5	20.854316
2196.590122	-3.007200	3.270000	-9.833100	27.316792	7.397493E-5	20.834205
2197.591662	-2.982500	3.271700	-9.757100	27.325350	7.212679E-5	20.848029
2198.592642	-3.002600	3.271100	-9.820900	27.319620	7.252282E-5	20.848429
2199.592273	-2.997900	3.271200	-9.805200	27.274471	7.169776E-5	20.843317
2200.591343	-3.005500	3.270000	-9.826100	27.275816	7.153275E-5	20.849885
2201.602343	-2.990300	3.269900	-9.777300	27.324039	7.255583E-5	20.835330
2202.594208	-2.992100	3.268900	-9.780000	27.327121	7.077370E-5	20.849336
2203.593747	-3.013200	3.268500	-9.847700	27.288891	7.159876E-5	20.855925
2204.593503	-3.010600	3.266600	-9.834000	27.313579	7.011365E-5	20.842826
2205.593275	-3.002900	3.267100	-9.809900	27.279567	7.060868E-5	20.858873
2206.595663	-2.993400	3.268600	-9.783100	27.292249	6.783648E-5	20.854086
2207.593664	-2.995600	3.266400	-9.784100	27.255756	6.984963E-5	20.854362
2208.595664	-2.989100	3.266800	-9.763600	27.283739	6.925558E-5	20.852165
2209.596664	-2.992600	3.265700	-9.772200	27.327159	6.777048E-5	20.859805
2210.591803	-3.002700	3.265600	-9.804600	27.349136	6.942060E-5	20.867687
2211.596478	-3.013700	3.265300	-9.840000	27.377867	6.598835E-5	20.845857
2212.591177	-2.984900	3.265800	-9.747700	27.330880	6.783648E-5	20.865919
2213.596709	-3.011800	3.262900	-9.826100	27.348624	6.892556E-5	20.864802
2214.605712	-2.991200	3.263300	-9.759600	27.325700	6.724244E-5	20.861182
2215.607124	-3.006800	3.262500	-9.808400	27.286822	6.697842E-5	20.871860
2216.597284	-3.035700	3.263100	-9.903800	27.298508	6.711043E-5	20.862753
2217.597986	-2.974800	3.262200	-9.703200	27.339615	6.707742E-5	20.858584
2218.596519	-2.986800	3.262600	-9.744000	27.314838	6.707742E-5	20.864006
2219.596548	-3.006800	3.262300	-9.808300	27.294692	6.549331E-5	20.869819
2220.597135	-2.985900	3.260900	-9.736200	27.299779	6.885956E-5	20.869246
2221.596871	-2.996300	3.260900	-9.769100	27.389311	6.605435E-5	20.882497
2222.597661	-2.989000	3.260100	-9.743600	27.427787	6.641738E-5	20.869997
2223.596468	-2.970200	3.260500	-9.683700	27.480621	6.605435E-5	20.869572
2224.597473	-2.996000	3.258600	-9.760600	27.505526	6.598835E-5	20.887989
2225.600718	-2.990600	3.260100	-9.749200	27.526389	6.638437E-5	20.857299
2226.597675	-3.004100	3.258100	-9.786300	27.522201	6.562532E-5	20.893860
2227.603300	-3.027300	3.258700	-9.863900	27.566868	6.433822E-5	20.875740
2228.599242	-2.967000	3.259000	-9.668800	27.556628	6.522929E-5	20.873023
2229.597475	-2.976300	3.259300	-9.699400	27.542342	6.493227E-5	20.865289
2230.596988	-3.006200	3.256000	-9.786300	27.577711	6.423922E-5	20.876219
2231.600896	-2.996300	3.256600	-9.756600	27.564713	6.519629E-5	20.869779
2232.601139	-2.977500	3.256800	-9.696300	27.514238	6.450324E-5	20.868781
2233.602418	-3.002000	3.256000	-9.773200	27.472966	6.357917E-5	20.877517
2234.598507	-2.987800	3.256100	-9.727200	27.454434	6.305113E-5	20.886373
2235.599878	-3.012600	3.254500	-9.803000	27.414004	6.258910E-5	20.861348
2236.604111	-3.017500	3.255000	-9.821400	27.441984	6.202806E-5	20.877641
2237.601139	-2.991800	3.255200	-9.737700	27.419513	6.367818E-5	20.868785
2238.607812	-3.016400	3.254900	-9.817100	27.390831	6.133500E-5	20.873596
2239.603006	-3.008400	3.254500	-9.790200	27.393615	6.305113E-5	20.887301
2240.602815	-2.995000	3.254500	-9.746500	27.404647	6.100498E-5	20.898399
2241.602226	-3.008900	3.253600	-9.789200	27.458627	6.278711E-5	20.882056
2242.606761	-3.007200	3.251500	-9.776700	27.555021	6.328215E-5	20.891795
2243.607906	-2.975400	3.252100	-9.675100	27.579153	6.222607E-5	20.878144
2244.605058	-2.997700	3.251600	-9.746800	27.550899	6.225907E-5	20.895233
2245.606452	-2.986200	3.251500	-9.708800	27.561094	6.140101E-5	20.878466
2246.606292	-2.988200	3.251600	-9.715600	27.599859	6.097198E-5	20.875270
2247.607062	-3.020000	3.250900	-9.816900	27.594204	6.087297E-5	20.902769
2248.607018	-2.994400	3.250300	-9.731900	27.577166	5.935486E-5	20.870929
2249.607797	-3.006400	3.249300	-9.768200	27.512157	5.951987E-5	20.883281
2250.607993	-2.986700	3.249900	-9.704900	27.445180	6.044394E-5	20.885124
2251.608403	-2.959200	3.249600	-9.615500	27.475151	6.047694E-5	20.892042
2252.609643	-2.988600	3.248400	-9.706900	27.491916	6.074096E-5	20.898003
2253.608439	-2.997300	3.248500	-9.736200	27.422267	5.833178E-5	20.891469
2254.610592	-3.006700	3.247600	-9.763300	27.395127	5.856280E-5	20.903520
2255.609375	-2.991700	3.248700	-9.718200	27.350227	5.760573E-5	20.895810
2256.609105	-3.010800	3.246700	-9.774500	27.403984	5.895883E-5	20.911955
2257.609066	-2.990900	3.247500	-9.711100	27.396894	5.790275E-5	20.902452
2258.608781	-3.004000	3.245800	-9.749500	27.418148	5.770474E-5	20.911505
2259.612000	-2.982600	3.245500	-9.678800	27.418246	5.833178E-5	20.913501
2260.612193	-2.985400	3.245500	-9.688500	27.437673	5.925585E-5	20.891795
2261.609959	-2.999200	3.245400	-9.733100	27.502887	5.707769E-5	20.867792
2262.609746	-3.019400	3.244800	-9.796100	27.568217	5.866181E-5	20.896062
2263.612116	-2.989600	3.245900	-9.703400	27.554579	5.529556E-5	20.890401
2264.611527	-3.005800	3.244500	-9.751700	27.562193	5.991590E-5	20.884786
2265.613560	-2.977400	3.244600	-9.660000	27.551477	5.575760E-5	20.898185
2266.616400	-3.002800	3.243300	-9.738100	27.543617	5.605462E-5	20.895493
2267.610707	-3.003900	3.243200	-9.740900	27.558599	5.780375E-5	20.876904
2268.614094	-3.012600	3.241400	-9.764400	27.594516	5.918985E-5	20.888860
2269.611065	-2.999900	3.241600	-9.723800	27.587669	5.618663E-5	20.878652
2270.618177	-2.989200	3.242000	-9.690100	27.613763	5.654965E-5	20.880726
2271.611263	-3.002100	3.242100	-9.732200	27.647564	5.674767E-5	20.882494
2272.610924	-3.013200	3.241100	-9.765300	27.735604	5.678067E-5	20.900910
2273.611560	-3.015300	3.239500	-9.767500	27.700039	5.460251E-5	20.870340
2274.611669	-2.987300	3.240200	-9.678900	27.660459	5.654965E-5	20.871762
2275.613910	-2.984300	3.241400	-9.673200	27.679561	5.460251E-5	20.900465
2276.613828	-3.003000	3.239200	-9.727300	27.709119	5.513055E-5	20.898441
2277.612932	-2.980600	3.239000	-9.653400	27.737665	5.437149E-5	20.886390
2278.612207	-2.987300	3.238800	-9.674200	27.737993	5.618663E-5	20.872023
2279.614710	-2.995000	3.238000	-9.697200	27.706292	5.526256E-5	20.886114
2280.614700	-2.998000	3.237000	-9.703800	27.666466	5.466852E-5	20.873540
2281.615486	-2.988800	3.237300	-9.673800	27.684450	5.569159E-5	20.884997
2282.611771	-2.974900	3.236700	-9.628200	27.692980	5.433849E-5	20.877935
2283.611303	-3.001200	3.236700	-9.713100	27.767274	5.179731E-5	20.874937
2284.614033	-2.989800	3.235500	-9.672500	27.778636	5.216033E-5	20.865983
2285.611510	-2.979100	3.236400	-9.640300	27.713065	5.328241E-5	20.888188
2286.614507	-2.999400	3.234400	-9.700600	27.693353	5.374445E-5	20.871198
2287.612314	-2.989100	3.235100	-9.669000	27.728918	5.364544E-5	20.852934
2288.612125	-2.998000	3.234800	-9.696900	27.771327	5.087324E-5	20.847723
2289.614522	-3.005200	3.232700	-9.714100	27.719994	5.166530E-5	20.861023
2290.611522	-3.006900	3.233500	-9.721800	27.722227	5.199532E-5	20.853788
2291.611687	-2.974700	3.233000	-9.616200	27.657300	4.826605E-5	20.856257
2292.612523	-3.014300	3.232700	-9.743300	27.686966	5.222634E-5	20.865720
2293.612761	-3.013000	3.231800	-9.736500	27.654801	4.879409E-5	20.855639
2294.612185	-2.995800	3.231400	-9.679400	27.670434	5.117026E-5	20.865679
2295.612230	-3.036800	3.229700	-9.807400	27.672314	5.011418E-5	20.864726
2296.612754	-3.005600	3.229700	-9.705700	27.589850	5.001517E-5	20.856192
2297.615337	-2.988800	3.229100	-9.650400	27.592412	4.859607E-5	20.852605
2298.611838	-2.994700	3.230600	-9.673800	27.598616	4.971815E-5	20.877813
2299.612006	-3.014800	3.227700	-9.730200	27.603976	4.958614E-5	20.842431
2300.612289	-3.007300	3.228700	-9.708700	27.618457	4.909111E-5	20.875966
2301.612096	-2.983100	3.228300	-9.629400	27.615708	4.750699E-5	20.840485
2302.613158	-2.981900	3.226600	-9.620600	27.636917	4.796902E-5	20.862299
2303.613626	-3.003600	3.227100	-9.692600	27.595998	4.981716E-5	20.843412
2304.612873	-2.970700	3.226300	-9.583500	27.631763	4.961915E-5	20.856164
2305.611310	-2.973300	3.226600	-9.592500	27.671816	4.968515E-5	20.841940
2306.611409	-3.018400	3.226400	-9.737800	27.629136	4.744099E-5	20.862530
2307.614918	-2.985400	3.227200	-9.633700	27.674127	4.826605E-5	20.858964
2308.615042	-2.991900	3.223900	-9.644800	27.712838	4.912411E-5	20.846711
2309.614202	-2.986000	3.224000	-9.625700	27.762783	4.796902E-5	20.852875
2310.614274	-3.020000	3.223000	-9.733000	27.730870	4.780401E-5	20.840675
2311.614697	-3.027100	3.222000	-9.752300	27.675938	4.750699E-5	20.854623
2312.615462	-2.981800	3.223800	-9.611300	27.693122	4.790302E-5	20.839199
2313.617113	-3.000100	3.221600	-9.664100	27.718296	4.816704E-5	20.835134
2314.616034	-2.980700	3.222500	-9.604600	27.732161	4.770501E-5	20.850983
2315.616552	-2.979900	3.221800	-9.599700	27.788951	4.453677E-5	20.841277
2316.617449	-2.977500	3.221600	-9.591600	27.735086	4.565886E-5	20.844918
2317.616210	-3.004500	3.220600	-9.674600	27.713265	4.417375E-5	20.842873
2318.620269	-3.003300	3.220300	-9.671000	27.702005	4.595588E-5	20.825853
2319.617146	-3.005000	3.223300	-9.684400	27.712400	4.697895E-5	20.865710
2320.618579	-2.993100	3.218600	-9.632800	27.665203	4.598888E-5	20.847614
2321.617713	-3.028300	3.217700	-9.742300	27.689038	4.338169E-5	20.853106
2322.616711	-2.997800	3.221100	-9.655900	27.660765	4.242462E-5	20.845520
2323.618166	-2.998400	3.218900	-9.650200	27.676836	4.328268E-5	20.830397
2324.620950	-3.020600	3.216800	-9.716500	27.731473	4.414074E-5	20.858351
2325.619686	-3.008600	3.218100	-9.681700	27.707934	4.077450E-5	20.819018
2326.620983	-2.981800	3.216400	-9.590000	27.710196	4.249062E-5	20.842156
2327.624132	-3.000700	3.217700	-9.654800	27.772612	4.235861E-5	20.840008
2328.620234	-2.999400	3.215500	-9.643600	27.791684	4.315067E-5	20.827907
2329.621598	-3.011000	3.216300	-9.682900	27.840854	4.143455E-5	20.827606
2330.621549	-3.010500	3.214400	-9.675800	27.826647	4.239162E-5	20.837963
2331.624519	-3.010000	3.214300	-9.673800	27.842067	4.278764E-5	20.808438
2332.621655	-2.990400	3.213600	-9.609200	27.872866	4.027946E-5	20.829004
2333.620783	-3.023000	3.212500	-9.711000	27.892731	4.298566E-5	20.830505
2334.621960	-3.026100	3.212200	-9.719500	27.928186	4.328268E-5	20.832525
2335.624728	-3.000800	3.211300	-9.635300	27.967113	4.206159E-5	20.827136
2336.622106	-2.997500	3.214300	-9.634300	28.013277	4.183057E-5	20.822869
2337.622931	-3.018200	3.210900	-9.690700	27.989082	4.341469E-5	20.839291
2338.624444	-2.995000	3.210300	-9.613500	27.949512	4.202859E-5	20.826963
2339.624406	-3.006200	3.210300	-9.650500	27.983831	4.229261E-5	20.809824
2340.625529	-3.006300	3.208700	-9.645400	27.973615	4.232561E-5	20.821826
2341.624195	-2.981500	3.210700	-9.571900	27.834767	4.374472E-5	20.810101
2342.624790	-3.018900	3.209600	-9.688800	27.800006	3.948740E-5	20.839127
2343.628801	-2.992700	3.210900	-9.608300	27.805631	4.126953E-5	20.801640
2344.626542	-3.000700	3.207900	-9.624800	27.829192	4.143455E-5	20.829619
2345.628644	-3.017800	3.206700	-9.676200	27.889049	4.057648E-5	20.837704
2346.627715	-2.969100	3.208800	-9.526600	27.935441	4.235861E-5	20.813276
2347.626866	-3.012900	3.206000	-9.658400	27.886747	4.156656E-5	20.800775
2348.627297	-2.998300	3.204700	-9.607800	27.874944	3.961941E-5	20.831570
2349.627965	-2.992500	3.205700	-9.591800	27.791378	4.014745E-5	20.822858
2350.628809	-2.995900	3.206400	-9.604800	27.744860	4.136854E-5	20.825356
2351.630063	-2.973600	3.204400	-9.526700	27.781066	3.935539E-5	20.815325
2352.628838	-3.012400	3.203500	-9.648900	27.799715	4.008145E-5	20.808963
2353.631477	-3.030700	3.202500	-9.704900	27.833211	4.024646E-5	20.822284
2354.635771	-3.001000	3.202800	-9.610900	27.862548	3.971842E-5	20.802498
2355.631319	-2.984400	3.202400	-9.556200	27.849877	4.034547E-5	20.820565
2356.635802	-2.997900	3.202700	-9.600700	27.850495	3.945440E-5	20.802222
2357.633549	-3.008700	3.201100	-9.630400	27.926794	4.173157E-5	20.815004
2358.632576	-3.028800	3.200300	-9.692800	27.910925	4.047748E-5	20.804247
2359.632622	-2.998700	3.200700	-9.597400	27.879307	4.057648E-5	20.812727
2360.633542	-2.986700	3.200600	-9.558500	27.862892	3.932239E-5	20.808060
2361.636264	-3.027500	3.199600	-9.686300	27.771491	3.800229E-5	20.821810
2362.635730	-3.010300	3.200400	-9.633300	27.691014	3.961941E-5	20.820482
2363.640673	-3.007500	3.200000	-9.623200	27.716011	3.876135E-5	20.794429
2364.635801	-2.990300	3.198100	-9.562500	27.725881	3.734225E-5	20.818586
2365.636992	-2.994700	3.197200	-9.573800	27.779644	3.839832E-5	20.809626
2366.639009	-3.014500	3.196300	-9.634800	27.835238	4.011445E-5	20.802040
2367.639374	-3.007500	3.195400	-9.609500	27.855747	3.668220E-5	20.821258
2368.639299	-3.009500	3.195500	-9.615800	27.882621	3.744125E-5	20.795200
2369.639223	-3.008300	3.193800	-9.606900	27.886193	3.625317E-5	20.819184
2370.641096	-3.014200	3.194800	-9.629200	27.899007	3.688021E-5	20.790355
2371.640190	-2.988800	3.194000	-9.545600	27.922488	3.549411E-5	20.800238
2372.641656	-3.020200	3.194100	-9.646300	27.968310	3.688021E-5	20.819806
2373.641511	-2.991000	3.192600	-9.548600	28.010034	3.796929E-5	20.813440
2374.640211	-2.972400	3.192700	-9.489000	27.988914	3.486706E-5	20.807829
2375.640409	-3.005400	3.192200	-9.592800	27.966127	3.688021E-5	20.786789
2376.641828	-3.027600	3.191000	-9.660600	27.969056	3.592314E-5	20.789737
2377.646214	-2.993300	3.191100	-9.550800	28.012344	3.631917E-5	20.814817
2378.644399	-3.016300	3.188900	-9.617300	27.996848	3.638517E-5	20.807280
2379.644195	-2.992800	3.189300	-9.544200	27.970935	3.390999E-5	20.821975
2380.644174	-2.995500	3.189800	-9.553800	28.017206	3.364597E-5	20.800746
2381.645430	-3.026500	3.188600	-9.649200	28.011480	3.239188E-5	20.785973
2382.644849	-2.986200	3.188200	-9.520000	28.009145	3.569212E-5	20.796424
2383.646818	-2.992200	3.187900	-9.538300	28.078638	3.499907E-5	20.799521
2384.646634	-2.996000	3.188900	-9.553100	28.095197	3.400900E-5	20.795328
2385.647049	-2.987400	3.186100	-9.517300	28.036392	3.275491E-5	20.792557
2386.646977	-2.987500	3.187300	-9.520600	28.019955	3.318394E-5	20.802564
2387.647441	-3.001400	3.185600	-9.560000	28.023055	3.282091E-5	20.777710
2388.649318	-2.979100	3.184900	-9.487500	28.031514	3.324994E-5	20.802346
2389.647486	-2.995500	3.185700	-9.542200	28.040017	3.255689E-5	20.805689
2390.646151	-3.013200	3.182200	-9.587300	28.088627	3.169883E-5	20.789188
2391.647607	-3.015400	3.181800	-9.593200	28.074374	3.334895E-5	20.809453
2392.648037	-3.005700	3.182200	-9.564200	28.017878	3.166583E-5	20.794310
2393.649397	-2.989800	3.181400	-9.511000	28.047358	3.367898E-5	20.815449
2394.653277	-2.984500	3.181800	-9.495700	28.072293	3.090677E-5	20.805937
2395.648377	-3.024900	3.179500	-9.617100	28.045351	3.202886E-5	20.795885
2396.650197	-3.022900	3.178800	-9.608000	27.982725	3.130280E-5	20.777892
2397.655411	-3.025700	3.178600	-9.616700	27.874973	3.140181E-5	20.793667
2398.650713	-3.005700	3.178900	-9.553900	27.894662	3.001571E-5	20.791671
2399.654273	-2.985100	3.178300	-9.487100	27.884125	3.080777E-5	20.794343
2400.651408	-2.996600	3.176800	-9.518300	27.849984	2.968568E-5	20.792224
2401.650992	-2.987500	3.177500	-9.491300	27.898951	2.856360E-5	20.784609
2402.651223	-3.015100	3.176800	-9.577700	27.972543	2.912464E-5	20.795617
2403.651441	-3.005700	3.176100	-9.545700	27.950878	2.800256E-5	20.794199
2404.651915	-3.014800	3.174500	-9.569600	27.890205	2.879462E-5	20.789557
2405.650694	-3.017400	3.173600	-9.575200	27.977749	2.879462E-5	20.782840
2406.650658	-3.004600	3.174100	-9.536100	28.066605	2.935566E-5	20.795469
2407.654288	-2.974600	3.173200	-9.437300	28.125683	2.688048E-5	20.794723
2408.652674	-2.997200	3.170700	-9.502800	28.085549	2.542837E-5	20.795572
2409.654997	-2.997800	3.170700	-9.503400	28.044373	2.569239E-5	20.786366
2410.653007	-2.976000	3.174000	-9.444200	28.018985	2.612142E-5	20.797321
2411.654107	-3.009100	3.170600	-9.539400	27.972552	2.717750E-5	20.773341
2412.653870	-3.029700	3.171600	-9.608200	27.992169	2.826658E-5	20.779811
2413.654181	-3.018400	3.168100	-9.561700	28.011408	2.589040E-5	20.790168
2414.655400	-2.986000	3.168500	-9.460400	27.993385	2.697948E-5	20.773449
2415.654337	-2.975300	3.168200	-9.425800	27.973179	2.668246E-5	20.771127
2416.653640	-3.001800	3.166700	-9.504700	28.026138	2.539537E-5	20.785554
2417.655477	-3.001300	3.167900	-9.506800	28.089727	2.668246E-5	20.782709
2418.657374	-3.019400	3.164700	-9.554500	28.090375	2.833258E-5	20.806121
2419.656703	-2.995000	3.165700	-9.479800	28.131774	2.641844E-5	20.769561
2420.659157	-2.982900	3.163600	-9.436400	28.203442	2.806856E-5	20.789080
2421.655940	-2.988700	3.162400	-9.448700	28.237105	2.754053E-5	20.767970
2422.656598	-2.993300	3.161600	-9.462600	28.172608	2.886062E-5	20.760408
2423.659391	-3.003800	3.162200	-9.497900	28.176257	2.767254E-5	20.770721
2424.657337	-2.994000	3.162300	-9.466400	28.188924	2.928965E-5	20.780154
2425.660142	-3.008200	3.159600	-9.503900	28.111407	2.836559E-5	20.768024
2426.657885	-3.021600	3.159100	-9.544600	28.075041	2.701249E-5	20.795426
2427.658316	-2.996200	3.158800	-9.463100	28.092694	2.598941E-5	20.786170
2428.658097	-2.988500	3.157500	-9.435200	28.076463	2.694648E-5	20.758925
2429.657905	-3.009000	3.158000	-9.501800	28.036101	2.605542E-5	20.771401
2430.662419	-2.995000	3.156700	-9.453500	27.985502	2.579140E-5	20.759350
2431.660703	-2.979300	3.156900	-9.404500	28.008359	2.628643E-5	20.774296
2432.658001	-3.004100	3.156000	-9.480300	27.965447	2.622043E-5	20.769035
2433.661325	-2.993400	3.156500	-9.447600	27.989967	2.572539E-5	20.752938
2434.658939	-2.992600	3.155600	-9.441900	28.026136	2.638544E-5	20.764689
2435.661894	-3.001400	3.153900	-9.465200	28.023756	2.615442E-5	20.755655
2436.660513	-3.025000	3.152200	-9.533800	27.963981	2.674847E-5	20.776094
2437.660130	-2.959100	3.152000	-9.325900	27.919650	2.579140E-5	20.779363
2438.659661	-2.992900	3.150400	-9.428000	27.950393	2.460331E-5	20.778539
2439.660079	-3.032900	3.150100	-9.552400	27.973775	2.582440E-5	20.757028
2440.660717	-3.016800	3.150500	-9.503800	28.026808	2.608842E-5	20.759675
2441.664843	-2.988100	3.148400	-9.406400	28.073288	2.559338E-5	20.753833
2442.661765	-2.981800	3.148600	-9.387100	28.117932	2.608842E-5	20.761790
2443.662363	-3.000100	3.147500	-9.441800	28.030293	2.364624E-5	20.773141
2444.664135	-3.010500	3.146800	-9.472300	28.031681	2.453730E-5	20.767426
2445.662027	-2.986700	3.145700	-9.394200	28.067132	2.417428E-5	20.763282
2446.662507	-2.987100	3.146700	-9.398300	28.115499	2.420728E-5	20.759341
2447.663447	-3.016300	3.144100	-9.482900	28.190882	2.427329E-5	20.775013
2448.663355	-3.006800	3.141800	-9.446200	28.181429	2.348123E-5	20.764073
2449.662423	-2.982700	3.142400	-9.372200	28.147768	2.239215E-5	20.761480
2450.662835	-3.017500	3.140700	-9.475800	28.138893	2.249115E-5	20.782891
2451.661927	-2.982900	3.141400	-9.368800	28.170641	2.169910E-5	20.755583
2452.663574	-2.981500	3.140400	-9.362400	28.157724	2.229314E-5	20.753010
2453.663332	-2.995300	3.139700	-9.403300	28.141185	2.176510E-5	20.764336
2454.665382	-3.011700	3.138200	-9.450200	28.137172	2.255716E-5	20.772624
2455.665170	-2.979200	3.137400	-9.345800	28.120486	2.120406E-5	20.781431
2456.664336	-2.986900	3.136300	-9.365500	28.119294	2.074203E-5	20.758419
2457.665498	-3.010400	3.135400	-9.437600	28.171398	2.179810E-5	20.764406
2458.665525	-3.011700	3.134500	-9.439800	28.208855	2.163309E-5	20.780779
2459.665468	-2.995100	3.133900	-9.385600	28.230539	2.143508E-5	20.781274
2460.666409	-3.013300	3.133400	-9.441000	28.244741	2.113806E-5	20.750053
2461.665505	-3.002900	3.131900	-9.404400	28.210435	1.991697E-5	20.741592
2462.670496	-3.000400	3.131600	-9.395100	28.209792	2.163309E-5	20.766076
2463.666139	-2.994600	3.130000	-9.372200	28.215988	1.994997E-5	20.768521
2464.666490	-2.978500	3.129300	-9.319700	28.257702	1.879488E-5	20.760258
2465.666938	-3.015200	3.128500	-9.432800	28.272350	1.879488E-5	20.765049
2466.668060	-2.957900	3.128800	-9.253700	28.265733	1.839885E-5	20.768343
2467.666734	-3.005200	3.127900	-9.398200	28.280028	2.024699E-5	20.757606
2468.669184	-3.003900	3.127000	-9.391400	28.334360	1.961994E-5	20.758258
2469.666731	-2.996700	3.125700	-9.365900	28.377212	1.810183E-5	20.758258
2470.666844	-3.012200	3.124200	-9.410000	28.389333	1.697975E-5	20.762401
2471.671721	-3.014500	3.123500	-9.414600	28.402935	1.678173E-5	20.753338
2472.667435	-3.021700	3.122000	-9.432700	28.399344	1.651772E-5	20.761577
2473.670933	-2.983500	3.121700	-9.313400	28.327522	1.714476E-5	20.751846
2474.671536	-2.976400	3.121900	-9.291400	28.261019	1.440556E-5	20.765020
2475.672642	-3.016900	3.120300	-9.412600	28.248254	1.440556E-5	20.780143
2476.669641	-2.996100	3.118900	-9.342500	28.303628	1.628670E-5	20.747702
2477.669883	-3.024500	3.117500	-9.428400	28.303034	1.539563E-5	20.757536
2478.671920	-2.974900	3.118700	-9.276800	28.281568	1.483459E-5	20.757260
2479.669545	-2.994900	3.115500	-9.330000	28.215218	1.651772E-5	20.767745
2480.670611	-2.979000	3.115700	-9.281000	28.240453	1.437256E-5	20.791256
2481.670920	-3.008200	3.113400	-9.363800	28.306286	1.575866E-5	20.770294
2482.671406	-3.001500	3.113800	-9.345000	28.355732	1.582466E-5	20.767923
2483.670351	-3.038900	3.111700	-9.454800	28.276073	1.490060E-5	20.775435
2484.671207	-3.015900	3.110900	-9.381600	28.220207	1.242541E-5	20.770397
2485.673453	-2.990600	3.111600	-9.305100	28.128145	1.592367E-5	20.748363
2486.672634	-2.998000	3.108900	-9.320000	28.203699	1.490060E-5	20.773217
2487.671778	-3.041600	3.106600	-9.447800	28.248218	1.598968E-5	20.789116
2488.671094	-2.986500	3.109700	-9.285900	28.306021	1.592367E-5	20.773345
2489.674371	-3.000300	3.106600	-9.319500	28.338494	1.605568E-5	20.760997
2490.673423	-3.007900	3.106400	-9.342600	28.337646	1.259043E-5	20.775316
2491.672964	-2.998200	3.105000	-9.308100	28.266520	1.433956E-5	20.760601
2492.672410	-3.004500	3.103700	-9.324100	28.263769	1.463658E-5	20.754985
2493.674409	-2.996000	3.103900	-9.298700	28.330243	1.430655E-5	20.771655
2494.676744	-3.005300	3.101800	-9.321000	28.357780	1.407554E-5	20.778995
2495.681492	-3.006700	3.100500	-9.320500	28.402986	1.259043E-5	20.780417
2496.675835	-3.001200	3.099300	-9.301100	28.399616	1.476859E-5	20.788878
2497.676470	-2.996200	3.099800	-9.287000	28.400410	1.074229E-5	20.779247
2498.678365	-3.016300	3.097500	-9.341500	28.384876	1.242541E-5	20.796321
2499.678957	-2.994900	3.097200	-9.274100	28.408714	1.176537E-5	20.761529
2500.681217	-2.997300	3.096200	-9.280000	28.410058	1.235941E-5	20.763831
2501.678987	-3.002800	3.095000	-9.292900	28.443215	1.179837E-5	20.746010
2502.678327	-2.971800	3.095400	-9.198200	28.490873	1.189738E-5	20.783098
2503.678979	-2.979700	3.092900	-9.214600	28.549129	1.074229E-5	20.760210
2504.679539	-3.006700	3.092700	-9.298400	28.569476	1.222740E-5	20.768374
2505.681661	-3.004300	3.091200	-9.285200	28.577803	9.785220E-6	20.796676
2506.680945	-3.022300	3.089500	-9.336700	28.524012	1.249142E-5	20.765262
2507.680871	-2.998600	3.089000	-9.260600	28.507357	1.268943E-5	20.772197
2508.681828	-3.016500	3.087600	-9.312700	28.493457	1.097331E-5	20.759147
2509.679786	-3.007500	3.086900	-9.282500	28.515689	1.018125E-5	20.758302
2510.683741	-2.986900	3.085200	-9.214200	28.494772	1.047827E-5	20.757152
2511.681294	-3.013100	3.085400	-9.296300	28.530084	1.004924E-5	20.769480
2512.681367	-3.005000	3.083000	-9.263200	28.465309	1.156735E-5	20.772053
2513.681255	-2.998200	3.082900	-9.242400	28.399515	8.366116E-6	20.784035
2514.681615	-3.006700	3.080800	-9.261300	28.395052	8.597133E-6	20.767687
2515.683604	-3.025800	3.079900	-9.317600	28.372380	9.389191E-6	20.762401
2516.682999	-3.000900	3.077500	-9.233800	28.391392	1.130333E-5	20.773010
2517.681314	-3.028000	3.076700	-9.314800	28.476893	9.521201E-6	20.785615
2518.682547	-3.002500	3.077000	-9.236500	28.548758	1.037926E-5	20.780700
2519.683518	-2.965700	3.076800	-9.123500	28.605230	7.772072E-6	20.773563
2520.683113	-2.978800	3.075300	-9.159800	28.658354	1.008224E-5	20.775860
2521.686680	-3.014800	3.073900	-9.266200	28.616234	1.018125E-5	20.782276
2522.685831	-2.972900	3.073500	-9.135800	28.596834	9.026164E-6	20.783125
2523.685967	-2.988200	3.072800	-9.181300	28.633756	9.257181E-6	20.764835
2524.688675	-3.011400	3.068800	-9.239800	28.618097	7.904082E-6	20.772772
2525.686430	-3.001000	3.069400	-9.210100	28.542597	7.475050E-6	20.783031
2526.689903	-2.999000	3.069200	-9.204100	28.562798	8.663138E-6	20.786779
2527.686469	-3.020300	3.066500	-9.260600	28.558487	9.125172E-6	20.781963
2528.685367	-3.011900	3.066000	-9.233500	28.619150	9.653210E-6	20.779997
2529.687346	-2.996000	3.062900	-9.175500	28.646181	8.333113E-6	20.782566
2530.687073	-2.978800	3.063300	-9.123800	28.664795	1.193038E-5	20.780451
2531.686634	-2.988500	3.062700	-9.152400	28.707982	6.154953E-6	20.772741
2532.689650	-3.000600	3.061000	-9.184200	28.670895	9.158174E-6	20.799871
2533.688321	-3.005300	3.061400	-9.198800	28.731298	1.001624E-5	20.771570
2534.689238	-3.005900	3.058700	-9.193100	28.745993	7.904082E-6	20.791588
2535.692567	-3.005500	3.057900	-9.188700	28.740074	8.432121E-6	20.779462
2536.689277	-3.023400	3.055400	-9.236900	28.728605	8.432121E-6	20.772177
2537.691387	-2.988100	3.054900	-9.126900	28.680049	9.719215E-6	20.783961
2538.689157	-2.979800	3.054700	-9.101000	28.685502	8.168101E-6	20.779022
2539.691231	-3.021300	3.051800	-9.219600	28.705048	8.300111E-6	20.772631
2540.688619	-2.998200	3.050600	-9.145300	28.595913	8.795147E-6	20.775085
2541.689488	-2.972800	3.050200	-9.066600	28.548165	7.508053E-6	20.782948
2542.689344	-2.992100	3.048800	-9.121500	28.615141	8.729143E-6	20.778330
2543.689776	-2.989900	3.047300	-9.110600	28.663537	7.574058E-6	20.786297
2544.695489	-2.984200	3.046500	-9.090500	28.645599	7.541055E-6	20.790989
2545.690578	-3.027000	3.045100	-9.216500	28.640724	7.211031E-6	20.769009
2546.689832	-2.974500	3.044900	-9.056200	28.605862	1.021425E-5	20.803124
2547.692611	-3.010700	3.043400	-9.160300	28.538022	8.564130E-6	20.780319
2548.691910	-2.995900	3.041900	-9.112300	28.553936	1.047827E-5	20.771216
2549.693151	-3.018600	3.040200	-9.176300	28.567339	7.145026E-6	20.801310
2550.693309	-3.025200	3.039600	-9.194700	28.552229	6.484977E-6	20.788463
2551.693302	-3.000100	3.036700	-9.109600	28.571385	8.927157E-6	20.791634
2552.697093	-3.011600	3.034800	-9.138800	28.569501	7.178028E-6	20.793531
2553.693482	-2.984900	3.037100	-9.064500	28.550698	9.389191E-6	20.801146
2554.696069	-3.001400	3.034500	-9.106900	28.598220	9.257181E-6	20.791160
2555.695961	-2.976400	3.032800	-9.026100	28.659254	8.696140E-6	20.802371
2556.695768	-2.998100	3.031900	-9.089100	28.628330	8.993162E-6	20.809158
2557.698689	-3.030800	3.029400	-9.180600	28.606728	8.036092E-6	20.794039
2558.700079	-2.986500	3.029900	-9.047800	28.664437	1.041227E-5	20.812807
2559.697042	-3.012500	3.028200	-9.121500	28.692658	8.696140E-6	20.785756
2560.697410	-3.007500	3.025700	-9.098800	28.702269	8.597133E-6	20.809661
2561.697657	-3.004300	3.025300	-9.088400	28.693751	9.290184E-6	20.791124
2562.697413	-3.017900	3.022800	-9.122000	28.660004	6.286963E-6	20.802178
2563.698495	-2.967200	3.022300	-8.966800	28.651731	8.597133E-6	20.818501
2564.700919	-2.969200	3.023000	-8.975100	28.664442	9.323186E-6	20.807596
2565.702523	-3.011000	3.019600	-9.091800	28.721770	8.135099E-6	20.805596
2566.699851	-2.992100	3.018700	-9.031900	28.724403	7.178028E-6	20.790230
2567.698054	-2.980800	3.017100	-8.992000	28.718656	8.201104E-6	20.795347
2568.701506	-3.006000	3.013900	-9.058800	28.682188	7.871079E-6	20.809349
2569.700225	-2.985200	3.014000	-8.997200	28.701984	6.154953E-6	20.798942
2570.704529	-3.024500	3.012000	-9.108900	28.652702	6.980014E-6	20.806677
2571.702306	-3.009800	3.011700	-9.063600	28.669080	9.653210E-6	20.826966
2572.699590	-2.996900	3.010400	-9.020600	28.708231	7.904082E-6	20.789113
2573.702134	-3.029000	3.008900	-9.113000	28.718415	8.498126E-6	20.804113
2574.704963	-2.986100	3.008500	-8.982400	28.674959	5.428900E-6	20.805387
2575.701194	-2.996100	3.005900	-9.005300	28.671787	7.772072E-6	20.795080
2576.702537	-3.018700	3.004600	-9.069200	28.685566	6.848004E-6	20.832191
2577.705147	-3.038900	3.002300	-9.123500	28.681349	8.432121E-6	20.829841
2578.702661	-2.983500	3.001700	-8.954500	28.704072	5.725922E-6	20.811477
2579.703909	-2.953400	3.001000	-8.862500	28.655388	6.947011E-6	20.819814
2580.703581	-2.995300	2.999500	-8.982900	28.636974	5.428900E-6	20.813596
2581.705222	-2.997200	2.996500	-8.980100	28.673424	9.125172E-6	20.815221
2582.703123	-2.986500	2.997400	-8.950400	28.737077	8.663138E-6	20.824807
2583.705901	-2.980300	2.994800	-8.924900	28.776941	1.064328E-5	20.809486
2584.705982	-3.015500	2.993100	-9.023900	28.702120	9.587206E-6	20.810933
2585.706655	-3.012600	2.993400	-9.016200	28.763320	1.021425E-5	20.825162
2586.707666	-3.026600	2.989600	-9.047900	28.808032	9.752218E-6	20.815675
2587.706675	-3.004700	2.989100	-8.980900	28.829336	8.927157E-6	20.814376
2588.705289	-3.021300	2.986400	-9.021800	28.786454	8.762145E-6	20.824758
2589.707301	-2.975300	2.988000	-8.888900	28.714654	9.257181E-6	20.812652
2590.709288	-2.989100	2.985500	-8.923000	28.696618	9.818223E-6	20.815349
2591.706695	-2.992900	2.984400	-8.931300	28.684075	9.323186E-6	20.806983
2592.708936	-2.991900	2.983700	-8.925700	28.761075	1.110532E-5	20.816263
2593.707407	-3.012400	2.981500	-8.979900	28.778418	1.031326E-5	20.828043
2594.708728	-3.013900	2.979900	-8.980500	28.823581	1.113832E-5	20.824699
2595.716644	-3.021200	2.977600	-8.994800	28.878224	9.158174E-6	20.813365
2596.708010	-3.010300	2.975300	-8.955600	28.857583	1.054428E-5	20.818175
2597.712465	-2.997500	2.975700	-8.919000	28.858598	8.498126E-6	20.818250
2598.712082	-2.998400	2.974300	-8.917100	28.812344	1.123733E-5	20.808164
2599.712873	-2.996100	2.973100	-8.906900	28.814521	1.061028E-5	20.816047
2600.712659	-3.010900	2.969700	-8.940800	28.780778	8.498126E-6	20.808135
2601.710289	-3.000600	2.969100	-8.907200	28.742571	7.706067E-6	20.839350
2602.713426	-2.999400	2.968800	-8.904000	28.745867	1.028026E-5	20.843617
2603.712253	-3.031300	2.966300	-8.990500	28.778165	8.927157E-6	20.842012
2604.711987	-3.028300	2.964600	-8.977000	28.765848	7.871079E-6	20.832451
2605.709427	-3.036400	2.962200	-8.993400	28.773993	1.080830E-5	20.814577
2606.711574	-2.995600	2.961400	-8.870300	28.767849	7.871079E-6	20.840630
2607.710272	-3.011800	2.960400	-8.914600	28.720679	7.112024E-6	20.844799
2608.710122	-2.971000	2.959400	-8.791500	28.722733	8.696140E-6	20.846394
2609.711361	-2.967400	2.957600	-8.775400	28.682912	1.057728E-5	20.833785
2610.709662	-2.991600	2.956500	-8.843500	28.670839	7.046019E-6	20.833006
2611.709918	-2.991500	2.954100	-8.836100	28.700796	7.013016E-6	20.846108
2612.711011	-3.027800	2.952600	-8.939500	28.763477	8.168101E-6	20.846657
2613.713593	-2.999900	2.951600	-8.853900	28.796618	9.158174E-6	20.846850
2614.711107	-3.011600	2.949100	-8.879800	28.788837	1.008224E-5	20.860822
2615.712365	-3.018000	2.946900	-8.892600	28.818884	7.376043E-6	20.848890
2616.710238	-3.016000	2.946500	-8.886000	28.787097	1.226040E-5	20.851483
2617.711719	-3.011600	2.944800	-8.867700	28.771166	8.531128E-6	20.857721
2618.711336	-3.014200	2.943600	-8.872000	28.732989	7.772072E-6	20.840129
2619.711230	-2.995400	2.941000	-8.808900	28.769083	7.904082E-6	20.853726
2620.716083	-2.980000	2.941000	-8.763000	28.787907	7.508053E-6	20.832859
2621.713086	-3.020400	2.937900	-8.872700	28.826401	7.343041E-6	20.854092
2622.713402	-2.997500	2.936700	-8.802000	28.881471	5.329892E-6	20.848402
2623.713392	-3.016200	2.934600	-8.850600	28.849608	7.178028E-6	20.857555
2624.713801	-3.017600	2.932400	-8.848100	28.865488	7.013016E-6	20.855535
2625.713115	-2.997100	2.931100	-8.784400	28.927811	7.541055E-6	20.862844
2626.716978	-3.001900	2.930600	-8.796700	28.888820	6.980014E-6	20.855806
2627.717138	-2.992900	2.927200	-8.759200	28.856839	5.791926E-6	20.860098
2628.714550	-3.025800	2.927100	-8.855900	28.851756	6.484977E-6	20.849762
2629.721354	-3.013600	2.926200	-8.816500	28.845980	6.286963E-6	20.862435
2630.718367	-2.993800	2.924700	-8.755000	28.765040	6.517980E-6	20.863878
2631.717505	-3.006700	2.921900	-8.784300	28.815013	7.508053E-6	20.854948
2632.718540	-3.019900	2.918900	-8.812800	28.797048	7.376043E-6	20.859611
2633.719178	-2.998300	2.919400	-8.752000	28.848697	5.362895E-6	20.875603
2634.717640	-2.998900	2.916500	-8.745500	28.883101	8.432121E-6	20.874225
2635.719651	-3.012700	2.915000	-8.781500	28.984862	8.564130E-6	20.873855
2636.719263	-3.006500	2.912500	-8.756000	29.084473	8.663138E-6	20.848094
2637.722473	-2.990400	2.912000	-8.707200	29.058321	9.059167E-6	20.858253
2638.720238	-3.009400	2.908300	-8.751200	29.039595	8.366116E-6	20.867835
2639.720746	-3.022300	2.906100	-8.782300	29.029311	5.692919E-6	20.871223
2640.724603	-3.014300	2.906400	-8.759000	29.006350	6.715994E-6	20.853305
2641.721169	-2.995900	2.904700	-8.700300	29.021130	8.102096E-6	20.871041
2642.721256	-2.978800	2.904200	-8.649400	29.048204	7.013016E-6	20.882198
2643.728855	-3.012600	2.900300	-8.736300	29.066876	6.583985E-6	20.880623
2644.722710	-3.003600	2.897900	-8.703300	29.007032	5.857931E-6	20.873432
2645.722115	-2.990800	2.898100	-8.666900	29.002424	8.366116E-6	20.874479
2646.723773	-2.995700	2.894700	-8.671400	29.077842	7.211031E-6	20.900205
2647.721695	-3.001200	2.893800	-8.684200	29.080416	7.211031E-6	20.877670
2648.722503	-3.004800	2.892100	-8.689400	29.146912	8.102096E-6	20.864543
2649.726594	-2.995300	2.890000	-8.655600	29.129972	7.244033E-6	20.886827
2650.722864	-3.008400	2.888000	-8.687700	29.123507	5.758924E-6	20.899277
2651.724707	-2.997800	2.887100	-8.653400	29.129767	7.937084E-6	20.892309
2652.724615	-3.030700	2.883300	-8.737100	29.174395	5.494905E-6	20.885597
2653.724579	-2.979600	2.883600	-8.590800	29.145991	5.593912E-6	20.893959
2654.724793	-2.999200	2.881700	-8.641700	29.155505	6.550982E-6	20.901174
2655.727591	-2.994100	2.879300	-8.619600	29.237097	8.630135E-6	20.883825
2656.727702	-3.024700	2.877900	-8.702600	29.271169	8.300111E-6	20.888764
2657.725848	-2.989900	2.876000	-8.598100	29.305421	6.980014E-6	20.902893
2658.728261	-3.016500	2.874200	-8.668900	29.306329	6.715994E-6	20.880101
2659.729626	-3.022400	2.871000	-8.676800	29.225703	7.310038E-6	20.901738
2660.727142	-2.989400	2.870900	-8.581500	29.119611	6.980014E-6	20.888714
2661.726724	-3.033600	2.867300	-8.697300	29.020936	4.504832E-6	20.904034
2662.728143	-2.985400	2.867200	-8.559100	29.002407	5.362895E-6	20.909072
2663.729882	-2.993500	2.864400	-8.573600	28.940313	5.659917E-6	20.910049
2664.727501	-3.002200	2.861300	-8.589200	28.925351	7.541055E-6	20.895925
2665.727014	-3.004400	2.859800	-8.591200	28.973331	6.022943E-6	20.895900
2666.731495	-2.997000	2.858600	-8.566300	28.983729	6.781999E-6	20.887885
2667.726901	-3.001600	2.855600	-8.570500	28.988165	8.069094E-6	20.907052
2668.730626	-3.000800	2.853800	-8.563100	29.035570	5.692919E-6	20.896493
2669.729461	-3.002300	2.851500	-8.559800	29.106357	7.640062E-6	20.913763
2670.725158	-2.997200	2.851600	-8.546100	29.225747	6.682992E-6	20.910317
2671.730201	-2.998200	2.847500	-8.536300	29.280080	9.224179E-6	20.906751
2672.727233	-2.985700	2.848100	-8.502900	29.268416	7.574058E-6	20.912065
2673.727615	-3.027600	2.843000	-8.606100	29.209848	5.890934E-6	20.905200
2674.726463	-3.003100	2.841500	-8.532200	29.188630	7.706067E-6	20.895673
2675.728709	-2.995300	2.839100	-8.503100	29.237539	6.815002E-6	20.893278
2676.728284	-2.983400	2.836900	-8.462900	29.270224	7.310038E-6	20.923369
2677.728118	-2.988300	2.835100	-8.471400	29.322276	7.376043E-6	20.914188
2678.729074	-2.977100	2.833500	-8.434700	29.381328	8.003089E-6	20.916806
2679.730411	-3.021000	2.830400	-8.549600	29.458134	9.026164E-6	20.907452
2680.727737	-2.987800	2.828600	-8.451400	29.488710	6.286963E-6	20.919778
2681.729424	-2.989500	2.826700	-8.448400	29.437956	6.220958E-6	20.915087
2682.731297	-2.970800	2.824500	-8.390600	29.392942	6.980014E-6	20.901012
2683.728114	-3.009100	2.821900	-8.490200	29.375535	5.164880E-6	20.894848
2684.731255	-2.989100	2.818800	-8.424400	29.357335	5.626914E-6	20.924391
2685.734534	-2.999000	2.817900	-8.450200	29.347259	4.702846E-6	20.892428
2686.730007	-2.993700	2.813800	-8.421900	29.406036	5.725922E-6	20.925587
2687.730595	-2.999600	2.812500	-8.434300	29.433967	6.748997E-6	20.903481
2688.733328	-2.994600	2.809100	-8.410800	29.480910	4.735849E-6	20.923295
2689.731289	-2.995100	2.806000	-8.404000	29.469812	4.999868E-6	20.927755
2690.730939	-2.998900	2.803700	-8.406500	29.430224	5.230885E-6	20.922466
2691.733790	-3.018400	2.800700	-8.452500	29.454141	4.933863E-6	20.903427
2692.733365	-2.975400	2.799600	-8.329000	29.366691	5.197883E-6	20.931449
2693.732714	-3.007600	2.796800	-8.410500	29.337792	5.725922E-6	20.938832
2694.737376	-2.979200	2.794600	-8.324700	29.389022	5.956939E-6	20.917448
2695.734399	-2.996700	2.792500	-8.367400	29.421085	5.857931E-6	20.917523
2696.732413	-2.969200	2.788200	-8.277300	29.417076	7.178028E-6	20.924861
2697.737764	-2.989000	2.785600	-8.325300	29.429675	6.088948E-6	20.929973
2698.733746	-3.002200	2.783000	-8.353900	29.446787	4.900861E-6	20.931098
2699.734019	-2.973800	2.780600	-8.266700	29.436756	5.395897E-6	20.916249
2700.737479	-2.998600	2.775500	-8.321000	29.476745	6.914009E-6	20.938536
2701.734295	-2.987300	2.774900	-8.287900	29.490235	7.409045E-6	20.917048
2702.733335	-3.006900	2.772900	-8.336400	29.499246	8.201104E-6	20.937509
2703.738945	-2.987200	2.768100	-8.267800	29.516753	7.112024E-6	20.932397
2704.734843	-2.980100	2.765500	-8.240400	29.542575	8.762145E-6	20.946096
2705.733871	-3.008900	2.760900	-8.306200	29.504846	6.815002E-6	20.926086
2706.737510	-2.984800	2.759800	-8.236400	29.532550	5.890934E-6	20.923192
2707.737914	-3.016600	2.755200	-8.309800	29.573148	5.956939E-6	20.939933
2708.735287	-3.023900	2.753100	-8.324500	29.611354	7.574058E-6	20.927715
2709.738816	-3.003500	2.750900	-8.261500	29.661503	5.032870E-6	20.943182
2710.736223	-3.000800	2.747000	-8.242900	29.634870	5.626914E-6	20.937196
2711.740012	-2.997400	2.743000	-8.220600	29.610388	5.956939E-6	20.939542
2712.737749	-2.983300	2.740400	-8.174900	29.576033	5.725922E-6	20.910128
2713.738295	-2.997900	2.737900	-8.206700	29.576577	8.036092E-6	20.937226
2714.738045	-3.016000	2.733000	-8.242400	29.618883	6.815002E-6	20.925348
2715.737280	-2.976100	2.730100	-8.124600	29.659904	8.597133E-6	20.912651
2716.736773	-3.017800	2.725200	-8.223300	29.658915	6.055946E-6	20.914972
2717.737725	-3.001800	2.724100	-8.176500	29.643336	6.947011E-6	20.925344
2718.737811	-3.039600	2.718700	-8.262800	29.618647	6.914009E-6	20.906146
2719.737798	-2.994900	2.716400	-8.134900	29.588177	4.702846E-6	20.912413
2720.739995	-3.005600	2.711200	-8.147500	29.649375	6.154953E-6	20.890658
2721.740311	-2.998000	2.708500	-8.119100	29.703857	5.725922E-6	20.902436
2722.739315	-3.014700	2.703100	-8.147700	29.786455	6.715994E-6	20.920279
2723.741470	-2.994000	2.699500	-8.081300	29.776677	6.055946E-6	20.903310
2724.739045	-2.979200	2.697700	-8.036100	29.758542	5.098875E-6	20.901147
2725.739451	-2.963000	2.694100	-7.981700	29.674634	6.881007E-6	20.900001
2726.739679	-2.951600	2.688600	-7.933900	29.612629	4.834856E-6	20.900553
2727.739146	-2.994800	2.684400	-8.038800	29.630354	8.333113E-6	20.905620
2728.739373	-2.998200	2.680400	-8.035400	29.681525	7.904082E-6	20.880398
2729.739446	-2.992400	2.676000	-8.006200	29.677264	8.399118E-6	20.901704
2730.739095	-3.001400	2.672000	-8.018400	29.719718	8.432121E-6	20.908469
2731.738803	-2.989100	2.666700	-7.970400	29.696060	7.112024E-6	20.884620
2732.739969	-2.987600	2.664000	-7.958100	29.634425	8.135099E-6	20.905456
2733.739588	-2.966200	2.659800	-7.889000	29.680099	8.036092E-6	20.894132
2734.740026	-2.987900	2.654200	-7.928700	29.680005	8.036092E-6	20.884555
2735.742445	-3.008200	2.648000	-7.964400	29.619432	9.191176E-6	20.887973
2736.740272	-2.990500	2.643300	-7.903800	29.638470	9.686213E-6	20.905742
2737.743766	-2.979600	2.640600	-7.867500	29.605948	9.950232E-6	20.886234
2738.741619	-3.005700	2.634800	-7.918600	29.657758	1.047827E-5	20.890575
2739.742875	-3.019300	2.629500	-7.937600	29.719397	9.686213E-6	20.893449
2740.742335	-2.989600	2.624600	-7.846100	29.722542	8.762145E-6	20.876232
2741.743274	-3.002900	2.620500	-7.867200	29.689053	6.649990E-6	20.893201
2742.746334	-3.005600	2.613900	-7.854500	29.730414	8.828150E-6	20.880850
2743.745340	-3.001000	2.609700	-7.830200	29.769227	8.729143E-6	20.889636
2744.744309	-2.994500	2.603800	-7.795000	29.870727	9.818223E-6	20.885294
2745.745711	-2.998500	2.599000	-7.792500	29.889364	1.001624E-5	20.896026
2746.743618	-2.991900	2.591600	-7.752200	29.878328	9.983235E-6	20.873520
2747.745121	-3.007400	2.587200	-7.779900	29.824428	7.013016E-6	20.888869
2748.745677	-3.008700	2.580700	-7.763900	29.783417	8.333113E-6	20.888771
2749.746607	-2.987100	2.575900	-7.694100	29.807204	7.640062E-6	20.893788
2750.744833	-2.999800	2.570800	-7.711000	29.897959	9.257181E-6	20.878616
2751.745312	-2.984300	2.563800	-7.649800	29.910684	1.034626E-5	20.874379
2752.749115	-2.987500	2.557900	-7.640500	29.976711	1.044527E-5	20.894968
2753.746178	-2.952000	2.553600	-7.536200	30.032931	9.455196E-6	20.899981
2754.746135	-3.009800	2.545400	-7.659200	30.055576	7.607060E-6	20.864027
2755.745351	-2.993400	2.539500	-7.600800	30.072378	1.014825E-5	20.880497
2756.746421	-2.994000	2.533800	-7.585200	30.022200	6.947011E-6	20.890108
2757.746651	-2.998200	2.528400	-7.579800	30.060678	1.110532E-5	20.872491
2758.750965	-2.972700	2.523300	-7.499700	30.032028	7.673065E-6	20.894330
2759.750122	-2.967200	2.517100	-7.468100	30.045197	1.018125E-5	20.876792
2760.746049	-3.005500	2.510300	-7.543400	29.988308	1.064328E-5	20.899076
2761.746731	-3.008800	2.503700	-7.532300	30.017634	7.409045E-6	20.860849
2762.749466	-3.001100	2.497400	-7.494400	30.035921	1.028026E-5	20.876446
